####################################################################################################
# Month: 03Mar                                                                                     #
# Station: SUF                                                                                     #
# Frequency: 230 GHz                                                                               #
# Columns are: year    day     segment         tau     Tb (K)                                      #
####################################################################################################
2009    1       0       0.5644965       115.2667
2009    1       1       0.6382235       127.1737
2009    1       2       0.5602259       117.8458
2009    1       3       0.6278804       126.4283
2009    1       4       0.3716641       85.73888
2009    1       5       0.3416015       80.26495
2009    1       6       0.2864615       69.84039
2009    1       7       0.193063        50.42888
2009    2       0       0.1691773       45.30108
2009    2       1       0.1562164       42.56853
2009    2       2       0.2285421       57.21825
2009    2       3       0.3610683       82.25276
2009    2       4       0.392734        88.54713
2009    2       5       0.6260705       125.5984
2009    2       6       0.7303767       139.6076
2009    2       7       0.5741958       119.1851
2009    3       0       0.6134591       124.008
2009    3       1       0.6405352       128.4123
2009    3       2       0.8046545       149.7738
2009    3       3       0.5282264       111.6732
2009    3       4       0.4694114       100.8467
2009    3       5       0.4051573       90.5407
2009    3       6       0.4265456       93.79948
2009    3       7       0.4657324       99.83221
2009    4       0       0.3797554       85.6795
2009    4       1       0.3933492       88.38129
2009    4       2       0.4591177       99.30219
2009    4       3       0.8228205       149.0555
2009    4       4       0.461873        98.84707
2009    4       5       0.4507067       97.02568
2009    4       6       0.4264656       93.03801
2009    4       7       0.369151        83.41064
2009    5       0       0.3662679       82.8304
2009    5       1       0.2830187       67.78868
2009    5       2       0.401926        89.37087
2009    5       3       0.5262775       108.7067
2009    5       4       0.4579623       98.2811
2009    5       5       0.4711483       100.42
2009    5       6       0.3658266       83.08174
2009    5       7       0.2777106       66.9744
2009    6       0       0.2797878       67.28408
2009    6       1       0.4318943       93.78746
2009    6       2       0.4764848       100.748
2009    6       3       0.4815372       101.8698
2009    6       4       0.434775        94.61228
2009    6       5       0.2234963       55.9309
2009    6       6       0.1889401       48.57462
2009    6       7       0.2214357       55.20624
2009    7       0       0.3318084       76.54686
2009    7       1       0.2855922       67.94394
2009    7       2       0.4232133       92.98298
2009    7       3       0.4420404       95.57683
2009    7       4       0.3089613       72.74031
2009    7       5       0.1996107       51.11403
2009    7       6       0.1264155       35.13824
2009    7       7       0.1003165       29.03516
2009    8       0       0.1006977       28.96805
2009    8       1       0.1184002       32.99114
2009    8       2       0.1768653       45.97373
2009    8       3       0.2510613       61.1792
2009    8       4       0.2602347       62.53869
2009    8       5       0.3387448       77.02699
2009    8       6       0.3179149       73.19861
2009    8       7       0.1099816       31.24295
2009    9       0       0.04615967      16.02523
2009    9       1       0.04153324      14.82037
2009    9       2       0.04169442      14.85659
2009    9       3       0.04660893      16.03933
2009    9       4       0.05103379      17.18913
2009    9       5       0.0539927       18.02909
2009    9       6       0.05756929      18.88864
2009    9       7       0.06280827      20.10756
2009    10      0       0.0638072       20.33265
2009    10      1       0.06242559      20.03039
2009    10      2       0.05512244      18.35449
2009    10      3       0.05788235      19.07327
2009    10      4       0.06141972      20.08875
2009    10      5       0.06434193      20.63449
2009    10      6       0.07334063      22.87502
2009    10      7       0.08659708      26.14726
2009    11      0       0.09410331      27.91889
2009    11      1       0.1149725       33.10657
2009    11      2       0.1585326       43.38125
2009    11      3       0.2629373       63.88225
2009    11      4       0.189001        50.07199
2009    11      5       0.1777877       48.05468
2009    11      6       0.2402817       61.02731
2009    11      7       0.5618577       116.2236
2009    12      0       0.4287087       96.06082
2009    12      1       0.257717        64.49242
2009    12      2       0.1721331       46.40078
2009    12      3       0.2391884       60.52259
2009    12      4       0.2368748       60.12986
2009    12      5       0.2196602       56.59291
2009    12      6       0.1575263       42.90891
2009    12      7       0.1044056       30.84931
2009    13      0       0.07899805      24.54082
2009    13      1       0.06490319      20.97404
2009    13      2       0.04823897      16.78182
2009    13      3       0.06562358      21.36067
2009    13      4       0.08961838      27.27698
2009    13      5       0.1027514       29.86408
2009    13      6       0.1265679       34.65538
2009    13      7       0.1126279       31.56256
2009    14      0       0.1354461       36.77972
2009    14      1       0.1753694       45.33737
2009    14      2       0.1298506       35.92897
2009    14      3       0.1274665       35.82872
2009    14      4       0.1786866       47.21178
2009    14      5       0.218899        55.96533
2009    14      6       0.2020563       52.46991
2009    14      7       0.188297        49.36762
2009    15      0       0.1448168       39.79487
2009    15      1       0.1783297       47.80149
2009    15      2       0.324165        76.14421
2009    15      3       0.3207574       75.9899
2009    15      4       0.3149569       75.20664
2009    15      5       0.3831043       87.49678
2009    15      6       0.4914216       105.6365
2009    15      7       0.4943528       106.205
2009    16      0       0.6062363       122.8908
2009    16      1       0.48638         104.1815
2009    16      2       0.643217        127.7415
2009    16      3       0.6701107       131.5082
2009    16      4       0.3098727       74.92189
2009    16      5       0.4162784       94.15781
2009    16      6       0.5295816       111.2833
2009    16      7       0.3283917       78.13737
2009    17      0       0.5325423       111.9782
2009    17      1       0.4451871       98.64069
2009    17      2       0.3762849       87.13735
2009    17      3       0.3785676       87.35643
2009    17      4       0.6409363       127.7253
2009    17      5       0.669736        131.4016
2009    17      6       0.6074578       123.0514
2009    17      7       0.6229257       125.0694
2009    18      0       0.6093845       123.5637
2009    18      1       0.4769491       103.8795
2009    18      2       0.6532753       128.5485
2009    18      3       0.4792852       103.0455
2009    18      4       0.4510023       98.39505
2009    18      5       0.3943468       88.47806
2009    18      6       0.3192091       74.6195
2009    18      7       0.1719006       45.30525
2009    19      0       0.087373        26.14685
2009    19      1       0.06226972      20.10353
2009    19      2       0.05287373      17.81426
2009    19      3       0.07541471      23.29371
2009    19      4       0.09483327      27.83388
2009    19      5       0.1389858       37.99528
2009    19      6       0.1767126       46.1638
2009    19      7       0.18948         48.8989
2009    20      0       0.1739678       45.8418
2009    20      1       0.190677        49.06802
2009    20      2       0.2086576       53.00224
2009    20      3       0.2646271       64.93584
2009    20      4       0.2795166       68.0302
2009    20      5       0.2561157       63.37852
2009    20      6       0.2365344       59.28197
2009    20      7       0.2421428       60.26702
2009    21      0       0.2507474       61.91527
2009    21      1       0.2413735       60.13151
2009    21      2       0.2277071       57.45481
2009    21      3       0.2913319       70.22855
2009    21      4       0.4548822       98.76532
2009    21      5       0.4715939       101.6039
2009    21      6       0.4003847       90.07365
2009    21      7       0.4301914       95.08319
2009    22      0       0.4994268       106.1113
2009    22      1       0.5338681       112.1935
2009    22      2       0.7010909       136.02
2009    22      3       0.8575279       154.424
2009    22      4       0.8476763       154.0782
2009    22      5       0.8790695       158.4753
2009    22      6       0.4813648       104.9982
2009    22      7       0.5081617       108.5634
2009    23      0       0.5402296       114.1659
2009    23      1       0.8091748       151.2497
2009    23      2       0.7824871       147.3658
2009    23      3       0.5952707       122.2675
2009    23      4       0.3924161       90.36855
2009    23      5       0.3006996       73.25034
2009    23      6       0.316391        76.14377
2009    23      7       0.4172204       94.24224
2009    24      0       0.6862567       133.5844
2009    24      1       0.7554199       142.462
2009    24      2       0.7030141       135.7437
2009    24      3       0.6612621       130.3972
2009    24      4       0.5197306       110.79
2009    24      5       0.3112819       75.12346
2009    24      6       0.258068        64.81733
2009    24      7       0.2451315       62.09627
2009    25      0       0.2469851       62.57754
2009    25      1       0.2385803       60.98466
2009    25      2       0.1457979       40.87369
2009    25      3       0.09918667      29.94635
2009    25      4       0.1030271       30.78385
2009    25      5       0.175205        47.21885
2009    25      6       0.3030128       73.8712
2009    25      7       0.3690023       86.52231
2009    26      0       0.6154491       125.1885
2009    26      1       0.643646        129.3427
2009    26      2       0.5761777       119.1164
2009    26      3       0.6938867       134.8415
2009    26      4       0.7225562       138.8543
2009    26      5       0.5712018       119.0489
2009    26      6       0.3606988       84.08546
2009    26      7       0.2635334       65.53281
2009    27      0       0.1655355       44.92703
2009    27      1       0.1254786       35.80077
2009    27      2       0.1026227       30.43523
2009    27      3       0.1024991       30.42124
2009    27      4       0.1165674       33.68299
2009    27      5       0.1478231       40.90917
2009    27      6       0.1931027       51.12797
2009    27      7       0.2047727       53.59346
2009    28      0       0.1962488       51.63614
2009    28      1       0.2020624       52.80401
2009    28      2       0.2026808       53.02746
2009    28      3       0.23873         60.71361
2009    28      4       0.2476268       62.64811
2009    28      5       0.2661219       66.34745
2009    28      6       0.259091        64.89743
2009    28      7       0.2205707       57.00278
2009    29      0       0.1663821       45.16404
2009    29      1       0.1334392       37.65689
2009    29      2       0.09064022      27.50439
2009    29      3       0.129315        36.70537
2009    29      4       0.1209515       34.7374
2009    29      5       0.08845331      26.81566
2009    29      6       0.06768773      21.5679
2009    29      7       0.06701327      21.47247
2009    30      0       0.05972198      19.64704
2009    30      1       0.04924518      16.9216
2009    30      2       0.05147701      17.46591
2009    30      3       0.1074524       31.28616
2009    30      4       0.1446778       40.05586
2009    30      5       0.1426045       39.68262
2009    30      6       0.1057778       31.08416
2009    30      7       0.09015872      27.33113
2009    31      0       0.07826614      24.2772
2009    31      1       0.06592174      21.20733
2009    31      2       0.08605559      26.26511
2009    31      3       0.1504696       41.59938
2009    31      4       0.2301834       58.84992
2009    31      5       0.3374992       79.4435
2009    31      6       0.5047872       107.0711
2009    31      7       0.5308984       112.3448
2010    1       0       0.4552763       99.12425
2010    1       1       0.5199336       108.9405
2010    1       2       0.4802319       103.4115
2010    1       3       0.6356403       125.1064
2010    1       4       0.3839419       86.60162
2010    1       5       0.268146        65.08304
2010    1       6       0.2456781       60.46513
2010    1       7       0.2153899       54.60259
2010    2       0       0.207527        53.20983
2010    2       1       0.2064225       53.06468
2010    2       2       0.2015977       52.17396
2010    2       3       0.264361        64.94942
2010    2       4       0.3523735       81.75502
2010    2       5       0.4191595       93.26143
2010    2       6       0.4554622       99.04001
2010    2       7       0.557164        114.9326
2010    3       0       0.4679337       101.7324
2010    3       1       0.4521608       98.98654
2010    3       2       0.5057617       107.4792
2010    3       3       0.4873337       104.9517
2010    3       4       0.6000296       121.5477
2010    3       5       0.6599453       129.846
2010    3       6       0.6177344       124.5923
2010    3       7       0.5035855       107.8377
2010    4       0       0.4273995       94.62664
2010    4       1       0.3589567       82.55035
2010    4       2       0.2995199       71.46867
2010    4       3       0.5094191       106.9321
2010    4       4       0.5624616       114.8488
2010    4       5       0.4516631       98.42912
2010    4       6       0.3848052       86.85653
2010    4       7       0.3701795       84.112
2010    5       0       0.3604226       82.48111
2010    5       1       0.41459         91.87089
2010    5       2       0.3959583       88.55427
2010    5       3       0.5884635       118.6991
2010    5       4       0.3321802       78.44172
2010    5       5       0.3522326       82.08408
2010    5       6       0.3925492       88.7815
2010    5       7       0.4604305       99.73619
2010    6       0       0.4487714       97.75153
2010    6       1       0.4511011       98.16681
2010    6       2       0.5268499       110.2185
2010    6       3       0.4727089       102.2266
2010    6       4       0.5811138       118.8518
2010    6       5       0.5135011       109.3069
2010    6       6       0.4071419       92.07402
2010    6       7       0.2529371       62.96488
2010    7       0       0.3549614       81.52819
2010    7       1       0.5932207       119.5047
2010    7       2       0.5141123       108.6638
2010    7       3       0.6750853       131.7016
2010    7       4       0.5972953       121.2165
2010    7       5       0.4139063       93.13169
2010    7       6       0.3649829       84.51189
2010    7       7       0.3079821       73.77177
2010    8       0       0.2558602       63.60992
2010    8       1       0.260077        64.1595
2010    8       2       0.3231863       76.08051
2010    8       3       0.3884051       88.05456
2010    8       4       0.5201785       109.7675
2010    8       5       0.5878337       120.0767
2010    8       6       0.4717557       102.3194
2010    8       7       0.2583086       64.38376
2010    9       0       0.2194398       55.94293
2010    9       1       0.2859723       69.10804
2010    9       2       0.3107034       73.97049
2010    9       3       0.3449615       80.41266
2010    9       4       0.3478818       81.31374
2010    9       5       0.3578879       83.13897
2010    9       6       0.312783        74.80146
2010    9       7       0.332086        78.19393
2010    10      0       0.3732848       85.74448
2010    10      1       0.3472635       81.45365
2010    10      2       0.3340092       79.05769
2010    10      3       0.3438828       81.33225
2010    10      4       0.403631        92.16637
2010    10      5       0.5388153       113.6914
2010    10      6       0.6244492       125.9276
2010    10      7       0.6908899       135.1523
2010    11      0       0.5536258       116.1695
2010    11      1       0.643635        128.6213
2010    11      2       0.2926317       72.1498
2010    11      3       0.3561472       83.67345
2010    11      4       0.310765        75.04705
2010    11      5       0.4143175       92.8569
2010    11      6       0.6844441       132.589
2010    11      7       0.6309416       124.2878
2010    12      0       0.1636406       44.00121
2010    12      1       0.03276281      12.74033
2010    12      2       0.03196561      12.50669
2010    12      3       0.0410757       14.76382
2010    12      4       0.04932946      16.73798
2010    12      5       0.07295553      22.25403
2010    12      6       0.1128005       31.66149
2010    12      7       0.1692648       44.02834
2010    13      0       0.2223914       55.33121
2010    13      1       0.3247789       75.56533
2010    13      2       0.5735305       117.0728
2010    13      3       0.5414467       114.0855
2010    13      4       0.4402925       98.58407
2010    13      5       0.4115227       93.66717
2010    13      6       0.4297163       96.3568
2010    13      7       0.5291772       112.1585
2010    14      0       0.8014218       149.1427
2010    14      1       0.8114698       150.4733
2010    14      2       0.5812683       121.3335
2010    14      3       0.7232641       140.1367
2010    14      4       0.8731452       158.0061
2010    14      5       0.6422886       129.9148
2010    14      6       0.5252951       111.9089
2010    14      7       0.4657383       102.6058
2010    15      0       0.4703187       102.997
2010    15      1       0.7173652       138.5401
2010    15      2       0.7530274       142.9416
2010    15      3       0.6557241       130.824
2010    15      4       0.6926633       136.1585
2010    15      5       0.7300998       141.7137
2010    15      6       0.5405513       116.1822
2010    15      7       0.4839717       106.8942
2010    16      0       0.4229233       96.6401
2010    16      1       0.4503576       100.4656
2010    16      2       0.3995884       91.77931
2010    16      3       0.3585346       85.2026
2010    16      4       0.3300562       80.15529
2010    16      5       0.2693964       67.93401
2010    16      6       0.2196001       57.70539
2010    16      7       0.3075949       76.30383
2010    17      0       0.3005259       74.93584
2010    17      1       0.2712851       69.02977
2010    17      2       0.3503978       84.3621
2010    17      3       0.4882649       108.3525
2010    17      4       0.6685998       134.962
2010    17      5       0.8789867       159.8221
2010    17      6       0.8388683       154.5901
2010    17      7       0.8384194       154.2996
2010    18      0       0.677167        134.8935
2010    18      1       0.7959033       148.8518
2010    18      2       0.8824107       158.904
2010    18      3       0.754944        144.9455
2010    18      4       0.7260289       141.6752
2010    18      5       0.5783858       120.773
2010    18      6       0.4181728       95.82202
2010    18      7       0.3094393       75.40017
2010    19      0       0.3380349       81.5232
2010    19      1       0.3628427       86.44827
2010    19      2       0.2535306       64.95739
2010    19      3       0.3154382       77.59193
2010    19      4       0.3519166       84.94186
2010    19      5       0.3961301       92.23051
2010    19      6       0.4639158       102.4256
2010    19      7       0.5507804       114.6984
2010    20      0       0.6882715       133.5782
2010    20      1       0.7275859       138.8928
2010    20      2       0.6052589       122.2795
2010    20      3       0.4810589       103.5739
2010    20      4       0.374733        85.80415
2010    20      5       0.3160171       75.13245
2010    20      6       0.2824408       68.83827
2010    20      7       0.2805112       68.13591
2010    21      0       0.360844        82.26939
2010    21      1       0.2754397       66.61787
2010    21      2       0.1785388       46.83094
2010    21      3       0.157792        42.57242
2010    21      4       0.1991575       51.74864
2010    21      5       0.2945067       70.76144
2010    21      6       0.3283095       76.61072
2010    21      7       0.2946822       70.59413
2010    22      0       0.4291255       93.27133
2010    22      1       0.3779447       84.67027
2010    22      2       0.2912863       69.43827
2010    22      3       0.3128877       73.86632
2010    22      4       0.3530822       80.51591
2010    22      5       0.4126002       90.74841
2010    22      6       0.3265435       76.08581
2010    22      7       0.2706851       65.964
2010    23      0       0.2276424       57.50462
2010    23      1       0.1870071       49.10927
2010    23      2       0.1751801       46.66231
2010    23      3       0.187362        49.65985
2010    23      4       0.2037927       53.07416
2010    23      5       0.2224049       56.96323
2010    23      6       0.2167812       55.5291
2010    23      7       0.2270803       57.30247
2010    24      0       0.2323436       58.45615
2010    24      1       0.2019958       52.45622
2010    24      2       0.203695        52.53855
2010    24      3       0.3023232       72.74873
2010    24      4       0.355249        82.19857
2010    24      5       0.328669        77.46532
2010    24      6       0.2201076       56.18469
2010    24      7       0.1308094       36.82081
2010    25      0       0.07963806      24.85661
2010    25      1       0.04360065      15.82407
2010    25      2       0.03735918      14.13498
2010    25      3       0.08167893      25.64311
2010    25      4       0.1421396       40.19141
2010    25      5       0.2608217       64.85605
2010    25      6       0.4320336       95.67949
2010    25      7       0.7077816       136.2819
2010    26      0       0.5951626       121.7264
2010    26      1       0.5005358       107.4041
2010    26      2       0.5845214       120.0909
2010    26      3       0.7836842       146.6315
2010    26      4       0.6393039       127.6367
2010    26      5       0.6217021       124.3853
2010    26      6       0.508486        107.8134
2010    26      7       0.4400453       96.71213
2010    27      0       0.4173881       92.68157
2010    27      1       0.3872024       86.96509
2010    27      2       0.3499867       80.33618
2010    27      3       0.3372563       77.70447
2010    27      4       0.3007831       70.43303
2010    27      5       0.1450419       39.0875
2010    27      6       0.04000194      14.57369
2010    27      7       0.03362996      12.91405
2010    28      0       0.0328549       12.74929
2010    28      1       0.03256711      12.70618
2010    28      2       0.03533648      13.47776
2010    28      3       0.04395816      15.6904
2010    28      4       0.07425109      23.22388
2010    28      5       0.129572        36.24138
2010    28      6       0.2288493       56.92542
2010    28      7       0.279619        67.95858
2010    29      0       0.3734653       86.2486
2010    29      1       0.4180546       94.1914
2010    29      2       0.5474264       115.103
2010    29      3       0.5730643       119.0944
2010    29      4       0.5987246       122.4103
2010    29      5       0.4565627       100.9999
2010    29      6       0.3226169       76.7195
2010    29      7       0.3522996       81.48855
2010    30      0       0.3430759       80.29705
2010    30      1       0.3480568       81.28324
2010    30      2       0.4021784       90.95911
2010    30      3       0.7643935       143.5635
2010    30      4       0.7344742       139.763
2010    30      5       0.6363447       126.9264
2010    30      6       0.4929269       105.9477
2010    30      7       0.4542074       99.82077
2010    31      0       0.4312091       96.01341
2010    31      1       0.389977        88.98968
2010    31      2       0.4955349       107.339
2010    31      3       0.7102274       137.9189
2010    31      4       0.535911        113.2464
2010    31      5       0.4216011       94.80546
2010    31      6       0.3606827       84.22536
2010    31      7       0.2996236       72.70022
2011    1       0       0.06112447      19.23109
2011    1       1       0.0601146       18.97986
2011    1       2       0.06876785      21.03216
2011    1       3       0.08555934      25.06004
2011    1       4       0.1180971       32.42354
2011    1       5       0.1790721       45.44587
2011    1       6       0.1613391       42.10978
2011    1       7       0.1648749       42.99228
2011    2       0       0.1566345       41.32328
2011    2       1       0.1498769       39.7868
2011    2       2       0.1345737       36.43729
2011    2       3       0.1285204       35.00289
2011    2       4       0.1345406       36.33615
2011    2       5       0.1438151       38.24858
2011    2       6       0.1658809       42.97171
2011    2       7       0.1840843       46.77747
2011    3       0       0.1991922       49.86268
2011    3       1       0.2182659       53.74794
2011    3       2       0.2698739       63.78224
2011    3       3       0.2700599       63.87466
2011    3       4       0.2750622       64.96618
2011    3       5       0.2374808       57.81507
2011    3       6       0.2445197       59.1466
2011    3       7       0.2528327       60.83325
2011    4       0       0.2965378       69.19101
2011    4       1       0.3219715       73.74466
2011    4       2       0.3313613       75.34062
2011    4       3       0.3581933       79.88649
2011    4       4       0.2627493       62.44835
2011    4       5       0.2340156       57.0423
2011    4       6       0.1593178       41.79204
2011    4       7       0.1297407       35.44247
2011    5       0       0.1200877       33.29261
2011    5       1       0.1177603       32.74151
2011    5       2       0.1103991       31.07233
2011    5       3       0.2718302       64.2061
2011    5       4       0.2595842       61.75241
2011    5       5       0.1717177       44.1576
2011    5       6       0.1471506       39.1741
2011    5       7       0.1845048       47.13692
2011    6       0       0.2421619       58.81343
2011    6       1       0.22358         55.14514
2011    6       2       0.2404608       58.57766
2011    6       3       0.3621418       81.21093
2011    6       4       0.311239        72.06948
2011    6       5       0.3298259       75.5711
2011    6       6       0.2812893       66.89731
2011    6       7       0.2540273       61.32212
2011    7       0       0.2076401       52.13454
2011    7       1       0.1946793       49.61403
2011    7       2       0.2528002       61.27885
2011    7       3       0.3000272       70.9991
2011    7       4       0.1389395       38.17142
2011    7       5       0.113035        32.11503
2011    7       6       0.073051        22.58282
2011    7       7       0.08571479      25.67345
2011    8       0       0.102325        29.55108
2011    8       1       0.09577496      28.04097
2011    8       2       0.09133944      27.02941
2011    8       3       0.09524172      28.02406
2011    8       4       0.09406112      27.81284
2011    8       5       0.09080419      26.99195
2011    8       6       0.1008048       29.29548
2011    8       7       0.1244633       34.71965
2011    9       0       0.1369791       37.70396
2011    9       1       0.1519711       41.21272
2011    9       2       0.1531516       41.5174
2011    9       3       0.1322135       37.00446
2011    9       4       0.1216771       34.76683
2011    9       5       0.1173318       33.70955
2011    9       6       0.1196045       34.13241
2011    9       7       0.1196102       33.81996
2011    10      0       0.1392583       37.75817
2011    10      1       0.2157729       54.14889
2011    10      2       0.292715        70.77786
2011    10      3       0.2956838       71.06916
2011    10      4       0.4269866       93.90426
2011    10      5       0.5057867       106.272
2011    10      6       0.4388034       96.83914
2011    10      7       0.3668022       85.1918
2011    11      0       0.4104533       92.49083
2011    11      1       0.39344         89.52315
2011    11      2       0.3623998       84.13498
2011    11      3       0.3619602       84.46416
2011    11      4       0.3783489       87.42483
2011    11      5       0.2920389       71.45184
2011    11      6       0.3277639       77.86475
2011    11      7       0.4408451       97.60283
2011    12      0       0.7795195       145.8374
2011    12      1       0.7326696       141.3847
2011    12      2       0.5258658       111.7628
2011    12      3       0.5724066       118.4175
2011    12      4       0.7418104       141.5806
2011    12      5       0.4688584       103.0892
2011    12      6       0.3558665       83.25386
2011    12      7       0.367178        84.72818
2011    13      0       0.4230567       94.18371
2011    13      1       0.461088        101.54
2011    13      2       0.4695644       103.1336
2011    13      3       0.6453258       128.9173
2011    13      4       0.6434623       128.9362
2011    13      5       0.5877132       121.9423
2011    13      6       0.4876075       107.2271
2011    13      7       0.4503816       101.4042
2011    14      0       0.4809158       106.0979
2011    14      1       0.5349576       114.0774
2011    14      2       0.5505169       116.3494
2011    14      3       0.578771        120.4552
2011    14      4       0.8142376       150.811
2011    14      5       0.9104551       161.5836
2011    14      6       0.9835935       169.5234
2011    14      7       0.6551235       132.0489
2011    15      0       0.6043961       124.8182
2011    15      1       0.6314224       128.3107
2011    15      2       0.7158454       138.2757
2011    15      3       0.6381379       127.1685
2011    15      4       0.5647269       116.2419
2011    15      5       0.4244069       93.95911
2011    15      6       0.2324879       58.2224
2011    15      7       0.06167237      19.86932
2011    16      0       0.04228057      14.98949
2011    16      1       0.04363348      15.29274
2011    16      2       0.04805802      16.43274
2011    16      3       0.07397412      23.00367
2011    16      4       0.1274033       35.53246
2011    16      5       0.2156128       54.67423
2011    16      6       0.5208569       109.0488
2011    16      7       0.6735894       131.4682
2011    17      0       0.5450872       113.84
2011    17      1       0.4601789       98.93524
2011    17      2       0.3864453       85.80579
2011    17      3       0.1886943       48.44891
2011    17      4       0.1414678       38.35681
2011    17      5       0.1496689       40.2242
2011    17      6       0.1399482       38.40836
2011    17      7       0.1386447       38.21765
2011    18      0       0.1323099       36.90034
2011    18      1       0.1046765       30.60543
2011    18      2       0.07864833      24.3991
2011    18      3       0.08805068      26.51194
2011    18      4       0.1150783       32.88689
2011    18      5       0.1249908       35.20951
2011    18      6       0.1115766       32.15399
2011    18      7       0.1077627       31.1541
2011    19      0       0.1142391       32.50924
2011    19      1       0.123245        34.45934
2011    19      2       0.1092728       31.19595
2011    19      3       0.1164004       32.96168
2011    19      4       0.1514738       40.99662
2011    19      5       0.1261589       35.16805
2011    19      6       0.1064935       30.61005
2011    19      7       0.1110291       31.63202
2011    20      0       0.1237613       34.54218
2011    20      1       0.1253996       34.96915
2011    20      2       0.1215992       34.22858
2011    20      3       0.1389526       38.38543
2011    20      4       0.1313035       36.69103
2011    20      5       0.1009058       29.36065
2011    20      6       0.1006157       28.89718
2011    20      7       0.1613999       42.29029
2011    21      0       0.2177187       54.29556
2011    21      1       0.2160926       54.04727
2011    21      2       0.2134388       53.60977
2011    21      3       0.2369719       58.83988
2011    21      4       0.2240798       56.69157
2011    21      5       0.2081832       53.48213
2011    21      6       0.2003908       51.77223
2011    21      7       0.1916624       49.97217
2011    22      0       0.1652664       44.39481
2011    22      1       0.1602749       43.41347
2011    22      2       0.1664532       44.80209
2011    22      3       0.1633338       44.08952
2011    22      4       0.1661251       44.73922
2011    22      5       0.1602121       43.45591
2011    22      6       0.1365829       37.65115
2011    22      7       0.1610827       42.76326
2011    23      0       0.1832581       47.60049
2011    23      1       0.2211291       55.67695
2011    23      2       0.3427817       79.39403
2011    23      3       0.629995        125.5013
2011    23      4       0.6828277       133.6717
2011    23      5       0.4687039       103.595
2011    23      6       0.423929        96.07039
2011    23      7       0.5654477       117.5739
2011    24      0       0.6745221       132.8623
2011    24      1       0.4575846       101.8474
2011    24      2       0.6648949       132.0604
2011    24      3       0.5713611       119.4311
2011    24      4       0.6107074       124.683
2011    24      5       0.4205613       95.94716
2011    24      6       0.4533062       100.7221
2011    24      7       0.6704385       132.5255
2011    25      0       0.7288973       139.2942
2011    25      1       0.7205197       138.0621
2011    25      2       0.4914423       105.9825
2011    25      3       0.6227665       125.2774
2011    25      4       0.7099324       137.8281
2011    25      5       0.6662509       132.7047
2011    25      6       0.5861485       121.3294
2011    25      7       0.5290066       112.3688
2011    26      0       0.6420974       128.7044
2011    26      1       0.6140637       123.8186
2011    26      2       0.7107521       136.3051
2011    26      3       0.6718714       131.7105
2011    26      4       0.6562338       128.8993
2011    26      5       0.4799157       103.3254
2011    26      6       0.4031562       90.97827
2011    26      7       0.3969757       89.99631
2011    27      0       0.4083467       92.06759
2011    27      1       0.4484265       98.67765
2011    27      2       0.5573002       115.0498
2011    27      3       0.6035882       121.7396
2011    27      4       0.5773278       117.9524
2011    27      5       0.409666        91.87851
2011    27      6       0.3016897       73.0436
2011    27      7       0.259668        65.0663
2011    28      0       0.2199387       56.81537
2011    28      1       0.1523648       42.12652
2011    28      2       0.08099204      25.23678
2011    28      3       0.09280128      28.18037
2011    28      4       0.134848        38.205
2011    28      5       0.1179063       34.26248
2011    28      6       0.07625499      24.15449
2011    28      7       0.08598523      26.57642
2011    29      0       0.1108436       32.5479
2011    29      1       0.1116699       32.70629
2011    29      2       0.1318191       37.5133
2011    29      3       0.2577338       65.29796
2011    29      4       0.3326244       79.19913
2011    29      5       0.3854709       88.45027
2011    29      6       0.3734121       86.30372
2011    29      7       0.3897985       89.15271
2011    30      0       0.400882        90.98628
2011    30      1       0.3685676       85.03746
2011    30      2       0.6805756       132.3345
2011    30      3       0.7494279       140.4598
2011    30      4       0.5386549       111.8305
2011    30      5       0.4583314       99.4587
2011    30      6       0.4150681       92.15997
2011    30      7       0.3206707       75.51955
2011    31      0       0.3210543       75.56291
2011    31      1       0.3089026       73.27175
2011    31      2       0.4229841       93.06995
2011    31      3       0.3663182       83.51393
2011    31      4       0.2441942       60.88735
2011    31      5       0.2171477       55.46801
2011    31      6       0.2094388       53.69861
2011    31      7       0.2058416       52.82166
2012    1       0       0.2111222       53.70652
2012    1       1       0.2033246       52.06036
2012    1       2       0.1664899       44.24177
2012    1       3       0.1998982       51.47039
2012    1       4       0.3096534       73.17114
2012    1       5       0.2800349       67.82046
2012    1       6       0.2695643       65.64531
2012    1       7       0.3001461       71.72771
2012    2       0       0.3628576       83.39724
2012    2       1       0.3140672       74.42687
2012    2       2       0.391306        88.05174
2012    2       3       0.4097497       91.71372
2012    2       4       0.4321531       94.61316
2012    2       5       0.3613885       83.41957
2012    2       6       0.3526109       82.1219
2012    2       7       0.3365693       79.20884
2012    3       0       0.3171998       75.31399
2012    3       1       0.3836592       87.12425
2012    3       2       0.2175499       55.78185
2012    3       3       0.3154392       74.42714
2012    3       4       0.55245         113.6038
2012    3       5       0.4314101       95.14459
2012    3       6       0.2301504       58.1107
2012    3       7       0.2729172       66.86509
2012    4       0       0.309513        73.19154
2012    4       1       0.5762902       116.8065
2012    4       2       0.3819559       86.14747
2012    4       3       0.3789275       85.89223
2012    4       4       0.1654851       44.05605
2012    4       5       0.07401628      22.84238
2012    4       6       0.08211747      24.50392
2012    4       7       0.09789945      27.94767
2012    5       0       0.1187561       32.59635
2012    5       1       0.1398115       37.32371
2012    5       2       0.1654663       43.08067
2012    5       3       0.1533635       40.94812
2012    5       4       0.1630146       43.29239
2012    5       5       0.1243774       34.71885
2012    5       6       0.07987078      24.06382
2012    5       7       0.1716992       43.91353
2012    6       0       0.2667195       63.4171
2012    6       1       0.3667782       81.87263
2012    6       2       0.3449452       78.288
2012    6       3       0.3183407       73.6619
2012    6       4       0.2573796       61.98565
2012    6       5       0.1796111       46.2323
2012    6       6       0.3356311       75.93828
2012    6       7       0.3312742       75.31568
2012    7       0       0.3263403       74.42426
2012    7       1       0.2694577       64.15172
2012    7       2       0.2954748       69.72825
2012    7       3       0.368442        83.38618
2012    7       4       0.211678        53.3423
2012    7       5       0.1377678       37.53896
2012    7       6       0.1047235       29.93747
2012    7       7       0.1005971       28.80569
2012    8       0       0.1195082       32.92873
2012    8       1       0.1509241       39.97105
2012    8       2       0.1263948       34.76689
2012    8       3       0.1527428       40.5033
2012    8       4       0.1524091       40.44871
2012    8       5       0.1910853       48.72693
2012    8       6       0.1581055       41.54426
2012    8       7       0.2551251       60.89855
2012    9       0       0.3097408       71.362
2012    9       1       0.3351831       76.18227
2012    9       2       0.3302764       75.90803
2012    9       3       0.3447001       78.22829
2012    9       4       0.3143628       72.99588
2012    9       5       0.2062657       52.21906
2012    9       6       0.1452915       39.16013
2012    9       7       0.1643091       43.09703
2012    10      0       0.2859918       67.34222
2012    10      1       0.3209277       73.58404
2012    10      2       0.2883579       67.7355
2012    10      3       0.3435934       77.76482
2012    10      4       0.2660206       63.84395
2012    10      5       0.2382013       58.16683
2012    10      6       0.258062        62.06973
2012    10      7       0.3836638       84.95487
2012    11      0       0.3319677       75.98378
2012    11      1       0.4156004       89.88324
2012    11      2       0.3489751       78.9813
2012    11      3       0.4114487       89.71731
2012    11      4       0.301665        70.3887
2012    11      5       0.3549263       79.75382
2012    11      6       0.3191487       73.28629
2012    11      7       0.3172679       72.47013
2012    12      0       0.2998296       69.16225
2012    12      1       0.2864835       66.42395
2012    12      2       0.3418583       76.51863
2012    12      3       0.3377935       75.88565
2012    12      4       0.2589385       61.14014
2012    12      5       0.2458854       58.67094
2012    12      6       0.1040329       29.40632
2012    12      7       0.07507819      22.83685
2012    13      0       0.06746924      21.00073
2012    13      1       0.1200412       32.76966
2012    13      2       0.2782644       65.08729
2012    13      3       0.3567648       79.76542
2012    13      4       0.4539841       96.72931
2012    13      5       0.4325119       93.68747
2012    13      6       0.4923008       103.1491
2012    13      7       0.4487779       96.15903
2012    14      0       0.4437603       95.27852
2012    14      1       0.3756736       84.16602
2012    14      2       0.2342838       58.39244
2012    14      3       0.2335264       58.61893
2012    14      4       0.203251        52.36738
2012    14      5       0.2032317       52.4079
2012    14      6       0.1678445       44.79254
2012    14      7       0.1639718       43.82096
2012    15      0       0.1506566       40.81697
2012    15      1       0.308545        73.24214
2012    15      2       0.3959436       89.83532
2012    15      3       0.4063888       91.49345
2012    15      4       0.6610842       130.6564
2012    15      5       0.5747172       120.0528
2012    15      6       0.506299        109.5547
2012    15      7       0.524255        111.5364
2012    16      0       0.7239077       139.3239
2012    16      1       0.7649212       144.4785
2012    16      2       0.5393797       111.7909
2012    16      3       0.1901317       49.33934
2012    16      4       0.112139        32.50068
2012    16      5       0.1119161       32.29355
2012    16      6       0.1226291       34.6809
2012    16      7       0.08853024      26.69607
2012    17      0       0.09827018      28.88256
2012    17      1       0.171792        45.59638
2012    17      2       0.1669852       44.43146
2012    17      3       0.2462923       61.0048
2012    17      4       0.3643469       83.90259
2012    17      5       0.6186144       124.1336
2012    17      6       0.2735185       67.24723
2012    17      7       0.1961628       50.92785
2012    18      0       0.3669332       83.00381
2012    18      1       0.6378665       126.0057
2012    18      2       0.6888438       133.4766
2012    18      3       0.5028425       107.0104
2012    18      4       0.4135658       91.70664
2012    18      5       0.3628009       82.44806
2012    18      6       0.4690829       99.3173
2012    18      7       0.4672938       98.37466
2012    19      0       0.45136         95.31085
2012    19      1       0.3717276       81.9964
2012    19      2       0.3306492       74.48801
2012    19      3       0.2339906       56.37268
2012    19      4       0.1561526       40.57207
2012    19      5       0.155705        40.62322
2012    19      6       0.1246792       33.8473
2012    19      7       0.09704477      27.72512
2012    20      0       0.08096176      24.13666
2012    20      1       0.07013734      21.71953
2012    20      2       0.06441907      20.41888
2012    20      3       0.06563682      20.69236
2012    20      4       0.07536944      23.00218
2012    20      5       0.08511351      25.31772
2012    20      6       0.08769194      25.98722
2012    20      7       0.08618032      25.73459
2012    21      0       0.08453981      25.43703
2012    21      1       0.08147648      24.78419
2012    21      2       0.07521577      23.35311
2012    21      3       0.07464193      23.27743
2012    21      4       0.09300358      27.76432
2012    21      5       0.0962986       28.58373
2012    21      6       0.08326074      25.45272
2012    21      7       0.07680474      23.84415
2012    22      0       0.07529326      23.41024
2012    22      1       0.08044016      24.6376
2012    22      2       0.07918513      24.37223
2012    22      3       0.09378707      27.98549
2012    22      4       0.117296        33.57487
2012    22      5       0.1593932       42.86623
2012    22      6       0.1735664       45.75751
2012    22      7       0.1509167       40.39994
2012    23      0       0.2147907       53.59262
2012    23      1       0.1821176       47.0773
2012    23      2       0.1405688       38.44887
2012    23      3       0.1643853       43.81807
2012    23      4       0.1649795       43.87739
2012    23      5       0.124109        34.68803
2012    23      6       0.08963501      26.73851
2012    23      7       0.1036996       29.77158
2012    24      0       0.1553329       41.19368
2012    24      1       0.2512396       60.94818
2012    24      2       0.4424248       95.83594
2012    24      3       0.366406        84.16067
2012    24      4       0.3899242       88.09603
2012    24      5       0.3009113       71.60612
2012    24      6       0.2481439       61.61541
2012    24      7       0.1688898       45.35059
2012    25      0       0.1493087       40.87872
2012    25      1       0.1223873       34.66468
2012    25      2       0.1167583       33.42377
2012    25      3       0.3146825       74.37899
2012    25      4       0.3280137       76.86273
2012    25      5       0.2179615       55.70141
2012    25      6       0.1408499       38.89109
2012    25      7       0.07873078      24.13352
2012    26      0       0.09480906      27.91198
2012    26      1       0.1546132       41.53059
2012    26      2       0.1680661       44.57847
2012    26      3       0.2598774       63.28137
2012    26      4       0.3153997       74.0317
2012    26      5       0.2623959       64.25853
2012    26      6       0.179284        47.18507
2012    26      7       0.1511473       41.04891
2012    27      0       0.1402038       38.51439
2012    27      1       0.1336403       36.90573
2012    27      2       0.118963        33.61312
2012    27      3       0.1479252       40.30195
2012    27      4       0.1640483       44.05018
2012    27      5       0.1685713       45.12709
2012    27      6       0.1296926       36.52316
2012    27      7       0.09413594      28.13114
2012    28      0       0.08626297      26.24822
2012    28      1       0.1075888       31.34278
2012    28      2       0.1467064       40.34516
2012    28      3       0.2069125       53.89554
2012    28      4       0.2396602       60.81894
2012    28      5       0.2739715       67.19787
2012    28      6       0.4944728       105.519
2012    28      7       0.5297941       112.2088
2012    29      0       0.6674148       131.4296
2012    29      1       0.7413403       141.1964
2012    29      2       0.6823285       135.0546
2012    29      3       0.7825496       147.85
2012    29      4       0.5488228       116.6305
2012    29      5       0.3615314       84.86013
2012    29      6       0.3549463       83.58822
2012    29      7       0.4545729       101.2231
2012    30      0       0.7012748       137.8418
2012    30      1       0.8975374       161.392
2012    30      2       0.4387952       98.99777
2012    30      3       0.5063773       109.6894
2012    30      4       0.4666147       103.7801
2012    30      5       0.4530402       101.9021
2012    30      6       0.4021991       93.24449
2012    30      7       0.4265164       97.22068
2012    31      0       0.4898182       107.9258
2012    31      1       0.5598288       119.1377
2012    31      2       0.722515        141.5052
2012    31      3       0.919816        164.2754
2012    31      4       0.9633261       168.9255
2012    31      5       0.8904905       160.9458
2012    31      6       1.016766        173.9572
2012    31      7       1.195658        189.474
2013    1       0       0.2033857       51.64646
2013    1       1       0.3920887       87.13596
2013    1       2       0.3451598       79.12905
2013    1       3       0.3413482       78.56245
2013    1       4       0.3363009       78.17822
2013    1       5       0.2843862       68.69801
2013    1       6       0.4092198       90.43475
2013    1       7       0.4348155       95.02664
2013    2       0       0.4755485       101.8025
2013    2       1       0.4447579       97.02728
2013    2       2       0.4497312       98.39551
2013    2       3       0.5569047       115.5984
2013    2       4       0.4462873       98.80876
2013    2       5       0.6247384       125.5373
2013    2       6       0.4682492       102.4135
2013    2       7       0.5462877       115.8379
2013    3       0       0.5618761       117.6952
2013    3       1       0.5770929       119.3073
2013    3       2       0.7267643       138.7988
2013    3       3       0.7633744       143.4049
2013    3       4       0.6614386       129.5653
2013    3       5       0.5291406       111.0078
2013    3       6       0.3326332       78.40545
2013    3       7       0.1598509       43.58028
2013    4       0       0.1301283       36.56186
2013    4       1       0.133835        36.95315
2013    4       2       0.1628919       43.44569
2013    4       3       0.2443183       61.08711
2013    4       4       0.2936154       71.17965
2013    4       5       0.2992772       72.4469
2013    4       6       0.2290169       58.31177
2013    4       7       0.2444481       61.21288
2013    5       0       0.2698365       66.30359
2013    5       1       0.209903        53.7398
2013    5       2       0.1657651       44.42625
2013    5       3       0.2108918       54.37113
2013    5       4       0.3637401       83.82843
2013    5       5       0.4324479       96.01926
2013    5       6       0.4118589       92.45343
2013    5       7       0.4292583       95.2302
2013    6       0       0.395749        89.98879
2013    6       1       0.3613504       84.22979
2013    6       2       0.4067871       92.6913
2013    6       3       0.5139293       109.382
2013    6       4       0.4931269       106.6028
2013    6       5       0.4630709       101.6401
2013    6       6       0.4385862       98.02959
2013    6       7       0.5257391       111.1264
2013    7       0       0.5531011       115.5273
2013    7       1       0.6347843       127.1285
2013    7       2       0.6015483       122.8717
2013    7       3       0.5827917       119.1032
2013    7       4       0.5896409       118.8637
2013    7       5       0.4981887       105.8589
2013    7       6       0.4410194       96.90562
2013    7       7       0.5912046       119.3814
2013    8       0       0.5908441       119.0474
2013    8       1       0.5264347       109.5741
2013    8       2       0.4844947       104.0907
2013    8       3       0.3879317       88.57931
2013    8       4       0.4386785       97.12483
2013    8       5       0.555953        113.5818
2013    8       6       0.5263922       108.5352
2013    8       7       0.3381845       78.19081
2013    9       0       0.2546606       61.89848
2013    9       1       0.2938129       69.08249
2013    9       2       0.229819        56.60452
2013    9       3       0.2872226       67.74829
2013    9       4       0.2569976       62.3767
2013    9       5       0.1653428       43.82673
2013    9       6       0.1069922       30.88409
2013    9       7       0.0978125       28.57118
2013    10      0       0.08640976      26.01009
2013    10      1       0.08453568      25.42006
2013    10      2       0.1100003       30.89942
2013    10      3       0.2065601       51.57488
2013    10      4       0.3699627       82.83828
2013    10      5       0.3874996       87.84728
2013    10      6       0.3969474       90.14788
2013    10      7       0.5281614       110.5865
2013    11      0       0.5349935       111.5097
2013    11      1       0.5336859       111.0072
2013    11      2       0.4410371       96.9601
2013    11      3       0.4722153       102.4374
2013    11      4       0.543008        113.8031
2013    11      5       0.6293729       125.9933
2013    11      6       0.6313315       125.7624
2013    11      7       0.6577478       129.2266
2013    12      0       0.6961781       135.0518
2013    12      1       0.5830088       119.8024
2013    12      2       0.6203706       123.8439
2013    12      3       0.8082904       147.2789
2013    12      4       0.7651188       142.788
2013    12      5       0.6771845       131.8644
2013    12      6       0.6546149       128.4986
2013    12      7       0.3937052       89.12597
2013    13      0       0.4526953       98.93265
2013    13      1       0.4836662       103.5393
2013    13      2       0.6406139       126.8492
2013    13      3       0.6499664       128.7016
2013    13      4       0.3952362       89.9054
2013    13      5       0.1708604       46.03897
2013    13      6       0.08565746      26.15618
2013    13      7       0.0717805       22.58146
2013    14      0       0.08587883      25.80976
2013    14      1       0.1083301       31.08579
2013    14      2       0.1406293       38.73458
2013    14      3       0.1669964       45.11648
2013    14      4       0.2237244       57.39264
2013    14      5       0.2709426       66.9556
2013    14      6       0.2713489       66.92453
2013    14      7       0.3043371       73.03869
2013    15      0       0.5092159       108.5886
2013    15      1       0.5316856       111.5316
2013    15      2       0.4684441       101.0873
2013    15      3       0.6264397       124.3276
2013    15      4       0.6306945       125.5598
2013    15      5       0.4544365       99.49783
2013    15      6       0.419566        92.42223
2013    15      7       0.2062899       52.60657
2013    16      0       0.149171        40.51308
2013    16      1       0.2056944       52.55277
2013    16      2       0.5351669       110.6946
2013    16      3       0.6377861       125.666
2013    16      4       0.4249332       92.76976
2013    16      5       0.2847385       68.09242
2013    16      6       0.2339533       57.97208
2013    16      7       0.1807017       47.09045
2013    17      0       0.1650363       43.93047
2013    17      1       0.1707223       45.25736
2013    17      2       0.1668281       44.42543
2013    17      3       0.2046014       52.4871
2013    17      4       0.2148885       54.76691
2013    17      5       0.1955434       50.69639
2013    17      6       0.176077        46.42807
2013    17      7       0.1718952       45.57221
2013    18      0       0.1563371       42.35152
2013    18      1       0.1324826       37.10259
2013    18      2       0.09959889      29.51584
2013    18      3       0.1207526       34.43495
2013    18      4       0.1130917       32.64884
2013    18      5       0.1047351       30.50656
2013    18      6       0.08632558      25.78041
2013    18      7       0.08643608      25.79851
2013    19      0       0.1198283       33.8402
2013    19      1       0.1530812       41.84607
2013    19      2       0.1719358       46.41641
2013    19      3       0.2905702       71.05629
2013    19      4       0.3807726       87.90596
2013    19      5       0.5107387       109.1028
2013    19      6       0.5044833       108.2034
2013    19      7       0.5366646       113.4535
2013    20      0       0.4547069       100.4928
2013    20      1       0.4014847       91.66452
2013    20      2       0.4273429       96.23306
2013    20      3       0.5361297       113.9675
2013    20      4       0.7451115       142.6193
2013    20      5       0.9508354       165.9972
2013    20      6       0.4859718       105.8069
2013    20      7       0.437878        95.22928
2013    21      0       0.2007979       51.47022
2013    21      1       0.30855         72.53905
2013    21      2       0.5281942       109.585
2013    21      3       0.5950302       120.2732
2013    21      4       0.4297032       95.2356
2013    21      5       0.2493045       62.16487
2013    21      6       0.1354212       37.64694
2013    21      7       0.129251        35.81673
2013    22      0       0.2491477       60.47944
2013    22      1       0.3386783       77.88237
2013    22      2       0.4235164       93.0496
2013    22      3       0.4722352       101.4081
2013    22      4       0.5646129       115.8231
2013    22      5       0.6163403       123.5459
2013    22      6       0.6186294       123.9331
2013    22      7       0.6110466       122.8205
2013    23      0       0.5517006       114.7591
2013    23      1       0.4886916       105.0955
2013    23      2       0.4770311       103.2713
2013    23      3       0.5234864       110.9004
2013    23      4       0.5117212       109.1678
2013    23      5       0.491474        105.9747
2013    23      6       0.6130708       123.762
2013    23      7       0.587889        120.7269
2013    24      0       0.5191326       110.6083
2013    24      1       0.4884186       105.7131
2013    24      2       0.4588867       101.1863
2013    24      3       0.7558673       143.7793
2013    24      4       0.6807154       133.8139
2013    24      5       0.4584625       100.9098
2013    24      6       0.1539287       42.14855
2013    24      7       0.09878938      29.6794
2013    25      0       0.1434324       39.83463
2013    25      1       0.2412008       60.74928
2013    25      2       0.2543124       63.69828
2013    25      3       0.2931634       71.65658
2013    25      4       0.4930661       106.6204
2013    25      5       0.5514704       115.7078
2013    25      6       0.491571        106.034
2013    25      7       0.6011145       121.5403
2013    26      0       0.6383186       127.1023
2013    26      1       0.6655579       130.5466
2013    26      2       0.3945615       90.19522
2013    26      3       0.3681571       85.78879
2013    26      4       0.2872857       70.75462
2013    26      5       0.1545432       42.75384
2013    26      6       0.07569562      23.9167
2013    26      7       0.05323501      18.16096
2013    27      0       0.06244303      20.49067
2013    27      1       0.06965585      22.24143
2013    27      2       0.06222133      20.4076
2013    27      3       0.06150836      20.31656
2013    27      4       0.07998127      25.06024
2013    27      5       0.1112061       32.80679
2013    27      6       0.1177389       34.5463
2013    27      7       0.1349668       38.62073
2013    28      0       0.1386497       39.39482
2013    28      1       0.1432747       40.24418
2013    28      2       0.131576        37.30103
2013    28      3       0.1949067       51.62277
2013    28      4       0.3183821       76.77372
2013    28      5       0.379107        87.75526
2013    28      6       0.3605098       84.36696
2013    28      7       0.3732648       86.63096
2013    29      0       0.3815939       88.20554
2013    29      1       0.3671479       85.89827
2013    29      2       0.3349202       80.16948
2013    29      3       0.3007303       73.57757
2013    29      4       0.3069463       74.61933
2013    29      5       0.2635066       66.10848
2013    29      6       0.2357538       60.32104
2013    29      7       0.2047656       53.53946
2013    30      0       0.1800162       47.81565
2013    30      1       0.1859071       49.01083
2013    30      2       0.2346722       59.49383
2013    30      3       0.3118105       75.15626
2013    30      4       0.3708488       86.3099
2013    30      5       0.4271301       95.93023
2013    30      6       0.4799417       104.6756
2013    30      7       0.475196        104.1726
2013    31      0       0.6542414       129.1704
2013    31      1       0.697054        134.8118
2013    31      2       0.6839029       132.4792
2013    31      3       0.6893441       133.1036
2013    31      4       0.6032703       121.5567
2013    31      5       0.5713842       116.8094
2013    31      6       0.4886079       104.0121
2013    31      7       0.3952944       88.79276
2014    1       0       0.07447473      23.32694
2014    1       1       0.07108377      22.4846
2014    1       2       0.06501171      20.97926
2014    1       3       0.06275837      20.4172
2014    1       4       0.06955467      22.10827
2014    1       5       0.07005462      22.23759
2014    1       6       0.06265399      20.40205
2014    1       7       0.06191871      20.16853
2014    2       0       0.06572633      20.94815
2014    2       1       0.07473102      22.99715
2014    2       2       0.09769492      28.45405
2014    2       3       0.1308789       36.1313
2014    2       4       0.1753302       45.87503
2014    2       5       0.2049948       52.05166
2014    2       6       0.2000179       50.74403
2014    2       7       0.1904564       48.698
2014    3       0       0.1829722       47.18323
2014    3       1       0.1805434       46.65143
2014    3       2       0.1940099       49.50599
2014    3       3       0.2373864       58.44827
2014    3       4       0.313938        73.01828
2014    3       5       0.2987112       70.46681
2014    3       6       0.2396705       59.21512
2014    3       7       0.2689452       64.58952
2014    4       0       0.3747304       83.65605
2014    4       1       0.4068499       89.07852
2014    4       2       0.3959171       87.37539
2014    4       3       0.3686497       82.61881
2014    4       4       0.3038296       71.10983
2014    4       5       0.2376834       58.61056
2014    4       6       0.2000318       51.06775
2014    4       7       0.1804538       46.97581
2014    5       0       0.1698209       44.61331
2014    5       1       0.1540221       41.25077
2014    5       2       0.131745        36.54444
2014    5       3       0.121164        34.29778
2014    5       4       0.1234775       34.93904
2014    5       5       0.1178562       33.67726
2014    5       6       0.1157835       33.12502
2014    5       7       0.1320342       36.72642
2014    6       0       0.2242502       56.6062
2014    6       1       0.4561287       99.45078
2014    6       2       0.4300988       94.62572
2014    6       3       0.5516855       113.2773
2014    6       4       0.4471291       97.79253
2014    6       5       0.543803        112.8648
2014    6       6       0.554117        113.5978
2014    6       7       0.5681748       115.5508
2014    7       0       0.6073868       121.3882
2014    7       1       0.5113877       107.7455
2014    7       2       0.4600111       100.0056
2014    7       3       0.3846758       86.5609
2014    7       4       0.3813649       86.28867
2014    7       5       0.3759657       84.84996
2014    7       6       0.5497358       112.8292
2014    7       7       0.4624691       99.69303
2014    8       0       0.3447449       79.63166
2014    8       1       0.2163932       54.62746
2014    8       2       0.2975701       70.0169
2014    8       3       0.5398861       110.4479
2014    8       4       0.5058554       105.4547
2014    8       5       0.3574343       81.18332
2014    8       6       0.207337        52.54701
2014    8       7       0.1255163       34.76969
2014    9       0       0.0929568       27.23874
2014    9       1       0.06122059      19.72939
2014    9       2       0.04151476      14.78927
2014    9       3       0.05112789      17.09321
2014    9       4       0.06067522      19.39398
2014    9       5       0.06265327      19.87488
2014    9       6       0.06964202      21.59437
2014    9       7       0.084428        25.06344
2014    10      0       0.09909728      28.54173
2014    10      1       0.112106        31.71327
2014    10      2       0.1419008       38.58534
2014    10      3       0.143102        39.0138
2014    10      4       0.1234245       34.80263
2014    10      5       0.1053133       30.77433
2014    10      6       0.0778768       24.24673
2014    10      7       0.05753235      19.17063
2014    11      0       0.06170282      20.14913
2014    11      1       0.07403642      23.01547
2014    11      2       0.08924119      26.45985
2014    11      3       0.09783905      28.46001
2014    11      4       0.0937248       27.67978
2014    11      5       0.08672384      26.26544
2014    11      6       0.08051517      24.90248
2014    11      7       0.08234877      25.42818
2014    12      0       0.06824608      21.98197
2014    12      1       0.06214104      20.4777
2014    12      2       0.04710249      16.592
2014    12      3       0.07163452      22.69592
2014    12      4       0.1056597       30.55613
2014    12      5       0.2909399       69.68755
2014    12      6       0.5531019       116.4623
2014    12      7       0.4662122       102.75
2014    13      0       0.4440087       97.84952
2014    13      1       0.5956774       121.0841
2014    13      2       0.596436        122.1239
2014    13      3       0.8058559       149.8781
2014    13      4       0.7920307       149.0153
2014    13      5       0.535455        112.1103
2014    13      6       0.283208        69.76207
2014    13      7       0.2089791       54.12244
2014    14      0       0.2560553       63.91992
2014    14      1       0.2689328       66.46553
2014    14      2       0.3453406       80.54558
2014    14      3       0.4639318       101.0955
2014    14      4       0.5027619       107.3203
2014    14      5       0.4849866       104.2727
2014    14      6       0.5688736       115.5687
2014    14      7       0.5158083       107.4739
2014    15      0       0.5449084       111.7739
2014    15      1       0.534032        110.6354
2014    15      2       0.5084734       107.2115
2014    15      3       0.4247179       94.11061
2014    15      4       0.3982198       89.86849
2014    15      5       0.3440205       80.03279
2014    15      6       0.3375813       79.02149
2014    15      7       0.3577431       82.67205
2014    16      0       0.5458354       113.2073
2014    16      1       0.4192157       93.24521
2014    16      2       0.4977774       105.5928
2014    16      3       0.6094188       122.2161
2014    16      4       0.5823057       118.7531
2014    16      5       0.3531597       82.37812
2014    16      6       0.3496731       80.73027
2014    16      7       0.4071712       92.03744
2014    17      0       0.6741511       131.91
2014    17      1       0.4352924       95.88917
2014    17      2       0.4830645       103.4857
2014    17      3       0.4765276       102.5752
2014    17      4       0.3234286       76.64135
2014    17      5       0.1458648       40.39911
2014    17      6       0.1193362       34.13891
2014    17      7       0.2475234       61.85615
2014    18      0       0.3146013       74.18068
2014    18      1       0.2545195       62.77244
2014    18      2       0.2457554       61.10599
2014    18      3       0.2767725       67.09758
2014    18      4       0.2859426       68.95801
2014    18      5       0.2876236       69.48937
2014    18      6       0.2784941       67.88396
2014    18      7       0.2543701       63.17204
2014    19      0       0.2355855       59.01443
2014    19      1       0.2351891       58.79151
2014    19      2       0.3303354       77.42392
2014    19      3       0.6093927       122.4601
2014    19      4       0.5955641       120.5398
2014    19      5       0.6494264       128.1356
2014    19      6       0.6389918       127.2584
2014    19      7       0.6594133       129.7464
2014    20      0       0.7304055       138.7278
2014    20      1       0.568897        116.2373
2014    20      2       0.4260419       93.90263
2014    20      3       0.3930288       88.38226
2014    20      4       0.3631286       83.23841
2014    20      5       0.345747        80.60003
2014    20      6       0.3756012       86.0547
2014    20      7       0.417995        93.33986
2014    21      0       0.4491573       98.4867
2014    21      1       0.4059097       91.28178
2014    21      2       0.5143446       109.3383
2014    21      3       0.7114106       136.7651
2014    21      4       0.574964        118.4816
2014    21      5       0.4228215       94.95036
2014    21      6       0.3102561       74.75366
2014    21      7       0.2906339       70.86192
2014    22      0       0.3038509       73.32044
2014    22      1       0.2971109       72.01304
2014    22      2       0.4717426       102.7067
2014    22      3       0.6659211       129.6856
2014    22      4       0.6718056       130.6926
2014    22      5       0.5177128       109.4412
2014    22      6       0.4549212       99.56095
2014    22      7       0.5762819       117.4464
2014    23      0       0.6627772       129.5519
2014    23      1       0.6860467       132.664
2014    23      2       0.5372408       112.1841
2014    23      3       0.4964951       106.351
2014    23      4       0.5084646       107.7879
2014    23      5       0.5849347       118.3116
2014    23      6       0.5364927       110.754
2014    23      7       0.4605893       98.83639
2014    24      0       0.3372067       77.75567
2014    24      1       0.2806483       67.03845
2014    24      2       0.3357406       77.15226
2014    24      3       0.4336164       93.86785
2014    24      4       0.3600791       81.66418
2014    24      5       0.231328        57.4141
2014    24      6       0.1716616       44.88835
2014    24      7       0.1563846       41.48217
2014    25      0       0.1901825       48.57714
2014    25      1       0.3042163       70.86165
2014    25      2       0.3187612       73.83313
2014    25      3       0.3324533       76.61218
2014    25      4       0.3375829       77.79573
2014    25      5       0.2209402       54.93463
2014    25      6       0.1956501       49.6551
2014    25      7       0.1777208       46.01514
2014    26      0       0.1763218       45.7244
2014    26      1       0.2814729       66.27684
2014    26      2       0.3076215       71.54522
2014    26      3       0.2726075       65.3025
2014    26      4       0.3653234       82.08112
2014    26      5       0.2831554       67.50436
2014    26      6       0.2985615       70.34158
2014    26      7       0.3845178       85.23471
2014    27      0       0.4079745       89.56327
2014    27      1       0.2643186       63.42725
2014    27      2       0.2485117       60.87204
2014    27      3       0.2120132       53.64996
2014    27      4       0.1894314       48.93014
2014    27      5       0.1547876       41.55253
2014    27      6       0.1299176       36.06315
2014    27      7       0.1026175       29.8619
2014    28      0       0.08069083      24.68663
2014    28      1       0.07310585      22.90129
2014    28      2       0.06016674      19.75506
2014    28      3       0.08330872      25.58867
2014    28      4       0.09808397      29.21509
2014    28      5       0.1225914       34.94161
2014    28      6       0.1247713       35.42611
2014    28      7       0.08255634      25.39962
2014    29      0       0.04878278      16.80256
2014    29      1       0.04355638      15.27949
2014    29      2       0.09455597      27.60987
2014    29      3       0.2150671       54.14867
2014    29      4       0.3601321       81.97257
2014    29      5       0.517712        107.9868
2014    29      6       0.2629882       65.40639
2014    29      7       0.1965494       51.71437
2014    30      0       0.2311445       58.35209
2014    30      1       0.2853327       68.93475
2014    30      2       0.27315         67.24251
2014    30      3       0.2834876       69.60845
2014    30      4       0.2948116       71.79027
2014    30      5       0.3021618       73.31283
2014    30      6       0.2731888       67.76361
2014    30      7       0.1877687       49.95359
2014    31      0       0.1392975       38.98876
2014    31      1       0.1190877       34.28818
2014    31      2       0.1078204       31.53564
2014    31      3       0.1663553       44.74379
2014    31      4       0.2771612       67.95005
2014    31      5       0.3588863       82.91988
2014    31      6       0.3257668       77.25057
2014    31      7       0.3745505       86.12878
2015    1       0       0.1909733       49.47414
2015    1       1       0.1777788       46.61188
2015    1       2       0.1609917       42.96349
2015    1       3       0.1395809       38.3971
2015    1       4       0.1402473       38.5976
2015    1       5       0.168122        44.7196
2015    1       6       0.1750688       46.06125
2015    1       7       0.1947935       50.12594
2015    2       0       0.2327958       57.70452
2015    2       1       0.2778149       66.28229
2015    2       2       0.3131963       72.70015
2015    2       3       0.3618277       81.46121
2015    2       4       0.3678014       82.77591
2015    2       5       0.3657534       82.71592
2015    2       6       0.374644        84.46799
2015    2       7       0.3122362       73.30308
2015    3       0       0.3197646       74.53542
2015    3       1       0.3345894       77.1298
2015    3       2       0.3667246       82.76444
2015    3       3       0.5275757       108.96
2015    3       4       0.3872107       86.5599
2015    3       5       0.3019113       71.46903
2015    3       6       0.2777454       66.79714
2015    3       7       0.2604558       63.42
2015    4       0       0.2382825       58.87763
2015    4       1       0.2300101       57.10936
2015    4       2       0.3603639       81.58088
2015    4       3       0.4622416       98.67993
2015    4       4       0.463995        98.67994
2015    4       5       0.4024045       88.67526
2015    4       6       0.3743731       84.17243
2015    4       7       0.3298231       76.62246
2015    5       0       0.2875998       68.66162
2015    5       1       0.24463         60.09616
2015    5       2       0.3595369       82.20368
2015    5       3       0.6362085       126.0821
2015    5       4       0.4811238       102.2347
2015    5       5       0.4047403       89.7325
2015    5       6       0.3683071       83.5626
2015    5       7       0.3881353       86.67695
2015    6       0       0.394335        87.69801
2015    6       1       0.457772        98.33123
2015    6       2       0.4008921       89.09456
2015    6       3       0.5161052       107.4672
2015    6       4       0.5068226       105.751
2015    6       5       0.4691074       100.6527
2015    6       6       0.3183823       74.60975
2015    6       7       0.2012169       51.55784
2015    7       0       0.2276002       56.84075
2015    7       1       0.294535        69.60918
2015    7       2       0.4231656       91.68581
2015    7       3       0.4170329       90.38256
2015    7       4       0.3634073       81.10852
2015    7       5       0.3047168       70.58312
2015    7       6       0.239623        58.31053
2015    7       7       0.233682        57.09048
2015    8       0       0.2175443       53.75682
2015    8       1       0.1477735       39.25771
2015    8       2       0.1056437       30.17162
2015    8       3       0.1061022       30.48359
2015    8       4       0.1204793       33.7905
2015    8       5       0.111909        31.65142
2015    8       6       0.1552513       40.85461
2015    8       7       0.3009163       70.05648
2015    9       0       0.3839468       85.39429
2015    9       1       0.3356207       77.23017
2015    9       2       0.4366594       94.47377
2015    9       3       0.5033111       105.2398
2015    9       4       0.5155415       107.1583
2015    9       5       0.5131211       106.6579
2015    9       6       0.5394577       110.4886
2015    9       7       0.5137325       106.4456
2015    10      0       0.4676924       99.1059
2015    10      1       0.4472734       95.59661
2015    10      2       0.4302818       92.73345
2015    10      3       0.3866983       85.69064
2015    10      4       0.3800084       84.12074
2015    10      5       0.3462786       78.12278
2015    10      6       0.2779549       65.4199
2015    10      7       0.1916536       48.52291
2015    11      0       0.1305951       35.50483
2015    11      1       0.09980648      28.62952
2015    11      2       0.08284714      24.79936
2015    11      3       0.07799047      23.7066
2015    11      4       0.07821352      23.67119
2015    11      5       0.1003822       29.0
2015    11      6       0.1104021       31.51356
2015    11      7       0.08819403      26.38468
2015    12      0       0.09562465      28.07019
2015    12      1       0.1104726       31.64624
2015    12      2       0.1087301       31.36557
2015    12      3       0.1016222       29.70634
2015    12      4       0.1039142       30.24712
2015    12      5       0.1144307       32.70755
2015    12      6       0.1064049       30.75765
2015    12      7       0.09971157      29.18016
2015    13      0       0.09399979      27.85254
2015    13      1       0.08521137      25.80323
2015    13      2       0.07851007      24.22265
2015    13      3       0.07670924      23.83223
2015    13      4       0.07369271      23.14325
2015    13      5       0.08236063      25.37947
2015    13      6       0.0784163       24.46679
2015    13      7       0.08065438      25.10272
2015    14      0       0.1392975       39.1816
2015    14      1       0.1618139       44.24473
2015    14      2       0.165925        45.09115
2015    14      3       0.1857067       49.32318
2015    14      4       0.2430002       61.29051
2015    14      5       0.2559741       63.80697
2015    14      6       0.220403        56.41975
2015    14      7       0.1856283       48.89951
2015    15      0       0.174487        46.39393
2015    15      1       0.269769        66.45956
2015    15      2       0.2412215       60.42086
2015    15      3       0.2079231       53.26089
2015    15      4       0.2026039       52.15307
2015    15      5       0.1313268       36.60392
2015    15      6       0.07174242      22.63496
2015    15      7       0.03592033      13.62564
2015    16      0       0.02983795      11.94407
2015    16      1       0.03384883      12.98992
2015    16      2       0.03494766      13.30235
2015    16      3       0.05928892      19.70473
2015    16      4       0.1080559       31.60168
2015    16      5       0.1651813       44.40033
2015    16      6       0.1416733       39.11016
2015    16      7       0.10301         30.27066
2015    17      0       0.117387        33.59346
2015    17      1       0.1367465       37.98492
2015    17      2       0.1287747       36.01554
2015    17      3       0.1825906       47.75795
2015    17      4       0.2328754       58.40012
2015    17      5       0.2164686       55.01366
2015    17      6       0.2501689       61.59136
2015    17      7       0.2474445       61.45026
2015    18      0       0.2261924       57.35404
2015    18      1       0.211406        54.30792
2015    18      2       0.2519588       62.5198
2015    18      3       0.3109175       73.60093
2015    18      4       0.2992312       71.85163
2015    18      5       0.2614029       64.80342
2015    18      6       0.2408031       60.73456
2015    18      7       0.222659        56.79208
2015    19      0       0.2652579       65.1307
2015    19      1       0.3271192       77.03568
2015    19      2       0.3583397       83.05362
2015    19      3       0.5727511       118.0669
2015    19      4       0.5826336       120.0234
2015    19      5       0.4830255       104.5665
2015    19      6       0.5274679       111.059
2015    19      7       0.530178        111.3826
2015    20      0       0.5942392       121.4543
2015    20      1       0.5280199       111.7794
2015    20      2       0.4130561       93.19235
2015    20      3       0.4220114       94.79833
2015    20      4       0.3454975       81.28428
2015    20      5       0.2065458       53.72261
2015    20      6       0.1159258       33.53192
2015    20      7       0.08362203      25.7123
2015    21      0       0.07817085      24.22479
2015    21      1       0.1240901       34.78199
2015    21      2       0.2297701       57.36425
2015    21      3       0.4908259       104.8798
2015    21      4       0.5514152       116.4811
2015    21      5       0.5633548       119.4871
2015    21      6       0.2802619       69.94367
2015    21      7       0.1997762       52.40524
2015    22      0       0.2696437       66.91781
2015    22      1       0.3435775       80.92546
2015    22      2       0.2822435       69.08825
2015    22      3       0.5149604       110.1656
2015    22      4       0.535688        112.5594
2015    22      5       0.6017549       122.8615
2015    22      6       0.6390432       127.4723
2015    22      7       0.7825671       146.7954
2015    23      0       0.7138051       138.8387
2015    23      1       0.6834419       135.2137
2015    23      2       0.6649049       132.6225
2015    23      3       0.8148145       151.4086
2015    23      4       0.6998915       138.3789
2015    23      5       0.9965175       171.7022
2015    23      6       0.6554868       133.5251
2015    23      7       1.258337        195.839
2015    24      0       0.7881565       146.4826
2015    24      1       0.4024739       88.85217
2015    24      2       0.1953169       50.53164
2015    24      3       0.1914437       50.15333
2015    24      4       0.1961928       50.75789
2015    24      5       0.189736        49.38343
2015    24      6       0.150738        41.10057
2015    24      7       0.1300251       36.4572
2015    25      0       0.1477938       40.04864
2015    25      1       0.1586944       42.05407
2015    25      2       0.1967376       49.8295
2015    25      3       0.2359475       57.7425
2015    25      4       0.2822015       67.29281
2015    25      5       0.2421077       59.95356
2015    25      6       0.2110833       53.87087
2015    25      7       0.2458841       60.73427
2015    26      0       0.2610981       64.21905
2015    26      1       0.2534163       62.57928
2015    26      2       0.2743422       67.02578
2015    26      3       0.3416593       79.72136
2015    26      4       0.3868658       87.94778
2015    26      5       0.3668935       84.15273
2015    26      6       0.3657079       83.8042
2015    26      7       0.4749353       102.2623
2015    27      0       0.5072204       107.3984
2015    27      1       0.5452954       113.1304
2015    27      2       0.5518586       113.8733
2015    27      3       0.5691761       116.4204
2015    27      4       0.5565018       114.3599
2015    27      5       0.4422127       96.57268
2015    27      6       0.3580334       82.26718
2015    27      7       0.2936766       70.56984
2015    28      0       0.2778038       67.28195
2015    28      1       0.2873358       68.88471
2015    28      2       0.3027689       72.09821
2015    28      3       0.3301598       77.90719
2015    28      4       0.3408093       79.66453
2015    28      5       0.2920899       70.6512
2015    28      6       0.2262794       57.31877
2015    28      7       0.2036936       52.74703
2015    29      0       0.1724962       45.67107
2015    29      1       0.1210722       34.1283
2015    29      2       0.1121843       32.1386
2015    29      3       0.1995344       51.12491
2015    29      4       0.2461995       60.51653
2015    29      5       0.241909        59.68537
2015    29      6       0.2560089       62.24121
2015    29      7       0.3538675       80.29064
2015    30      0       0.491376        102.8798
2015    30      1       0.2582029       62.58086
2015    30      2       0.1653404       43.64947
2015    30      3       0.1334456       36.78081
2015    30      4       0.09966784      29.21324
2015    30      5       0.06850269      21.76076
2015    30      6       0.03922894      14.34114
2015    30      7       0.0384082       14.06795
2015    31      0       0.05287054      17.65593
2015    31      1       0.113461        31.74417
2015    31      2       0.3166128       74.11197
2015    31      3       0.6739657       130.7679
2015    31      4       0.5869705       120.72
2015    31      5       0.6919693       135.0219
2015    31      6       0.507746        109.7475
2015    31      7       0.4094939       92.52558
2016    1       0       0.2604612       64.28803
2016    1       1       0.2816574       68.23128
2016    1       2       0.3162159       74.66455
2016    1       3       0.4879222       104.8213
2016    1       4       0.6392179       127.0994
2016    1       5       0.6818073       132.9355
2016    1       6       0.61827         124.6113
2016    1       7       0.5491462       114.8759
2016    2       0       0.4856673       105.054
2016    2       1       0.4407955       97.73998
2016    2       2       0.3947462       90.01177
2016    2       3       0.3420345       81.00712
2016    2       4       0.2500579       63.2432
2016    2       5       0.213129        55.60125
2016    2       6       0.1556611       43.12737
2016    2       7       0.1294709       37.08243
2016    3       0       0.1037433       30.96073
2016    3       1       0.07879566      24.84391
2016    3       2       0.07250254      23.34057
2016    3       3       0.1155269       34.11809
2016    3       4       0.1715353       47.18291
2016    3       5       0.2014791       53.85145
2016    3       6       0.1951334       52.50572
2016    3       7       0.2143828       56.58339
2016    4       0       0.242245        62.21762
2016    4       1       0.2887472       71.18155
2016    4       2       0.277008        68.74002
2016    4       3       0.2862085       70.60463
2016    4       4       0.3435197       81.46843
2016    4       5       0.3166867       76.34744
2016    4       6       0.2531492       63.72575
2016    4       7       0.2267373       58.10729
2016    5       0       0.2284014       58.17901
2016    5       1       0.2167371       55.56634
2016    5       2       0.2097967       54.03923
2016    5       3       0.2259016       57.40827
2016    5       4       0.2459238       61.70527
2016    5       5       0.242451        61.24224
2016    5       6       0.2335938       59.51065
2016    5       7       0.2627804       65.46691
2016    6       0       0.3036879       73.55584
2016    6       1       0.3291748       78.58052
2016    6       2       0.3574876       84.04861
2016    6       3       0.4164143       94.65588
2016    6       4       0.4639018       102.6665
2016    6       5       0.4795604       105.2623
2016    6       6       0.4716145       103.9111
2016    6       7       0.4282198       96.54018
2016    7       0       0.4118906       93.71927
2016    7       1       0.4009808       91.76661
2016    7       2       0.380318        88.17975
2016    7       3       0.4253103       96.06834
2016    7       4       0.4207155       95.32752
2016    7       5       0.3882273       89.72853
2016    7       6       0.3817028       88.64045
2016    7       7       0.3962231       91.03677
2016    8       0       0.4313556       96.80503
2016    8       1       0.4920126       106.4756
2016    8       2       0.5850225       120.4442
2016    8       3       0.7014          136.2778
2016    8       4       0.8142945       150.5291
2016    8       5       0.9054181       161.2055
2016    8       6       0.6544761       130.8546
2016    8       7       0.5299439       113.062
2016    9       0       0.5137858       110.3393
2016    9       1       0.493894        106.8702
2016    9       2       0.6065373       123.2192
2016    9       3       0.7912316       147.0021
2016    9       4       0.7359391       140.6948
2016    9       5       0.7964184       148.4063
2016    9       6       0.8370461       153.6122
2016    9       7       0.5615845       117.4538
2016    10      0       0.4389242       98.14725
2016    10      1       0.3304447       78.59585
2016    10      2       0.3583314       83.83571
2016    10      3       0.6746322       134.6769
2016    10      4       0.4333469       96.92693
2016    10      5       0.3834613       87.97047
2016    10      6       0.4730694       103.1574
2016    10      7       0.527071        111.1059
2016    11      0       0.5290959       111.2789
2016    11      1       0.5115682       108.0837
2016    11      2       0.5271559       109.9969
2016    11      3       0.5304897       110.3202
2016    11      4       0.3296939       76.97239
2016    11      5       0.2606834       63.83181
2016    11      6       0.2140566       54.36248
2016    11      7       0.168547        44.3005
2016    12      0       0.1659561       43.56993
2016    12      1       0.1726717       45.55209
2016    12      2       0.1490353       40.74894
2016    12      3       0.1811535       48.29951
2016    12      4       0.2019823       52.89374
2016    12      5       0.1873638       49.70801
2016    12      6       0.1513592       41.6124
2016    12      7       0.1596857       43.39341
2016    13      0       0.2227166       56.44461
2016    13      1       0.2745611       66.70789
2016    13      2       0.4598688       99.04713
2016    13      3       0.5023761       105.224
2016    13      4       0.4287062       94.29831
2016    13      5       0.4459057       97.27769
2016    13      6       0.4074431       90.71439
2016    13      7       0.4003399       89.37742
2016    14      0       0.4943315       104.1583
2016    14      1       0.5059823       105.6439
2016    14      2       0.3572884       81.27641
2016    14      3       0.4782906       102.2394
2016    14      4       0.3316198       77.17291
2016    14      5       0.1999483       51.05331
2016    14      6       0.1613614       42.91997
2016    14      7       0.1074842       30.89657
2016    15      0       0.1000467       29.06809
2016    15      1       0.07520054      23.37513
2016    15      2       0.07577898      23.71487
2016    15      3       0.1035868       30.49788
2016    15      4       0.188648        49.44582
2016    15      5       0.5180965       109.2153
2016    15      6       0.5733035       117.9344
2016    15      7       0.6133593       124.1211
2016    16      0       0.7553844       144.115
2016    16      1       0.84894         154.2154
2016    16      2       0.6446396       127.0785
2016    16      3       0.5921277       119.5994
2016    16      4       0.5594856       114.7484
2016    16      5       0.5020816       106.0116
2016    16      6       0.3852262       86.95308
2016    16      7       0.3791953       85.59303
2016    17      0       0.294117        70.3581
2016    17      1       0.315133        74.27354
2016    17      2       0.4647618       100.3419
2016    17      3       0.4874864       103.6874
2016    17      4       0.487725        103.7132
2016    17      5       0.4291519       94.04248
2016    17      6       0.4727773       101.2232
2016    17      7       0.4520708       97.62294
2016    18      0       0.4001089       88.7263
2016    18      1       0.3447322       79.58382
2016    18      2       0.407232        90.20823
2016    18      3       0.4075314       89.6408
2016    18      4       0.3940473       87.46661
2016    18      5       0.3098241       72.78198
2016    18      6       0.2480344       60.84455
2016    18      7       0.2110348       53.31749
2016    19      0       0.1728136       45.32317
2016    19      1       0.1465293       39.62528
2016    19      2       0.1624365       43.15398
2016    19      3       0.2429464       59.8351
2016    19      4       0.2782236       66.85706
2016    19      5       0.2418064       59.8334
2016    19      6       0.1929305       49.87355
2016    19      7       0.1305951       36.25061
2016    20      0       0.1109006       31.64988
2016    20      1       0.1135458       32.17009
2016    20      2       0.1326329       36.58526
2016    20      3       0.207933        52.86417
2016    20      4       0.3202988       74.76692
2016    20      5       0.3011609       71.2271
2016    20      6       0.2038719       51.91247
2016    20      7       0.1558837       41.80117
2016    21      0       0.1164907       33.21623
2016    21      1       0.08804674      26.47417
2016    21      2       0.09277806      27.23616
2016    21      3       0.165142        43.55322
2016    21      4       0.3442883       78.32681
2016    21      5       0.3970307       87.75846
2016    21      6       0.3502505       79.95176
2016    21      7       0.2781372       66.78387
2016    22      0       0.2966194       70.85382
2016    22      1       0.2623462       64.34353
2016    22      2       0.2741734       66.71664
2016    22      3       0.257086        63.90008
2016    22      4       0.3218436       76.10624
2016    22      5       0.3773779       86.34639
2016    22      6       0.3571434       83.34794
2016    22      7       0.5632945       116.3014
2016    23      0       0.61637         123.5103
2016    23      1       0.5880673       119.4522
2016    23      2       0.6320736       125.6511
2016    23      3       0.594639        120.7837
2016    23      4       0.5971006       121.8089
2016    23      5       0.4317848       96.80791
2016    23      6       0.3501968       82.01094
2016    23      7       0.5383752       112.286
2016    24      0       0.5342592       111.6408
2016    24      1       0.4388146       97.90417
2016    24      2       0.5574482       116.2127
2016    24      3       0.6444712       128.7531
2016    24      4       0.6635908       131.2493
2016    24      5       0.6889139       134.6762
2016    24      6       0.6167301       124.6712
2016    24      7       0.6577729       129.027
2016    25      0       0.4337311       95.51923
2016    25      1       0.2730174       66.34274
2016    25      2       0.2588548       64.1166
2016    25      3       0.3895802       89.33211
2016    25      4       0.4610092       101.3023
2016    25      5       0.4166919       93.64014
2016    25      6       0.3040069       73.51906
2016    25      7       0.2101012       54.67676
2016    26      0       0.1870277       49.63759
2016    26      1       0.1661154       45.01429
2016    26      2       0.1513886       41.72193
2016    26      3       0.1876122       49.84002
2016    26      4       0.2523744       63.53731
2016    26      5       0.2791186       68.73845
2016    26      6       0.2718982       67.13369
2016    26      7       0.2310413       58.55559
2016    27      0       0.2303065       58.35726
2016    27      1       0.2350258       59.453
2016    27      2       0.291593        70.2694
2016    27      3       0.4766762       102.551
2016    27      4       0.5247844       110.6925
2016    27      5       0.6303365       126.3552
2016    27      6       0.5858107       120.4966
2016    27      7       0.7126389       137.6522
2016    28      0       0.8050039       148.8521
2016    28      1       0.8105225       149.8588
2016    28      2       0.8747644       157.1267
2016    28      3       0.6927246       134.5364
2016    28      4       0.7682135       144.4397
2016    28      5       0.5403409       114.9302
2016    28      6       0.6340517       129.0591
2016    28      7       0.4531994       101.6304
2016    29      0       0.3960641       91.69893
2016    29      1       0.4814878       105.8577
2016    29      2       0.4650248       103.2903
2016    29      3       0.8452244       154.1368
2016    29      4       0.8538433       156.8996
2016    29      5       0.6199715       127.9302
2016    29      6       0.4952464       108.532
2016    29      7       0.5261185       113.4644
2016    30      0       0.746308        143.8909
2016    30      1       0.5131934       111.8841
2016    30      2       0.5283258       114.0751
2016    30      3       0.6260727       128.5028
2016    30      4       0.8135336       151.9612
2016    30      5       0.8080291       150.7017
2016    30      6       0.6165778       126.9992
2016    30      7       0.2506544       62.97396
2016    31      0       0.3388744       80.24079
2016    31      1       0.236162        60.09704
2016    31      2       0.3103864       74.14618
2016    31      3       0.3837649       87.68072
2016    31      4       0.421146        95.28395
2016    31      5       0.2722397       67.32952
2016    31      6       0.2272653       58.00218
2016    31      7       0.2266598       57.86694
2017    1       0       0.1504114       40.81339
2017    1       1       0.1504298       40.64154
2017    1       2       0.2817042       67.97928
2017    1       3       0.3331094       77.75652
2017    1       4       0.4838037       102.9063
2017    1       5       0.5358386       110.2161
2017    1       6       0.3864753       86.67881
2017    1       7       0.2147916       54.50928
2017    2       0       0.1737911       45.65389
2017    2       1       0.1233917       34.43414
2017    2       2       0.1478471       39.98328
2017    2       3       0.1932273       49.76547
2017    2       4       0.1981763       50.52415
2017    2       5       0.1659677       43.68828
2017    2       6       0.161018        42.71763
2017    2       7       0.1686649       44.23489
2017    3       0       0.1355464       36.97762
2017    3       1       0.1041541       29.90012
2017    3       2       0.08243633      24.8468
2017    3       3       0.08252733      24.9409
2017    3       4       0.09327232      27.54185
2017    3       5       0.09136965      27.1077
2017    3       6       0.06988172      21.99227
2017    3       7       0.06748509      21.41325
2017    4       0       0.06756518      21.43528
2017    4       1       0.06133663      19.91551
2017    4       2       0.06635907      21.15231
2017    4       3       0.09832588      28.77551
2017    4       4       0.1176395       33.30403
2017    4       5       0.09925523      29.11958
2017    4       6       0.07088932      22.34685
2017    4       7       0.05890846      19.39503
2017    5       0       0.05619436      18.69664
2017    5       1       0.05785369      19.04266
2017    5       2       0.07453783      23.10949
2017    5       3       0.1183822       33.43863
2017    5       4       0.1236106       34.65488
2017    5       5       0.1143201       32.30148
2017    5       6       0.1612942       42.17553
2017    5       7       0.1425715       38.24183
2017    6       0       0.1178201       32.91666
2017    6       1       0.1341026       36.94316
2017    6       2       0.1043519       30.0952
2017    6       3       0.1115176       31.83064
2017    6       4       0.1118253       31.97446
2017    6       5       0.08787024      26.28728
2017    6       6       0.05702366      18.5816
2017    6       7       0.05789862      18.71827
2017    7       0       0.05986927      19.23847
2017    7       1       0.06043329      19.44722
2017    7       2       0.06120144      19.68344
2017    7       3       0.09626099      28.25406
2017    7       4       0.1016482       29.58486
2017    7       5       0.08099064      24.69364
2017    7       6       0.05567682      18.46645
2017    7       7       0.05134585      17.35154
2017    8       0       0.05469203      18.16198
2017    8       1       0.06023236      19.54233
2017    8       2       0.05967258      19.41556
2017    8       3       0.05948464      19.37001
2017    8       4       0.06214002      20.02102
2017    8       5       0.06127959      19.7937
2017    8       6       0.05898615      19.22859
2017    8       7       0.05901846      19.22775
2017    9       0       0.06586154      20.88698
2017    9       1       0.07741825      23.59285
2017    9       2       0.08246203      24.70374
2017    9       3       0.08551443      25.39238
2017    9       4       0.1277106       34.98141
2017    9       5       0.1814876       46.46512
2017    9       6       0.1555636       41.26115
2017    9       7       0.1016438       29.21293
2017    10      0       0.0588768       18.98404
2017    10      1       0.0522683       17.32356
2017    10      2       0.05816306      18.79959
2017    10      3       0.1243801       34.47517
2017    10      4       0.1475575       39.53951
2017    10      5       0.1294799       35.50815
2017    10      6       0.1084541       30.76699
2017    10      7       0.09654716      28.00195
2017    11      0       0.09548517      27.67668
2017    11      1       0.0885903       26.01144
2017    11      2       0.07891302      23.72521
2017    11      3       0.1288376       35.0925
2017    11      4       0.1293406       35.30696
2017    11      5       0.08436373      25.1247
2017    11      6       0.05623984      18.37475
2017    11      7       0.05560987      18.18915
2017    12      0       0.05107731      17.04516
2017    12      1       0.0542167       17.7865
2017    12      2       0.05715721      18.58623
2017    12      3       0.08078615      24.41784
2017    12      4       0.09530206      27.87987
2017    12      5       0.08483039      25.44275
2017    12      6       0.05587795      18.48431
2017    12      7       0.04393945      15.46087
2017    13      0       0.0443958       15.51705
2017    13      1       0.04835981      16.47796
2017    13      2       0.05997473      19.39532
2017    13      3       0.07420213      22.76634
2017    13      4       0.08635681      25.55205
2017    13      5       0.07908233      23.82745
2017    13      6       0.0554794       18.27163
2017    13      7       0.04352297      15.35074
2017    14      0       0.04105539      14.73436
2017    14      1       0.0410167       14.70773
2017    14      2       0.0420369       14.91887
2017    14      3       0.04342119      15.29875
2017    14      4       0.05770555      18.85162
2017    14      5       0.07863906      23.93655
2017    14      6       0.09904165      28.53019
2017    14      7       0.1871049       47.59685
2017    15      0       0.3583804       80.50789
2017    15      1       0.3895807       86.61645
2017    15      2       0.3777041       84.93155
2017    15      3       0.3805755       86.02913
2017    15      4       0.4474723       97.70223
2017    15      5       0.446201        97.64305
2017    15      6       0.4949339       105.0733
2017    15      7       0.3774369       85.92318
2017    16      0       0.2940677       70.58641
2017    16      1       0.2065976       53.10328
2017    16      2       0.1427463       39.25109
2017    16      3       0.1728734       46.04935
2017    16      4       0.1969989       51.32482
2017    16      5       0.1670539       44.84009
2017    16      6       0.1167005       33.24523
2017    16      7       0.1093999       31.40199
2017    17      0       0.1179737       33.29302
2017    17      1       0.1077745       31.06812
2017    17      2       0.09892335      29.15559
2017    17      3       0.1387373       38.37677
2017    17      4       0.2087347       53.3423
2017    17      5       0.2242604       56.73484
2017    17      6       0.3291001       76.96398
2017    17      7       0.4788496       103.2359
2017    18      0       0.6488062       127.2628
2017    18      1       0.5252496       110.4102
2017    18      2       0.4220633       93.69188
2017    18      3       0.328426        77.38183
2017    18      4       0.2360913       59.22293
2017    18      5       0.2103886       53.50886
2017    18      6       0.2232047       55.89815
2017    18      7       0.1879451       48.64122
2017    19      0       0.1217681       34.25262
2017    19      1       0.0792347       24.25525
2017    19      2       0.08752074      26.18763
2017    19      3       0.1301548       36.28783
2017    19      4       0.1430299       39.43328
2017    19      5       0.1791243       47.44151
2017    19      6       0.1924422       50.29941
2017    19      7       0.2231042       56.47056
2017    20      0       0.2549598       62.47368
2017    20      1       0.2840457       68.0452
2017    20      2       0.3028621       71.83234
2017    20      3       0.2938214       70.37933
2017    20      4       0.4085231       90.8233
2017    20      5       0.5602412       115.3456
2017    20      6       0.5481922       114.1803
2017    20      7       0.4986181       107.3567
2017    21      0       0.8508329       154.4346
2017    21      1       0.9007119       160.5755
2017    21      2       1.109552        182.0987
2017    21      3       1.002913        170.9244
2017    21      4       1.025411        172.9501
2017    21      5       0.7282627       139.6937
2017    21      6       0.6954844       135.2291
2017    21      7       0.6254942       125.7185
2017    22      0       0.6358727       127.7226
2017    22      1       0.3876198       89.29753
2017    22      2       0.2900261       71.07693
2017    22      3       0.4486672       99.85788
2017    22      4       0.5996904       122.9876
2017    22      5       0.5567292       116.7666
2017    22      6       0.4495079       99.81252
2017    22      7       0.3530445       82.73722
2017    23      0       0.3797561       87.91637
2017    23      1       0.2526899       63.4764
2017    23      2       0.1961986       51.41977
2017    23      3       0.4388434       97.51227
2017    23      4       0.3452784       81.37129
2017    23      5       0.3033606       73.65069
2017    23      6       0.207739        53.97377
2017    23      7       0.176475        46.83961
2017    24      0       0.1397202       38.3533
2017    24      1       0.1364962       37.3069
2017    24      2       0.2069678       52.74029
2017    24      3       0.329116        76.7987
2017    24      4       0.5321714       111.1325
2017    24      5       0.4747553       103.6298
2017    24      6       0.4579543       101.0767
2017    24      7       0.5594718       116.7619
2017    25      0       0.4995707       108.0788
2017    25      1       0.4665116       103.0906
2017    25      2       0.5592408       117.1273
2017    25      3       0.7207979       138.399
2017    25      4       0.747047        142.6443
2017    25      5       0.6184101       126.1034
2017    25      6       0.5683757       118.9881
2017    25      7       0.7177425       139.707
2017    26      0       0.6753495       134.3785
2017    26      1       0.4798415       104.9922
2017    26      2       0.4641274       102.019
2017    26      3       0.7136649       137.4679
2017    26      4       0.743228        141.0876
2017    26      5       0.8676947       156.0216
2017    26      6       0.7953785       148.584
2017    26      7       0.5272884       113.0103
2017    27      0       0.4277437       96.33174
2017    27      1       0.3746387       87.16705
2017    27      2       0.3082773       74.60462
2017    27      3       0.5490684       115.9499
2017    27      4       0.5468915       115.5185
2017    27      5       0.2713598       67.259
2017    27      6       0.1130249       32.97804
2017    27      7       0.06791514      21.98156
2017    28      0       0.06279798      20.6813
2017    28      1       0.07284859      23.27553
2017    28      2       0.128798        36.92176
2017    28      3       0.2347457       60.39645
2017    28      4       0.4648969       102.8603
2017    28      5       0.4644257       102.865
2017    28      6       0.3749573       87.27507
2017    28      7       0.3653049       85.21938
2017    29      0       0.2117761       54.67342
2017    29      1       0.1831213       48.02431
2017    29      2       0.3051736       73.0858
2017    29      3       0.5774605       118.7431
2017    29      4       0.5429317       114.4352
2017    29      5       0.5201911       111.2257
2017    29      6       0.6476986       130.1692
2017    29      7       0.9453461       166.4055
2017    30      0       0.8121959       149.5662
2017    30      1       0.391827        88.06024
2017    30      2       0.2513302       62.36513
2017    30      3       0.1947112       50.62179
2017    30      4       0.1554583       42.29791
2017    30      5       0.1053356       30.74842
2017    30      6       0.07825664      24.23448
2017    30      7       0.08078954      24.94559
2017    31      0       0.110504        32.12185
2017    31      1       0.158713        43.12306
2017    31      2       0.264577        65.33252
2017    31      3       0.4530959       99.23705
2017    31      4       0.6103765       122.8989
2017    31      5       0.6367501       127.0281
2017    31      6       0.462526        101.3662
2017    31      7       0.4484404       99.22088
2018    1       0       0.4179584       93.33015
2018    1       1       0.537979        112.3752
2018    1       2       0.6802018       132.0424
2018    1       3       0.6956003       134.5226
2018    1       4       0.6929173       134.8172
2018    1       5       0.5876503       120.1527
2018    1       6       0.5146498       108.8041
2018    1       7       0.3904089       88.15214
2018    2       0       0.3180365       75.24223
2018    2       1       0.2579175       63.92099
2018    2       2       0.2371852       59.92954
2018    2       3       0.2822934       68.98206
2018    2       4       0.2586485       64.28794
2018    2       5       0.1821767       48.25696
2018    2       6       0.1486514       40.73874
2018    2       7       0.1664698       44.54969
2018    3       0       0.162482        43.45132
2018    3       1       0.1660567       43.81813
2018    3       2       0.2133604       53.62405
2018    3       3       0.3026365       71.89299
2018    3       4       0.3267404       76.18018
2018    3       5       0.3290768       76.60266
2018    3       6       0.4116344       90.99713
2018    3       7       0.4659989       100.0263
2018    4       0       0.4780264       102.3164
2018    4       1       0.3593932       82.77372
2018    4       2       0.4120982       91.91173
2018    4       3       0.4814028       104.0114
2018    4       4       0.3237265       77.05039
2018    4       5       0.2001797       52.36992
2018    4       6       0.181093        48.09883
2018    4       7       0.19801         51.59292
2018    5       0       0.2177349       55.6846
2018    5       1       0.2037986       52.65493
2018    5       2       0.2193558       55.92757
2018    5       3       0.2918983       70.56044
2018    5       4       0.3336095       78.5891
2018    5       5       0.3488159       81.11922
2018    5       6       0.3756895       85.70911
2018    5       7       0.373327        85.96021
2018    6       0       0.3193144       76.13208
2018    6       1       0.3079711       73.98577
2018    6       2       0.4025422       90.84298
2018    6       3       0.4499681       99.04686
2018    6       4       0.6180612       123.8182
2018    6       5       0.5723194       118.0954
2018    6       6       0.726145        138.6203
2018    6       7       0.7107839       136.1701
2018    7       0       0.6358442       126.2295
2018    7       1       0.3677851       84.35658
2018    7       2       0.3157746       74.7047
2018    7       3       0.2356684       59.5784
2018    7       4       0.1583063       43.4706
2018    7       5       0.146609        40.81014
2018    7       6       0.1556411       42.88479
2018    7       7       0.2421855       61.23491
2018    8       0       0.3087606       73.82484
2018    8       1       0.3321738       78.12663
2018    8       2       0.4241312       94.11189
2018    8       3       0.3703037       85.34298
2018    8       4       0.6466947       127.9291
2018    8       5       0.5703413       117.742
2018    8       6       0.5898445       120.3781
2018    8       7       0.3704475       85.79805
2018    9       0       0.3766623       87.11613
2018    9       1       0.296306        72.30037
2018    9       2       0.3735948       85.98461
2018    9       3       0.4219858       93.99987
2018    9       4       0.3719352       86.14749
2018    9       5       0.2885579       70.837
2018    9       6       0.2202753       56.57259
2018    9       7       0.4572197       100.4924
2018    10      0       0.5284608       112.554
2018    10      1       0.2167873       56.47343
2018    10      2       0.2915154       71.08165
2018    10      3       0.4340879       96.62398
2018    10      4       0.5360393       112.9232
2018    10      5       0.4579904       101.4362
2018    10      6       0.4461291       99.84905
2018    10      7       0.7000291       136.2844
2018    11      0       0.6551834       131.2317
2018    11      1       0.5420427       114.4749
2018    11      2       0.4711339       103.2456
2018    11      3       0.4927873       106.5257
2018    11      4       0.5391139       114.5829
2018    11      5       0.5756649       120.2416
2018    11      6       0.8434398       154.1225
2018    11      7       0.6351213       128.1251
2018    12      0       0.4798701       104.702
2018    12      1       0.4493426       99.25872
2018    12      2       0.6719423       130.9307
2018    12      3       0.7348271       139.1785
2018    12      4       0.6537132       128.7594
2018    12      5       0.4723288       102.6111
2018    12      6       0.4072785       91.84682
2018    12      7       0.383685        87.61852
2018    13      0       0.4231533       94.19285
2018    13      1       0.5220384       110.3279
2018    13      2       0.5309432       111.7318
2018    13      3       0.676488        132.6585
2018    13      4       0.6921196       133.1772
2018    13      5       0.5843294       118.0722
2018    13      6       0.3420323       79.70213
2018    13      7       0.2583235       63.87882
2018    14      0       0.1835508       48.16198
2018    14      1       0.1324589       36.51998
2018    14      2       0.1696119       44.70047
2018    14      3       0.3784873       85.36148
2018    14      4       0.3535455       80.92843
2018    14      5       0.3069453       72.33063
2018    14      6       0.2307989       57.48894
2018    14      7       0.1790894       46.75111
2018    15      0       0.1596079       42.49339
2018    15      1       0.1438345       38.92659
2018    15      2       0.127788        35.37022
2018    15      3       0.09183085      27.32173
2018    15      4       0.07932781      24.3017
2018    15      5       0.05922356      19.3189
2018    15      6       0.05858857      19.07708
2018    15      7       0.06887985      21.59603
2018    16      0       0.08508125      25.47453
2018    16      1       0.08791217      26.22528
2018    16      2       0.08245454      25.01365
2018    16      3       0.08500842      25.54598
2018    16      4       0.07955809      24.2953
2018    16      5       0.1009549       29.31828
2018    16      6       0.1217776       34.2402
2018    16      7       0.1468497       40.17582
2018    17      0       0.1683126       45.06801
2018    17      1       0.1781862       47.16438
2018    17      2       0.1623869       43.5034
2018    17      3       0.197751        51.23524
2018    17      4       0.2010707       52.4854
2018    17      5       0.2263264       57.92412
2018    17      6       0.2172992       56.17
2018    17      7       0.2007768       52.60087
2018    18      0       0.2475855       61.68612
2018    18      1       0.2325876       58.59308
2018    18      2       0.3207484       75.64151
2018    18      3       0.366781        84.60608
2018    18      4       0.3972756       90.18621
2018    18      5       0.4819222       103.9283
2018    18      6       0.5743082       118.221
2018    18      7       0.5044698       108.6053
2018    19      0       0.4629732       102.3646
2018    19      1       0.5536006       116.3949
2018    19      2       0.722903        138.7885
2018    19      3       0.8210582       151.3915
2018    19      4       0.9397232       165.6584
2018    19      5       0.8922844       160.7659
2018    19      6       0.5697417       119.0037
2018    19      7       0.4444153       99.21886
2018    20      0       0.4089361       93.06313
2018    20      1       0.3901109       89.69248
2018    20      2       0.3523466       82.78888
2018    20      3       0.3170091       76.24041
2018    20      4       0.3400191       81.07847
2018    20      5       0.3756813       87.72801
2018    20      6       0.419881        95.53766
2018    20      7       0.4483608       100.3007
2018    21      0       0.4432656       99.34142
2018    21      1       0.4328241       97.57843
2018    21      2       0.3892834       90.11338
2018    21      3       0.5893666       122.0916
2018    21      4       0.714386        139.4602
2018    21      5       0.6037876       125.0144
2018    21      6       0.4537206       101.1939
2018    21      7       0.3704043       86.68854
2018    22      0       0.267552        66.49816
2018    22      1       0.2442511       61.44696
2018    22      2       0.2597142       64.70372
2018    22      3       0.3397001       80.27298
2018    22      4       0.4220643       94.7869
2018    22      5       0.5121565       108.5859
2018    22      6       0.4123721       92.96538
2018    22      7       0.2545896       63.75613
2018    23      0       0.1348405       37.60342
2018    23      1       0.08307421      25.19012
2018    23      2       0.06593652      21.27979
2018    23      3       0.147607        41.11819
2018    23      4       0.1913863       50.89827
2018    23      5       0.1458066       40.43557
2018    23      6       0.1425902       39.4298
2018    23      7       0.1990455       51.61969
2018    24      0       0.2971723       71.22091
2018    24      1       0.2985678       72.13129
2018    24      2       0.3203675       76.20301
2018    24      3       0.3453832       81.38999
2018    24      4       0.3171698       76.30119
2018    24      5       0.3011044       73.18648
2018    24      6       0.2901436       70.91994
2018    24      7       0.2637074       66.31134
2018    25      0       0.2473024       62.99681
2018    25      1       0.2354189       60.4659
2018    25      2       0.205481        54.32696
2018    25      3       0.2081779       54.99393
2018    25      4       0.198103        51.77114
2018    25      5       0.3836669       87.4827
2018    25      6       0.6123749       123.9197
2018    25      7       0.6475022       128.6872
2018    26      0       0.5820882       120.1037
2018    26      1       0.7575967       144.0431
2018    26      2       0.7639305       145.1424
2018    26      3       0.868985        157.3217
2018    26      4       0.9052368       160.8074
2018    26      5       0.833275        152.567
2018    26      6       0.7307273       140.4918
2018    26      7       0.7369915       141.4372
2018    27      0       0.5285296       113.0519
2018    27      1       0.5348019       114.0561
2018    27      2       0.5788697       120.1261
2018    27      3       0.6457336       128.9015
2018    27      4       0.5765305       119.1373
2018    27      5       0.3663792       85.15249
2018    27      6       0.2848445       69.73311
2018    27      7       0.2552888       63.34232
2018    28      0       0.2650202       65.06954
2018    28      1       0.4057169       90.1632
2018    28      2       0.3745977       86.23581
2018    28      3       0.3830362       88.6416
2018    28      4       0.3575147       84.50693
2018    28      5       0.3065067       74.60706
2018    28      6       0.3095785       74.39106
2018    28      7       0.2871732       69.83122
2018    29      0       0.3378424       78.90576
2018    29      1       0.3231718       76.39235
2018    29      2       0.3429095       80.77506
2018    29      3       0.3594652       84.60917
2018    29      4       0.3197367       77.54501
2018    29      5       0.2268109       58.67559
2018    29      6       0.121278        34.42929
2018    29      7       0.1390816       38.30254
2018    30      0       0.228748        58.12867
2018    30      1       0.3437521       81.29174
2018    30      2       0.5013775       109.3968
2018    30      3       0.7120517       140.2568
2018    30      4       0.872113        160.7081
2018    30      5       0.6440679       133.8982
2018    30      6       0.6024758       127.1849
2018    30      7       0.5583684       119.4174
2018    31      0       0.5601709       119.8912
2018    31      1       0.442822        100.8839
2018    31      2       0.4418375       100.7223
2018    31      3       0.5026903       111.3408
2018    31      4       0.5443283       118.323
2018    31      5       0.5371053       116.9485
2018    31      6       0.5668213       120.8671
2018    31      7       0.7284154       142.4885
