####################################################################################################
# Month: 11Nov                                                                                     #
# Station: SGO                                                                                     #
# Frequency: 345 GHz                                                                               #
# Columns are: year    day     segment         tau     Tb (K)                                      #
####################################################################################################
2009    1       0       0.532468        110.6174
2009    1       1       0.4850324       103.3222
2009    1       2       0.5286435       109.728
2009    1       3       0.5533703       113.0135
2009    1       4       0.6385417       124.84
2009    1       5       0.6200961       123.2756
2009    1       6       0.6963046       132.5263
2009    1       7       0.7403518       138.0404
2009    2       0       0.7277508       136.4493
2009    2       1       0.7669391       141.5766
2009    2       2       0.5968975       120.2799
2009    2       3       0.4762348       102.6412
2009    2       4       0.3753018       85.09369
2009    2       5       0.4234986       92.03657
2009    2       6       0.5668694       114.0152
2009    2       7       0.710313        133.4595
2009    3       0       0.9144584       157.3548
2009    3       1       1.067713        172.7053
2009    3       2       1.017061        168.0741
2009    3       3       0.9109892       157.4621
2009    3       4       0.5571668       114.0437
2009    3       5       0.2723185       67.25306
2009    3       6       0.172866        46.85092
2009    3       7       0.116443        34.23818
2009    4       0       0.09562234      29.28941
2009    4       1       0.08655176      27.16381
2009    4       2       0.07200087      23.81181
2009    4       3       0.07624251      24.80501
2009    4       4       0.08399543      26.64889
2009    4       5       0.1003153       30.51479
2009    4       6       0.1023763       31.08752
2009    4       7       0.08727914      27.59252
2009    5       0       0.07268429      24.09049
2009    5       1       0.06363492      21.80875
2009    5       2       0.05610327      19.85599
2009    5       3       0.05193856      18.80849
2009    5       4       0.04599196      17.44582
2009    5       5       0.05505956      19.71507
2009    5       6       0.06564041      22.36603
2009    5       7       0.0819959       26.26763
2009    6       0       0.07758889      25.14882
2009    6       1       0.07243686      23.92133
2009    6       2       0.06804562      22.97232
2009    6       3       0.08165762      26.24046
2009    6       4       0.1081953       32.12344
2009    6       5       0.1127366       33.00999
2009    6       6       0.1467052       40.23016
2009    6       7       0.1547195       42.15115
2009    7       0       0.1367165       38.61358
2009    7       1       0.1308642       37.45983
2009    7       2       0.1164955       34.14535
2009    7       3       0.09603185      29.53629
2009    7       4       0.07223991      23.92958
2009    7       5       0.07858262      25.33592
2009    7       6       0.1193563       34.64101
2009    7       7       0.1783436       47.32378
2009    8       0       0.2054885       52.86349
2009    8       1       0.2136784       54.56126
2009    8       2       0.1920017       50.39801
2009    8       3       0.146089        40.5177
2009    8       4       0.14063         39.30109
2009    8       5       0.2167635       54.51166
2009    8       6       0.30021         70.42813
2009    8       7       0.3688592       82.68828
2009    9       0       0.4569807       97.38735
2009    9       1       0.5455201       110.8535
2009    9       2       0.7173009       133.9882
2009    9       3       0.7960491       142.8137
2009    9       4       0.7549334       137.8892
2009    9       5       0.4562331       96.86638
2009    9       6       0.2294866       56.75696
2009    9       7       0.167339        44.36321
2009    10      0       0.1530776       41.33923
2009    10      1       0.1819947       47.67333
2009    10      2       0.2576061       63.03234
2009    10      3       0.2927354       69.67035
2009    10      4       0.2609343       63.77012
2009    10      5       0.315322        73.98347
2009    10      6       0.3989331       88.58124
2009    10      7       0.447563        96.70051
2009    11      0       0.3748875       85.45403
2009    11      1       0.3431133       80.51543
2009    11      2       0.3583125       83.112
2009    11      3       0.3622219       83.78854
2009    11      4       0.3409026       79.95572
2009    11      5       0.2940063       71.31747
2009    11      6       0.3002898       72.62469
2009    11      7       0.3152539       75.38477
2009    12      0       0.3138514       75.29162
2009    12      1       0.3212363       76.42336
2009    12      2       0.3763903       85.90426
2009    12      3       0.3932683       88.70312
2009    12      4       0.3531964       81.8514
2009    12      5       0.3395785       79.5399
2009    12      6       0.2750635       67.85993
2009    12      7       0.2732036       67.64386
2009    13      0       0.2537471       63.68073
2009    13      1       0.2571794       64.55113
2009    13      2       0.3144637       75.77381
2009    13      3       0.3285313       78.13685
2009    13      4       0.3113192       74.7701
2009    13      5       0.2953661       72.1216
2009    13      6       0.2816173       69.5331
2009    13      7       0.2560918       64.51149
2009    14      0       0.2396227       61.34171
2009    14      1       0.2353102       60.54155
2009    14      2       0.2085986       55.01106
2009    14      3       0.1606525       44.42977
2009    14      4       0.1534097       42.47237
2009    14      5       0.1678383       45.28876
2009    14      6       0.192171        50.13628
2009    14      7       0.2277546       57.22098
2009    15      0       0.1612842       43.96824
2009    15      1       0.09428307      29.01255
2009    15      2       0.1061538       31.38417
2009    15      3       0.1062641       31.39513
2009    15      4       0.09759844      29.84037
2009    15      5       0.1575508       43.19849
2009    15      6       0.2340206       60.13673
2009    15      7       0.2621429       66.15916
2009    16      0       0.2596433       65.42521
2009    16      1       0.2721886       67.13057
2009    16      2       0.2618299       64.42878
2009    16      3       0.2278647       57.95577
2009    16      4       0.2925576       69.88984
2009    16      5       0.3509268       80.23497
2009    16      6       0.4125477       91.17668
2009    16      7       0.6000866       120.0237
2009    17      0       0.695291        133.7132
2009    17      1       0.7055177       136.1382
2009    17      2       0.6141662       123.3501
2009    17      3       0.815836        147.3306
2009    17      4       0.9495959       161.5305
2009    17      5       0.7676552       141.2331
2009    17      6       1.031145        169.9344
2009    17      7       1.230563        186.7183
2009    18      0       0.8808116       156.1844
2009    18      1       0.5561789       115.8502
2009    18      2       0.6446622       127.2542
2009    18      3       0.793973        145.0904
2009    18      4       0.8498113       150.7746
2009    18      5       0.8835556       154.6215
2009    18      6       0.8235053       148.7777
2009    18      7       0.7380927       139.966
2009    19      0       0.1908922       50.63253
2009    19      1       0.1365111       38.84518
2009    19      2       0.1255905       36.26706
2009    19      3       0.1670344       44.77423
2009    19      4       0.2724305       65.52649
2009    19      5       0.2771638       66.52513
2009    19      6       0.3690538       82.70545
2009    19      7       0.4584678       97.8536
2009    20      0       0.6057824       120.6963
2009    20      1       0.6847286       133.408
2009    20      2       0.7223392       138.1972
2009    20      3       0.8798819       155.8471
2009    20      4       1.009605        169.0981
2009    20      5       1.242604        188.8463
2009    20      6       1.152902        182.081
2009    20      7       1.180115        183.8029
2009    21      0       1.149056        181.6453
2009    21      1       0.9488398       163.9718
2009    21      2       0.8688714       156.5815
2009    21      3       0.844373        153.8091
2009    21      4       0.7008038       136.537
2009    21      5       0.7718697       144.8577
2009    21      6       0.9115497       159.9736
2009    21      7       0.7884418       146.8217
2009    22      0       0.7359683       140.5063
2009    22      1       0.5641774       117.7569
2009    22      2       0.6152423       124.3535
2009    22      3       0.7584378       142.2672
2009    22      4       0.7809933       145.232
2009    22      5       1.07536         175.246
2009    22      6       1.151899        182.5079
2009    22      7       1.123773        180.6539
2009    23      0       1.151768        183.4309
2009    23      1       0.9928886       170.2693
2009    23      2       0.7746347       147.6324
2009    23      3       0.6230252       127.5772
2009    23      4       0.5392749       114.4933
2009    23      5       0.5200959       111.3266
2009    23      6       0.4960308       107.2223
2009    23      7       0.5456676       114.9579
2009    24      0       0.6517301       130.5674
2009    24      1       0.7897147       147.999
2009    24      2       0.7090132       138.206
2009    24      3       0.5376718       115.2207
2009    24      4       0.6450615       130.0845
2009    24      5       0.6986898       136.5866
2009    24      6       0.5766276       119.7393
2009    24      7       0.4598374       101.8731
2009    25      0       0.3460724       82.23007
2009    25      1       0.3603993       84.79306
2009    25      2       0.428377        96.42268
2009    25      3       0.4346198       97.04798
2009    25      4       0.4365107       96.47422
2009    25      5       0.5347311       111.5863
2009    25      6       0.3633971       85.09004
2009    25      7       0.1971728       52.64352
2009    26      0       0.1395999       39.97032
2009    26      1       0.1716454       46.94419
2009    26      2       0.2723891       67.73689
2009    26      3       0.3478754       82.04505
2009    26      4       0.4238911       94.86529
2009    26      5       0.4970085       105.7251
2009    26      6       0.5991691       119.3051
2009    26      7       0.4985562       106.6636
2009    27      0       0.4251485       94.88521
2009    27      1       0.3507832       81.76443
2009    27      2       0.3212731       76.36379
2009    27      3       0.2464215       61.80271
2009    27      4       0.2006598       52.96495
2009    27      5       0.2142094       55.7562
2009    27      6       0.2271489       58.59651
2009    27      7       0.2141506       56.17511
2009    28      0       0.2307639       59.42688
2009    28      1       0.2439773       62.26173
2009    28      2       0.2446527       62.51765
2009    28      3       0.2533309       63.62663
2009    28      4       0.2453304       61.89763
2009    28      5       0.3603296       83.31718
2009    28      6       0.5275372       110.3909
2009    28      7       0.5999002       121.9426
2009    29      0       0.7072061       137.5117
2009    29      1       0.7530901       144.1075
2009    29      2       0.868003        156.8112
2009    29      3       0.9453619       164.0989
2009    29      4       1.105137        178.7732
2009    29      5       1.165611        183.5491
2009    29      6       0.8076489       148.1724
2009    29      7       0.3592643       82.97685
2009    30      0       0.2567428       63.7379
2009    30      1       0.2317924       58.97609
2009    30      2       0.2447054       61.52203
2009    30      3       0.2558936       63.30875
2009    30      4       0.2048829       53.31039
2009    30      5       0.1910841       50.3366
2009    30      6       0.2186653       55.64677
2009    30      7       0.2670137       64.55261
2010    1       0       0.2431422       61.18288
2010    1       1       0.2486413       62.56319
2010    1       2       0.2995567       72.65855
2010    1       3       0.3085912       73.95162
2010    1       4       0.3506519       81.50834
2010    1       5       0.3374997       79.59484
2010    1       6       0.2987602       72.69392
2010    1       7       0.3019795       73.27854
2010    2       0       0.2999087       73.00602
2010    2       1       0.2428962       61.82113
2010    2       2       0.2157893       56.04752
2010    2       3       0.2048815       53.72917
2010    2       4       0.2349505       59.94348
2010    2       5       0.2608297       65.29589
2010    2       6       0.2974972       72.17239
2010    2       7       0.2615634       65.55996
2010    3       0       0.2423546       61.6069
2010    3       1       0.2922385       70.57254
2010    3       2       0.3560438       81.63369
2010    3       3       0.3481489       79.88805
2010    3       4       0.5074897       106.2366
2010    3       5       0.5679615       115.6174
2010    3       6       0.4895951       103.6521
2010    3       7       0.5467261       112.0351
2010    4       0       0.530114        109.8798
2010    4       1       0.5081961       106.9203
2010    4       2       0.3123802       74.92203
2010    4       3       0.2570803       63.90481
2010    4       4       0.215643        54.50161
2010    4       5       0.2687086       64.88251
2010    4       6       0.2883109       70.01679
2010    4       7       0.2435636       61.43422
2010    5       0       0.2100268       54.29652
2010    5       1       0.2141515       54.68749
2010    5       2       0.3435237       79.13774
2010    5       3       0.4952238       105.7361
2010    5       4       0.6460131       129.092
2010    5       5       0.8273357       151.1502
2010    5       6       0.9381642       162.9718
2010    5       7       0.930625        163.0782
2010    6       0       1.017144        171.4007
2010    6       1       1.066743        176.5338
2010    6       2       1.014425        171.7865
2010    6       3       0.7802653       146.478
2010    6       4       0.6077234       123.4953
2010    6       5       0.3601188       82.22991
2010    6       6       0.5946242       118.6822
2010    6       7       0.5327832       110.7647
2010    7       0       0.7177068       136.5286
2010    7       1       0.8259108       150.0925
2010    7       2       1.11389         178.4437
2010    7       3       1.143901        181.499
2010    7       4       1.093708        177.5025
2010    7       5       1.269975        191.2015
2010    7       6       1.080575        175.8283
2010    7       7       0.9097188       159.0496
2010    8       0       0.7945552       145.9602
2010    8       1       0.7004726       134.486
2010    8       2       0.4620033       100.2586
2010    8       3       0.2560095       63.56323
2010    8       4       0.1734176       46.55934
2010    8       5       0.1980375       51.47532
2010    8       6       0.2162712       54.92503
2010    8       7       0.1505148       41.62163
2010    9       0       0.1579591       43.52071
2010    9       1       0.1418573       40.22
2010    9       2       0.1115209       33.36868
2010    9       3       0.1076403       32.35673
2010    9       4       0.1064162       32.07403
2010    9       5       0.09714469      29.89399
2010    9       6       0.09493311      29.2324
2010    9       7       0.09597745      29.5042
2010    10      0       0.09792207      29.94973
2010    10      1       0.09367193      28.99386
2010    10      2       0.1005959       30.37689
2010    10      3       0.1241779       35.43205
2010    10      4       0.1233326       35.21167
2010    10      5       0.1065405       31.68175
2010    10      6       0.126873        36.47447
2010    10      7       0.1595141       43.92002
2010    11      0       0.1526427       42.55898
2010    11      1       0.1297246       37.3541
2010    11      2       0.12258         35.67189
2010    11      3       0.1185218       34.83965
2010    11      4       0.1047691       31.77844
2010    11      5       0.1115502       33.35059
2010    11      6       0.1322331       38.04569
2010    11      7       0.1342009       38.63332
2010    12      0       0.1137764       34.0535
2010    12      1       0.09341374      29.20941
2010    12      2       0.09602556      29.5647
2010    12      3       0.1062894       31.64819
2010    12      4       0.101798        30.66625
2010    12      5       0.1307094       37.12903
2010    12      6       0.1748543       46.58363
2010    12      7       0.183142        48.55697
2010    13      0       0.1661459       45.14377
2010    13      1       0.1653934       44.96032
2010    13      2       0.1568951       43.1219
2010    13      3       0.1522405       42.10029
2010    13      4       0.1603888       43.83882
2010    13      5       0.1808223       48.20911
2010    13      6       0.1900246       50.065
2010    13      7       0.2081613       53.80336
2010    14      0       0.2066515       53.43632
2010    14      1       0.2632686       64.60441
2010    14      2       0.2938781       70.812
2010    14      3       0.3442794       80.61635
2010    14      4       0.2025196       53.20648
2010    14      5       0.1318474       37.62931
2010    14      6       0.1522468       41.94895
2010    14      7       0.1765383       47.65867
2010    15      0       0.1700033       46.53122
2010    15      1       0.179595        48.30437
2010    15      2       0.2058097       53.15645
2010    15      3       0.1907964       50.27145
2010    15      4       0.1791206       47.76283
2010    15      5       0.2082386       53.94283
2010    15      6       0.2277855       58.20121
2010    15      7       0.2886353       69.95292
2010    16      0       0.348177        80.96235
2010    16      1       0.3551317       82.77044
2010    16      2       0.277136        68.46524
2010    16      3       0.2261064       58.34901
2010    16      4       0.184649        49.83887
2010    16      5       0.1682699       46.29521
2010    16      6       0.1727866       47.11823
2010    16      7       0.167271        45.68479
2010    17      0       0.168673        45.47184
2010    17      1       0.2600366       62.89695
2010    17      2       0.3568614       81.08198
2010    17      3       0.3332429       77.82722
2010    17      4       0.2764329       66.79464
2010    17      5       0.2425757       60.16578
2010    17      6       0.2760111       66.98972
2010    17      7       0.2869008       69.33438
2010    18      0       0.2649949       65.18139
2010    18      1       0.2452347       61.28926
2010    18      2       0.2317919       58.56862
2010    18      3       0.2173193       55.54636
2010    18      4       0.2151481       55.1958
2010    18      5       0.2390786       60.04596
2010    18      6       0.2739322       66.95918
2010    18      7       0.3227734       76.23955
2010    19      0       0.2028544       52.90704
2010    19      1       0.1625893       44.09609
2010    19      2       0.243992        59.74823
2010    19      3       0.2443468       60.16686
2010    19      4       0.2554835       62.07806
2010    19      5       0.3151961       73.13232
2010    19      6       0.4589952       97.18852
2010    19      7       0.4488653       95.95403
2010    20      0       0.3623381       81.84725
2010    20      1       0.3418972       78.1437
2010    20      2       0.3429037       78.27673
2010    20      3       0.317374        74.33317
2010    20      4       0.3389351       78.60934
2010    20      5       0.339193        78.53691
2010    20      6       0.4167471       92.37579
2010    20      7       0.3682035       84.1561
2010    21      0       0.2785235       67.83197
2010    21      1       0.293083        70.25101
2010    21      2       0.3886265       87.2294
2010    21      3       0.4597293       99.28419
2010    21      4       0.4811379       103.283
2010    21      5       0.4910439       105.0666
2010    21      6       0.5189617       109.2653
2010    21      7       0.6413508       126.073
2010    22      0       0.6783384       130.8425
2010    22      1       0.6104146       122.1232
2010    22      2       0.5990087       120.1617
2010    22      3       0.5924477       119.5322
2010    22      4       0.6209175       123.7809
2010    22      5       0.5447131       113.3584
2010    22      6       0.4649818       101.1933
2010    22      7       0.4317596       95.9907
2010    23      0       0.2818938       69.47586
2010    23      1       0.1745813       47.49362
2010    23      2       0.2098522       55.04619
2010    23      3       0.227527        58.38579
2010    23      4       0.2114416       54.95482
2010    23      5       0.2175119       56.04098
2010    23      6       0.2847082       69.56113
2010    23      7       0.341377        80.43076
2010    24      0       0.3224836       77.32717
2010    24      1       0.307724        75.01366
2010    24      2       0.2883328       71.09482
2010    24      3       0.2615828       65.7697
2010    24      4       0.2724094       67.78524
2010    24      5       0.2855373       70.28868
2010    24      6       0.2556922       64.36851
2010    24      7       0.2363613       60.32819
2010    25      0       0.2080097       54.23221
2010    25      1       0.1850197       49.37609
2010    25      2       0.2058824       53.82073
2010    25      3       0.2328515       59.27711
2010    25      4       0.181745        48.70608
2010    25      5       0.1700519       46.07591
2010    25      6       0.1925847       50.90756
2010    25      7       0.199072        52.64853
2010    26      0       0.1949898       51.95107
2010    26      1       0.1890604       50.84683
2010    26      2       0.1794377       48.71523
2010    26      3       0.1557499       43.41206
2010    26      4       0.1545996       43.07338
2010    26      5       0.1613459       44.74701
2010    26      6       0.1631752       45.19213
2010    26      7       0.1536426       42.98277
2010    27      0       0.1439491       40.80494
2010    27      1       0.1440417       40.82906
2010    27      2       0.1491802       41.85705
2010    27      3       0.1530172       42.6552
2010    27      4       0.1565958       43.4708
2010    27      5       0.1441209       40.70327
2010    27      6       0.1446125       40.67967
2010    27      7       0.1623464       44.45212
2010    28      0       0.1421067       39.94746
2010    28      1       0.1549968       42.68351
2010    28      2       0.191995        50.49271
2010    28      3       0.2257444       57.40534
2010    28      4       0.1994965       52.43404
2010    28      5       0.1719189       46.80636
2010    28      6       0.1801246       48.61444
2010    28      7       0.1756359       47.67725
2010    29      0       0.112088        33.5141
2010    29      1       0.0667255       22.77135
2010    29      2       0.07501921      24.67543
2010    29      3       0.1271943       36.54798
2010    29      4       0.1519361       41.92316
2010    29      5       0.326127        75.21927
2010    29      6       0.5545191       113.0167
2010    29      7       0.5199223       109.2272
2010    30      0       0.2736227       68.00107
2010    30      1       0.1844008       49.6986
2010    30      2       0.2318271       59.30969
2010    30      3       0.2785359       68.24497
2010    30      4       0.209655        53.99111
2010    30      5       0.2233558       56.21309
2010    30      6       0.2859082       68.36572
2010    30      7       0.3269725       76.63334
2011    1       0       0.2252114       57.94652
2011    1       1       0.6188864       124.3316
2011    1       2       0.4562068       100.2079
2011    1       3       0.3496492       81.76129
2011    1       4       0.2942191       71.54134
2011    1       5       0.3018971       73.1998
2011    1       6       0.3328245       78.90866
2011    1       7       0.2559271       64.55495
2011    2       0       0.1541513       42.82552
2011    2       1       0.1441244       40.40348
2011    2       2       0.1806332       47.77825
2011    2       3       0.2448464       60.51834
2011    2       4       0.2346235       58.76166
2011    2       5       0.258613        63.70003
2011    2       6       0.2514096       62.61501
2011    2       7       0.2283835       58.50396
2011    3       0       0.2164573       56.40669
2011    3       1       0.2017641       53.50505
2011    3       2       0.1659567       46.00106
2011    3       3       0.1389341       40.0385
2011    3       4       0.1405468       40.41098
2011    3       5       0.1642113       45.68853
2011    3       6       0.1826209       49.53137
2011    3       7       0.1894394       50.97088
2011    4       0       0.1773076       48.23075
2011    4       1       0.1600549       44.45807
2011    4       2       0.1679084       46.16391
2011    4       3       0.1964135       52.18948
2011    4       4       0.1917587       50.59392
2011    4       5       0.2147491       54.96632
2011    4       6       0.2300208       58.61086
2011    4       7       0.2407507       61.05181
2011    5       0       0.2300072       58.72441
2011    5       1       0.2441298       61.59404
2011    5       2       0.2778694       67.90937
2011    5       3       0.2455324       61.97707
2011    5       4       0.2209337       57.16335
2011    5       5       0.20036         53.06552
2011    5       6       0.1998757       52.99264
2011    5       7       0.2332276       59.97284
2011    6       0       0.3270578       77.98727
2011    6       1       0.4318997       96.6309
2011    6       2       0.4838526       104.8065
2011    6       3       0.4891125       105.3841
2011    6       4       0.5578182       116.527
2011    6       5       0.5782334       119.9945
2011    6       6       0.4909051       106.7782
2011    6       7       0.4364303       97.87843
2011    7       0       0.3903225       89.66802
2011    7       1       0.3848558       88.32007
2011    7       2       0.2990542       72.49568
2011    7       3       0.2718073       66.83557
2011    7       4       0.3354886       77.78795
2011    7       5       0.493241        103.7665
2011    7       6       0.5221864       108.479
2011    7       7       0.6985889       132.7226
2011    8       0       0.5746333       116.5479
2011    8       1       0.4561663       99.47864
2011    8       2       0.4999775       106.7048
2011    8       3       0.5659376       116.2785
2011    8       4       0.6508937       127.6193
2011    8       5       0.9329467       159.1324
2011    8       6       0.8435314       149.3328
2011    8       7       0.3107224       74.11416
2011    9       0       0.1801295       48.57144
2011    9       1       0.1998945       52.74835
2011    9       2       0.3310441       78.07161
2011    9       3       0.5175306       108.834
2011    9       4       0.1234419       36.11946
2011    9       5       0.07557286      24.81423
2011    9       6       0.08567241      27.07164
2011    9       7       0.1015902       30.67402
2011    10      0       0.1240139       35.85154
2011    10      1       0.1122004       33.3113
2011    10      2       0.1164057       34.22937
2011    10      3       0.1353961       38.50447
2011    10      4       0.1507517       42.03738
2011    10      5       0.1663393       45.5201
2011    10      6       0.1876641       50.06667
2011    10      7       0.2113407       55.13517
2011    11      0       0.237745        60.61854
2011    11      1       0.2364178       60.58555
2011    11      2       0.2453787       61.95178
2011    11      3       0.3138273       74.39935
2011    11      4       0.3336901       78.24585
2011    11      5       0.3456616       80.64034
2011    11      6       0.356003        82.6035
2011    11      7       0.3317337       78.70753
2011    12      0       0.2791129       69.2412
2011    12      1       0.3148265       76.25392
2011    12      2       0.3463573       82.20349
2011    12      3       0.328177        78.80025
2011    12      4       0.3464922       82.14325
2011    12      5       0.4093436       93.07402
2011    12      6       0.4778898       104.2148
2011    12      7       0.5524661       115.7682
2011    13      0       0.6503016       129.655
2011    13      1       0.8450647       152.647
2011    13      2       0.9563501       161.1206
2011    13      3       0.764038        140.1686
2011    13      4       0.9052224       155.5794
2011    13      5       1.198972        182.3572
2011    13      6       1.272199        188.7292
2011    13      7       1.343158        194.6171
2011    14      0       1.105331        177.4525
2011    14      1       0.9740087       167.0944
2011    14      2       0.8561269       155.5969
2011    14      3       0.7803346       146.9961
2011    14      4       0.6947134       136.4051
2011    14      5       0.647802        130.2138
2011    14      6       0.5723436       119.8831
2011    14      7       0.4963163       108.5636
2011    15      0       0.4490057       100.9789
2011    15      1       0.3556877       84.60952
2011    15      2       0.3424573       82.07482
2011    15      3       0.3417212       81.75802
2011    15      4       0.2977311       73.33901
2011    15      5       0.2491436       63.59941
2011    15      6       0.2801022       69.63007
2011    15      7       0.3000049       73.42783
2011    16      0       0.2802547       69.54774
2011    16      1       0.2880493       70.71366
2011    16      2       0.3670153       84.93958
2011    16      3       0.3621878       84.02587
2011    16      4       0.2613193       65.34897
2011    16      5       0.2378165       60.69915
2011    16      6       0.259877        64.98399
2011    16      7       0.3063156       73.9128
2011    17      0       0.2613435       65.64298
2011    17      1       0.2360738       60.64611
2011    17      2       0.2360764       60.3259
2011    17      3       0.1926332       51.17775
2011    17      4       0.1536102       42.58239
2011    17      5       0.1723113       46.73992
2011    17      6       0.1915812       50.77085
2011    17      7       0.2007052       52.59828
2011    18      0       0.1678193       45.62492
2011    18      1       0.1345438       38.601
2011    18      2       0.1207131       35.21245
2011    18      3       0.1407736       39.20383
2011    18      4       0.1445776       40.17143
2011    18      5       0.1848716       48.61905
2011    18      6       0.2368476       59.21609
2011    18      7       0.2774572       67.22019
2011    19      0       0.2281038       57.46277
2011    19      1       0.1966687       51.10605
2011    19      2       0.1880871       49.49236
2011    19      3       0.1680985       45.50288
2011    19      4       0.17726         47.58054
2011    19      5       0.1937012       51.04905
2011    19      6       0.1986563       52.24054
2011    19      7       0.1572065       43.63036
2011    20      0       0.1302251       37.25519
2011    20      1       0.1437557       39.9124
2011    20      2       0.1791275       47.09781
2011    20      3       0.227311        56.91976
2011    20      4       0.2589819       63.26934
2011    20      5       0.2543978       62.61712
2011    20      6       0.2295443       57.93533
2011    20      7       0.3268337       76.20336
2011    21      0       0.2338376       59.02648
2011    21      1       0.2441405       61.43344
2011    21      2       0.272837        67.02372
2011    21      3       0.3499985       81.24739
2011    21      4       0.4982476       106.0118
2011    21      5       0.655688        129.6244
2011    21      6       0.767826        144.3533
2011    21      7       0.8005572       148.5268
2011    22      0       0.7398464       141.8167
2011    22      1       0.6893607       136.2051
2011    22      2       0.6366154       129.5456
2011    22      3       0.5853612       122.1212
2011    22      4       0.6638864       132.9232
2011    22      5       0.6525486       131.4481
2011    22      6       0.5685771       119.3294
2011    22      7       0.4540869       100.9954
2011    23      0       0.2836019       70.0665
2011    23      1       0.2188758       56.68641
2011    23      2       0.2144574       55.64572
2011    23      3       0.2450467       62.20919
2011    23      4       0.3005812       73.22806
2011    23      5       0.3728011       85.97053
2011    23      6       0.3633294       84.0451
2011    23      7       0.3495492       81.82385
2011    24      0       0.3090081       74.73722
2011    24      1       0.2494703       63.4415
2011    24      2       0.2405787       61.85989
2011    24      3       0.2278712       59.29167
2011    24      4       0.2174494       57.03792
2011    24      5       0.2062666       54.41702
2011    24      6       0.2422863       61.85918
2011    24      7       0.263845        66.40984
2011    25      0       0.2421589       62.23496
2011    25      1       0.235496        60.89811
2011    25      2       0.2168122       57.05808
2011    25      3       0.2054124       54.57347
2011    25      4       0.1864947       50.44751
2011    25      5       0.1885329       50.73171
2011    25      6       0.2088983       55.09893
2011    25      7       0.1961572       52.53354
2011    26      0       0.1807662       49.08336
2011    26      1       0.1781246       48.57846
2011    26      2       0.2066868       54.82632
2011    26      3       0.2060572       54.62361
2011    26      4       0.1946474       51.83861
2011    26      5       0.2204107       57.12598
2011    26      6       0.2399054       61.22295
2011    26      7       0.2828401       69.23764
2011    27      0       0.1776851       48.27188
2011    27      1       0.1473901       41.83996
2011    27      2       0.1343461       39.04041
2011    27      3       0.1381101       39.61814
2011    27      4       0.157952        43.92212
2011    27      5       0.2072444       54.44547
2011    27      6       0.2327097       59.70479
2011    27      7       0.2208496       57.39224
2011    28      0       0.2044529       53.97798
2011    28      1       0.18225         49.33794
2011    28      2       0.1548626       43.27639
2011    28      3       0.150032        42.24692
2011    28      4       0.1530436       42.99842
2011    28      5       0.1461397       41.3824
2011    28      6       0.1377047       39.5636
2011    28      7       0.1319421       37.99803
2011    29      0       0.1354057       38.71307
2011    29      1       0.1444875       40.86423
2011    29      2       0.139462        39.85196
2011    29      3       0.1277878       37.04737
2011    29      4       0.1318541       38.01012
2011    29      5       0.1470202       41.48035
2011    29      6       0.137465        39.7554
2011    29      7       0.1494434       42.45496
2011    30      0       0.148079        42.14188
2011    30      1       0.1531288       43.30132
2011    30      2       0.1396211       40.2785
2011    30      3       0.1398352       40.24731
2011    30      4       0.1461362       41.60308
2011    30      5       0.1379269       39.79367
2011    30      6       0.1193297       35.49964
2011    30      7       0.1179202       35.16989
2012    1       0       0.4257806       95.08776
2012    1       1       0.4127408       93.12104
2012    1       2       0.420569        94.24838
2012    1       3       0.4470442       98.28648
2012    1       4       0.4282882       95.10059
2012    1       5       0.416363        93.09221
2012    1       6       0.3751112       86.29754
2012    1       7       0.2977934       72.78483
2012    2       0       0.2184141       57.42063
2012    2       1       0.1632045       45.57252
2012    2       2       0.160785        44.91861
2012    2       3       0.1529119       43.1092
2012    2       4       0.1303534       37.72016
2012    2       5       0.1427501       40.16064
2012    2       6       0.1382578       39.37833
2012    2       7       0.1393894       39.62728
2012    3       0       0.1222886       35.53703
2012    3       1       0.134774        38.13823
2012    3       2       0.1726859       46.28381
2012    3       3       0.2004255       52.30308
2012    3       4       0.2709827       66.87577
2012    3       5       0.3568206       83.20013
2012    3       6       0.4230076       94.79906
2012    3       7       0.4492589       99.14194
2012    4       0       0.4424185       97.93824
2012    4       1       0.3710057       86.60811
2012    4       2       0.2635229       66.73342
2012    4       3       0.1873252       51.04287
2012    4       4       0.1282411       37.79754
2012    4       5       0.1332038       38.87118
2012    4       6       0.1659586       46.22227
2012    4       7       0.1977271       53.20616
2012    5       0       0.1509901       42.98412
2012    5       1       0.1371835       39.83141
2012    5       2       0.1376967       39.87205
2012    5       3       0.1204302       35.75752
2012    5       4       0.09877439      30.55612
2012    5       5       0.1010578       31.11151
2012    5       6       0.1107833       33.43932
2012    5       7       0.1207217       35.68048
2012    6       0       0.1649819       45.188
2012    6       1       0.2471326       62.27173
2012    6       2       0.2352748       59.9317
2012    6       3       0.1786758       48.13806
2012    6       4       0.1575415       43.49241
2012    6       5       0.180789        48.62152
2012    6       6       0.2153556       55.85211
2012    6       7       0.2349651       59.95928
2012    7       0       0.2278778       58.7076
2012    7       1       0.1996625       52.9525
2012    7       2       0.2036203       53.75633
2012    7       3       0.22166         57.07229
2012    7       4       0.2235059       57.43296
2012    7       5       0.2253695       57.94601
2012    7       6       0.2436906       61.68912
2012    7       7       0.2486911       62.6499
2012    8       0       0.2216512       56.97772
2012    8       1       0.2051549       53.60905
2012    8       2       0.1658626       45.35053
2012    8       3       0.1747381       47.31402
2012    8       4       0.2190008       56.76216
2012    8       5       0.2622283       65.33878
2012    8       6       0.3028972       72.92784
2012    8       7       0.3157817       75.09067
2012    9       0       0.2973714       71.17207
2012    9       1       0.3019681       71.8734
2012    9       2       0.2908292       70.43852
2012    9       3       0.2976518       71.97933
2012    9       4       0.3473963       80.75947
2012    9       5       0.4109053       91.36615
2012    9       6       0.527984        109.1
2012    9       7       0.4839425       102.2956
2012    10      0       0.2871754       69.53841
2012    10      1       0.2146046       55.48159
2012    10      2       0.2301328       58.34967
2012    10      3       0.2205933       56.32609
2012    10      4       0.1927981       50.38588
2012    10      5       0.2197995       55.97285
2012    10      6       0.1781092       47.89823
2012    10      7       0.2135604       55.34808
2012    11      0       0.182059        49.02495
2012    11      1       0.1220075       35.74557
2012    11      2       0.1224063       35.84646
2012    11      3       0.1263438       36.79064
2012    11      4       0.1383016       39.63691
2012    11      5       0.1282846       37.04379
2012    11      6       0.1298919       37.19378
2012    11      7       0.139514        39.39393
2012    12      0       0.1438915       40.54124
2012    12      1       0.1368051       39.01134
2012    12      2       0.145893        41.0664
2012    12      3       0.1517601       42.30266
2012    12      4       0.1523619       42.4118
2012    12      5       0.1385403       39.33278
2012    12      6       0.1284706       37.22709
2012    12      7       0.1542259       43.08279
2012    13      0       0.173223        47.4608
2012    13      1       0.1759866       48.10307
2012    13      2       0.1569121       43.95273
2012    13      3       0.1160653       34.67246
2012    13      4       0.1085167       32.88364
2012    13      5       0.1211475       35.82261
2012    13      6       0.1384525       39.81219
2012    13      7       0.1635788       45.39087
2012    14      0       0.1602348       44.6892
2012    14      1       0.1472289       41.84759
2012    14      2       0.1300599       37.72435
2012    14      3       0.1450173       40.65193
2012    14      4       0.1741331       46.80311
2012    14      5       0.2524278       63.17019
2012    14      6       0.3010875       72.67573
2012    14      7       0.3356309       79.09196
2012    15      0       0.2585838       64.90642
2012    15      1       0.1992035       53.13358
2012    15      2       0.1964343       52.18901
2012    15      3       0.2584035       64.33826
2012    15      4       0.2071526       54.70606
2012    15      5       0.2705032       67.71615
2012    15      6       0.3532752       83.06753
2012    15      7       0.347762        81.98631
2012    16      0       0.3997088       90.73627
2012    16      1       0.4595682       101.0637
2012    16      2       0.5135952       109.6509
2012    16      3       0.5050844       108.2969
2012    16      4       0.4379245       97.50483
2012    16      5       0.4250112       95.1278
2012    16      6       0.4599403       100.6381
2012    16      7       0.4420881       97.95287
2012    17      0       0.3711085       86.21839
2012    17      1       0.2801636       69.62545
2012    17      2       0.2497764       63.28048
2012    17      3       0.3197023       76.0673
2012    17      4       0.2897491       70.88404
2012    17      5       0.2924831       71.44501
2012    17      6       0.3072497       74.35418
2012    17      7       0.27613         68.52887
2012    18      0       0.2260767       58.67526
2012    18      1       0.2020062       53.71574
2012    18      2       0.1990806       53.06023
2012    18      3       0.1755654       47.98869
2012    18      4       0.1625768       45.02605
2012    18      5       0.1828902       49.3312
2012    18      6       0.1926448       51.65872
2012    18      7       0.1830313       49.82967
2012    19      0       0.1486871       42.32488
2012    19      1       0.120965        35.85739
2012    19      2       0.145501        41.00396
2012    19      3       0.1413926       40.17151
2012    19      4       0.1436336       40.50071
2012    19      5       0.1731753       46.92532
2012    19      6       0.2100597       54.83867
2012    19      7       0.2163338       56.30089
2012    20      0       0.17821         48.25741
2012    20      1       0.1662538       45.89638
2012    20      2       0.16478         45.61592
2012    20      3       0.154186        43.27639
2012    20      4       0.1442408       41.05934
2012    20      5       0.1461218       41.5101
2012    20      6       0.1713045       46.9814
2012    20      7       0.1936481       51.85342
2012    21      0       0.1594413       44.43826
2012    21      1       0.1219471       35.77827
2012    21      2       0.1315282       37.71234
2012    21      3       0.1055352       31.5277
2012    21      4       0.1296485       37.43309
2012    21      5       0.1785398       48.67666
2012    21      6       0.2582682       65.2345
2012    21      7       0.2682569       67.34843
2012    22      0       0.1883242       50.96845
2012    22      1       0.1588013       44.33966
2012    22      2       0.158609        44.05653
2012    22      3       0.1974057       51.57057
2012    22      4       0.2168309       55.27563
2012    22      5       0.2636427       64.45058
2012    22      6       0.2865594       69.16814
2012    22      7       0.2906237       70.25079
2012    23      0       0.2348129       59.62481
2012    23      1       0.1898787       50.62038
2012    23      2       0.1275082       37.09645
2012    23      3       0.08310565      26.61082
2012    23      4       0.09167783      28.64343
2012    23      5       0.1072522       32.18654
2012    23      6       0.1324119       37.86358
2012    23      7       0.1225184       35.6505
2012    24      0       0.08126057      26.25271
2012    24      1       0.06052706      21.17625
2012    24      2       0.05828238      20.59369
2012    24      3       0.05735102      20.38191
2012    24      4       0.05897082      20.70882
2012    24      5       0.06456161      22.07962
2012    24      6       0.07695038      25.06729
2012    24      7       0.09380139      28.99427
2012    25      0       0.1069977       31.82445
2012    25      1       0.1306299       37.10296
2012    25      2       0.1532699       42.00081
2012    25      3       0.175263        46.93939
2012    25      4       0.1905054       50.24046
2012    25      5       0.1909325       50.35997
2012    25      6       0.1945935       51.06713
2012    25      7       0.1880146       49.66113
2012    26      0       0.1616994       43.99775
2012    26      1       0.178399        47.41836
2012    26      2       0.2147907       54.70692
2012    26      3       0.2377856       59.28957
2012    26      4       0.2270189       57.24179
2012    26      5       0.2317497       58.32992
2012    26      6       0.2460179       61.45599
2012    26      7       0.2489831       62.41453
2012    27      0       0.2065045       54.09469
2012    27      1       0.1719711       47.01869
2012    27      2       0.1688776       46.36191
2012    27      3       0.1749258       47.59367
2012    27      4       0.171615        46.77626
2012    27      5       0.1946473       51.23843
2012    27      6       0.2083853       54.12414
2012    27      7       0.2258389       58.00699
2012    28      0       0.2016511       53.26243
2012    28      1       0.1721908       47.24989
2012    28      2       0.1793639       48.49526
2012    28      3       0.2049947       53.23644
2012    28      4       0.2121996       54.22728
2012    28      5       0.2266667       57.27716
2012    28      6       0.275363        66.7979
2012    28      7       0.3749094       85.40211
2012    29      0       0.4753589       100.9897
2012    29      1       0.3755948       85.07805
2012    29      2       0.3484518       79.85513
2012    29      3       0.4110847       90.16427
2012    29      4       0.5391937       109.9478
2012    29      5       0.4880075       103.9015
2012    29      6       0.3809522       86.71026
2012    29      7       0.2362915       59.72155
2012    30      0       0.1803202       48.11647
2012    30      1       0.1727331       46.82586
2012    30      2       0.21415         55.06477
2012    30      3       0.3893352       86.25618
2012    30      4       0.5355867       110.0464
2012    30      5       0.6036938       121.027
2012    30      6       0.7145178       136.0342
2012    30      7       0.7251261       137.2361
2013    1       0       1.032387        168.2563
2013    1       1       0.90233         156.3419
2013    1       2       0.7217101       136.7133
2013    1       3       0.5397677       111.7615
2013    1       4       0.4020186       90.17954
2013    1       5       0.3706777       84.96825
2013    1       6       0.3285121       77.55376
2013    1       7       0.4255227       93.46571
2013    2       0       0.3829022       86.29735
2013    2       1       0.3930266       88.22497
2013    2       2       0.3032269       72.45541
2013    2       3       0.1561301       43.21226
2013    2       4       0.08751131      27.55778
2013    2       5       0.1058419       31.65106
2013    2       6       0.1492707       41.46646
2013    2       7       0.2056418       53.53723
2013    3       0       0.2657661       65.94963
2013    3       1       0.3514036       82.33262
2013    3       2       0.4008926       90.7968
2013    3       3       0.4636324       101.1372
2013    3       4       0.4706109       102.607
2013    3       5       0.4221255       95.0486
2013    3       6       0.4055826       92.47635
2013    3       7       0.3909331       90.12631
2013    4       0       0.3166871       76.87359
2013    4       1       0.2767422       69.17673
2013    4       2       0.2764416       69.11006
2013    4       3       0.2630311       66.55572
2013    4       4       0.2336128       60.42366
2013    4       5       0.2097473       55.39433
2013    4       6       0.1890065       50.97468
2013    4       7       0.1715273       47.20321
2013    5       0       0.1311501       38.30121
2013    5       1       0.09789017      30.58786
2013    5       2       0.08676811      27.87774
2013    5       3       0.09021615      28.63455
2013    5       4       0.1002575       30.96197
2013    5       5       0.1210356       35.79519
2013    5       6       0.1380831       39.65098
2013    5       7       0.1507177       42.62054
2013    6       0       0.1440066       41.11836
2013    6       1       0.1433426       40.94832
2013    6       2       0.152293        42.86652
2013    6       3       0.1834564       49.69958
2013    6       4       0.2138947       56.02178
2013    6       5       0.2617113       65.52818
2013    6       6       0.2505579       63.08926
2013    6       7       0.2021043       53.07782
2013    7       0       0.1012218       30.93353
2013    7       1       0.06596063      22.26242
2013    7       2       0.06103765      21.06188
2013    7       3       0.06898156      22.93774
2013    7       4       0.09143894      28.00412
2013    7       5       0.1144811       33.14256
2013    7       6       0.1311293       37.05732
2013    7       7       0.1489553       41.04061
2013    8       0       0.1685072       45.28798
2013    8       1       0.1803235       48.0558
2013    8       2       0.1880166       49.42101
2013    8       3       0.223016        56.58335
2013    8       4       0.2135061       55.27785
2013    8       5       0.1517524       42.60559
2013    8       6       0.1717619       46.83238
2013    8       7       0.1833494       49.32335
2013    9       0       0.1194845       35.24379
2013    9       1       0.1081055       32.21314
2013    9       2       0.1298772       37.42041
2013    9       3       0.160185        44.06092
2013    9       4       0.2040661       53.38601
2013    9       5       0.2674205       65.62258
2013    9       6       0.4508465       98.03784
2013    9       7       0.5936985       119.2821
2013    10      0       0.5466124       112.7534
2013    10      1       0.5901015       118.9216
2013    10      2       0.5220135       108.9701
2013    10      3       0.471163        100.9357
2013    10      4       0.6472143       125.8032
2013    10      5       0.8599837       150.5635
2013    10      6       0.7710609       142.1407
2013    10      7       0.8251636       148.9922
2013    11      0       0.5287163       111.0103
2013    11      1       0.2754355       67.87847
2013    11      2       0.3384034       79.43799
2013    11      3       0.3359259       78.89246
2013    11      4       0.2897348       70.65635
2013    11      5       0.2852745       69.271
2013    11      6       0.4028881       90.89651
2013    11      7       0.5507186       114.5674
2013    12      0       0.5154499       108.9355
2013    12      1       0.4907201       105.3615
2013    12      2       0.4999817       107.2215
2013    12      3       0.4026228       91.35146
2013    12      4       0.3245974       77.58193
2013    12      5       0.3524531       82.83789
2013    12      6       0.2767119       68.58182
2013    12      7       0.1599933       44.11777
2013    13      0       0.1522098       41.96514
2013    13      1       0.1820517       48.20454
2013    13      2       0.1777824       47.41202
2013    13      3       0.1286396       37.02447
2013    13      4       0.1447336       40.82569
2013    13      5       0.1439141       40.80477
2013    13      6       0.1549781       43.46078
2013    13      7       0.1670218       46.34965
2013    14      0       0.1474949       41.9183
2013    14      1       0.1275548       37.24209
2013    14      2       0.1448499       40.98479
2013    14      3       0.1740829       47.20164
2013    14      4       0.1729942       46.90726
2013    14      5       0.2083726       54.42031
2013    14      6       0.2994247       72.58978
2013    14      7       0.2927163       71.65416
2013    15      0       0.1648539       45.55564
2013    15      1       0.1013942       31.15133
2013    15      2       0.08235045      26.70542
2013    15      3       0.09226         29.07063
2013    15      4       0.1168542       34.79939
2013    15      5       0.15131         42.58441
2013    15      6       0.1767545       48.24357
2013    15      7       0.1854911       50.21932
2013    16      0       0.1881462       50.7875
2013    16      1       0.1523537       43.15108
2013    16      2       0.1312029       38.31968
2013    16      3       0.1219238       36.19585
2013    16      4       0.1177216       35.26022
2013    16      5       0.1122248       33.91526
2013    16      6       0.1222307       35.98052
2013    16      7       0.1303894       37.65647
2013    17      0       0.1227567       35.59534
2013    17      1       0.136565        38.24885
2013    17      2       0.1875903       48.73414
2013    17      3       0.2242056       56.54737
2013    17      4       0.2509356       61.95752
2013    17      5       0.2768741       67.24693
2013    17      6       0.3485722       81.05326
2013    17      7       0.4297697       95.6188
2013    18      0       0.3732234       86.38713
2013    18      1       0.2666165       66.74764
2013    18      2       0.2358856       60.64996
2013    18      3       0.2518717       63.89034
2013    18      4       0.2994231       72.99237
2013    18      5       0.2874821       70.59463
2013    18      6       0.2681642       66.67891
2013    18      7       0.3035555       73.11315
2013    19      0       0.2790994       68.41702
2013    19      1       0.2417257       61.22048
2013    19      2       0.2182354       56.37119
2013    19      3       0.1958698       51.72102
2013    19      4       0.177339        47.89904
2013    19      5       0.2193073       56.79254
2013    19      6       0.3778915       86.65648
2013    19      7       0.4764015       102.6707
2013    20      0       0.4202202       93.69983
2013    20      1       0.3329055       78.75482
2013    20      2       0.282859        69.42241
2013    20      3       0.207589        54.12913
2013    20      4       0.2071075       53.85304
2013    20      5       0.2369909       59.60446
2013    20      6       0.330906        77.52042
2013    20      7       0.4390582       96.84643
2013    21      0       0.4455209       98.46608
2013    21      1       0.4085901       92.67218
2013    21      2       0.3849509       88.70449
2013    21      3       0.3458352       81.75763
2013    21      4       0.3447045       81.86116
2013    21      5       0.391963        90.32105
2013    21      6       0.3989313       91.72785
2013    21      7       0.345817        82.36483
2013    22      0       0.3154467       76.90997
2013    22      1       0.3031668       74.62368
2013    22      2       0.2877547       70.9792
2013    22      3       0.2926185       71.76555
2013    22      4       0.319052        75.8208
2013    22      5       0.3527622       81.70962
2013    22      6       0.3276031       77.8161
2013    22      7       0.447447        97.90802
2013    23      0       0.464334        101.1227
2013    23      1       0.5288147       110.6592
2013    23      2       0.5116995       108.0938
2013    23      3       0.4935994       104.7216
2013    23      4       0.5219166       108.6889
2013    23      5       0.3969742       88.91305
2013    23      6       0.3908939       88.20961
2013    23      7       0.4601087       99.90688
2013    24      0       0.4127999       92.74818
2013    24      1       0.3881328       89.2632
2013    24      2       0.3353221       79.75767
2013    24      3       0.3172778       76.32928
2013    24      4       0.3173676       76.27093
2013    24      5       0.3534709       82.60699
2013    24      6       0.424003        94.90875
2013    24      7       0.4278591       95.6017
2013    25      0       0.3414235       80.40171
2013    25      1       0.2550151       63.96088
2013    25      2       0.1918016       50.95673
2013    25      3       0.2094994       54.46245
2013    25      4       0.2509068       62.89785
2013    25      5       0.2586053       64.51642
2013    25      6       0.2655071       65.71903
2013    25      7       0.2369707       60.41016
2013    26      0       0.1759202       48.02073
2013    26      1       0.1612473       44.81088
2013    26      2       0.161186        44.7519
2013    26      3       0.1368111       39.25451
2013    26      4       0.133708        38.43664
2013    26      5       0.1387203       39.51417
2013    26      6       0.1500669       41.90341
2013    26      7       0.1388268       39.39788
2013    27      0       0.07986872      25.9538
2013    27      1       0.0650033       22.35436
2013    27      2       0.0622476       21.61961
2013    27      3       0.06928721      23.30431
2013    27      4       0.07837909      25.51187
2013    27      5       0.08756872      27.73111
2013    27      6       0.08853192      28.02373
2013    27      7       0.1010198       30.9882
2013    28      0       0.09875237      30.48702
2013    28      1       0.08732358      27.75976
2013    28      2       0.1058276       32.15563
2013    28      3       0.1209302       35.74916
2013    28      4       0.1066901       32.37279
2013    28      5       0.1102595       33.1711
2013    28      6       0.1261365       36.81202
2013    28      7       0.1429159       40.50812
2013    29      0       0.1334631       38.36994
2013    29      1       0.1289816       37.34656
2013    29      2       0.1725497       46.84135
2013    29      3       0.2258826       58.04577
2013    29      4       0.2126137       55.43647
2013    29      5       0.1984551       52.54838
2013    29      6       0.171823        46.87971
2013    29      7       0.1512832       42.47479
2013    30      0       0.1396606       40.05305
2013    30      1       0.1125675       33.90736
2013    30      2       0.1057216       32.28118
2013    30      3       0.1038727       31.80548
2013    30      4       0.106244        32.38577
2013    30      5       0.1134109       33.9932
2013    30      6       0.119555        35.40612
2013    30      7       0.129605        37.86529
2014    1       0       0.1438892       40.28503
2014    1       1       0.1222189       35.51355
2014    1       2       0.1188066       34.59733
2014    1       3       0.1375285       38.38156
2014    1       4       0.1472741       40.12589
2014    1       5       0.2162408       54.06186
2014    1       6       0.272445        64.91003
2014    1       7       0.3242786       74.34206
2014    2       0       0.3587043       80.62873
2014    2       1       0.3338396       76.77433
2014    2       2       0.3346777       77.11645
2014    2       3       0.257571        63.13917
2014    2       4       0.1647433       44.42858
2014    2       5       0.1346558       38.05189
2014    2       6       0.1307352       37.28809
2014    2       7       0.1257035       36.28144
2014    3       0       0.09104059      28.43977
2014    3       1       0.1056014       31.7333
2014    3       2       0.1337022       38.29461
2014    3       3       0.1125832       33.44554
2014    3       4       0.08130891      26.14749
2014    3       5       0.07130566      23.67647
2014    3       6       0.07959084      25.55931
2014    3       7       0.08964756      27.8307
2014    4       0       0.09756553      29.67172
2014    4       1       0.1052981       31.33401
2014    4       2       0.1143169       33.37798
2014    4       3       0.1211939       35.12347
2014    4       4       0.1251783       36.13125
2014    4       5       0.1066301       31.93589
2014    4       6       0.091949        28.37079
2014    4       7       0.1260383       36.16594
2014    5       0       0.1177031       34.50128
2014    5       1       0.1297296       37.11099
2014    5       2       0.1694175       45.84319
2014    5       3       0.2274653       57.74802
2014    5       4       0.3162686       74.90284
2014    5       5       0.507645        107.2171
2014    5       6       0.5143731       109.1516
2014    5       7       0.453487        99.8684
2014    6       0       0.2346929       59.94027
2014    6       1       0.1662208       45.12383
2014    6       2       0.1500204       41.56022
2014    6       3       0.1658066       44.97815
2014    6       4       0.2008688       52.33747
2014    6       5       0.2216749       56.70146
2014    6       6       0.1996527       52.47962
2014    6       7       0.1942404       51.28356
2014    7       0       0.1762182       47.30924
2014    7       1       0.150017        41.85858
2014    7       2       0.130522        37.52638
2014    7       3       0.1023885       31.13209
2014    7       4       0.1340463       38.262
2014    7       5       0.1628048       44.84835
2014    7       6       0.1704856       46.70066
2014    7       7       0.1646446       45.49433
2014    8       0       0.1320897       38.2699
2014    8       1       0.1074158       32.58573
2014    8       2       0.1061345       32.27125
2014    8       3       0.09946356      30.65
2014    8       4       0.1151092       34.37437
2014    8       5       0.1311699       38.10674
2014    8       6       0.1236799       36.41934
2014    8       7       0.12694         37.19996
2014    9       0       0.1255958       36.89119
2014    9       1       0.1311522       38.04402
2014    9       2       0.1518957       42.38593
2014    9       3       0.1663087       45.59666
2014    9       4       0.1626072       45.01353
2014    9       5       0.2192197       56.58698
2014    9       6       0.2585858       64.41651
2014    9       7       0.3130326       74.71371
2014    10      0       0.3252177       76.95474
2014    10      1       0.2961847       71.8216
2014    10      2       0.2521749       63.64247
2014    10      3       0.2834676       69.58268
2014    10      4       0.3150113       75.61847
2014    10      5       0.3108682       75.06241
2014    10      6       0.3208508       76.92353
2014    10      7       0.3238488       77.3107
2014    11      0       0.3060466       73.58448
2014    11      1       0.3229276       76.23987
2014    11      2       0.3017894       72.01498
2014    11      3       0.3344863       78.20963
2014    11      4       0.3258348       76.95201
2014    11      5       0.2883178       69.88008
2014    11      6       0.2115205       55.27584
2014    11      7       0.1811646       49.03295
2014    12      0       0.1498827       41.89328
2014    12      1       0.1141302       33.6914
2014    12      2       0.1118068       33.27275
2014    12      3       0.09895046      30.40115
2014    12      4       0.08395115      26.74819
2014    12      5       0.08216161      26.16458
2014    12      6       0.1136258       33.49306
2014    12      7       0.1191245       35.03423
2014    13      0       0.09635414      29.75471
2014    13      1       0.08800079      27.70243
2014    13      2       0.1129135       33.37601
2014    13      3       0.1104192       33.02534
2014    13      4       0.1385616       39.52098
2014    13      5       0.1710588       46.81659
2014    13      6       0.1814467       48.83412
2014    13      7       0.2184525       56.46147
2014    14      0       0.2348251       59.78672
2014    14      1       0.2159446       56.17461
2014    14      2       0.2343329       59.95443
2014    14      3       0.2648245       65.85949
2014    14      4       0.3016968       72.91341
2014    14      5       0.3836821       87.58954
2014    14      6       0.4119609       92.56828
2014    14      7       0.4453087       98.07411
2014    15      0       0.4696687       102.4262
2014    15      1       0.4302222       96.23449
2014    15      2       0.4326351       96.16901
2014    15      3       0.4349255       96.28815
2014    15      4       0.4005996       90.73169
2014    15      5       0.3904378       89.25507
2014    15      6       0.4160657       93.70141
2014    15      7       0.4019642       91.25886
2014    16      0       0.3755985       86.7483
2014    16      1       0.4138425       94.15934
2014    16      2       0.457985        101.9225
2014    16      3       0.4490346       100.1321
2014    16      4       0.5248484       112.5258
2014    16      5       0.7164618       139.4565
2014    16      6       0.9018083       160.5692
2014    16      7       1.007723        170.6245
2014    17      0       1.046521        173.2211
2014    17      1       0.84235         153.2976
2014    17      2       0.4712916       104.436
2014    17      3       0.3786107       88.45741
2014    17      4       0.4263144       96.71313
2014    17      5       0.466853        103.1987
2014    17      6       0.4470701       99.84094
2014    17      7       0.3882906       90.14798
2014    18      0       0.2622357       66.4951
2014    18      1       0.2246801       58.62004
2014    18      2       0.2137519       55.53888
2014    18      3       0.259709        64.56288
2014    18      4       0.2984994       72.09533
2014    18      5       0.3346479       78.54498
2014    18      6       0.3935238       89.0523
2014    18      7       0.4521548       99.08627
2014    19      0       0.5031236       107.0512
2014    19      1       0.5418314       112.3823
2014    19      2       0.4563419       99.17271
2014    19      3       0.1812075       49.0256
2014    19      4       0.0913319       28.57781
2014    19      5       0.1238641       35.95976
2014    19      6       0.1650194       45.07172
2014    19      7       0.2018365       52.88908
2014    20      0       0.1862285       49.67847
2014    20      1       0.1620436       44.49675
2014    20      2       0.165519        45.12904
2014    20      3       0.1855072       49.19223
2014    20      4       0.2016627       52.48046
2014    20      5       0.2360331       59.29606
2014    20      6       0.2759196       67.08171
2014    20      7       0.2623688       64.70009
2014    21      0       0.1746814       47.17812
2014    21      1       0.1195986       35.08966
2014    21      2       0.1153544       34.09878
2014    21      3       0.1121479       33.31035
2014    21      4       0.1067087       32.0136
2014    21      5       0.1048362       31.59649
2014    21      6       0.12158         35.13426
2014    21      7       0.1776432       46.8521
2014    22      0       0.2469789       60.99517
2014    22      1       0.3191453       75.34868
2014    22      2       0.422799        93.66374
2014    22      3       0.4798655       102.8617
2014    22      4       0.5166336       108.6319
2014    22      5       0.5752586       117.1959
2014    22      6       0.6755565       130.9601
2014    22      7       0.7722465       142.4246
2014    23      0       0.6351454       124.6819
2014    23      1       0.6322394       124.1348
2014    23      2       0.4670884       100.0261
2014    23      3       0.3084238       73.34452
2014    23      4       0.3363214       78.2412
2014    23      5       0.3352796       77.84144
2014    23      6       0.3643331       82.53494
2014    23      7       0.4640815       98.77502
2014    24      0       0.3529713       80.65751
2014    24      1       0.4147123       90.85356
2014    24      2       0.7504306       139.2788
2014    24      3       1.035392        169.5716
2014    24      4       0.7834982       143.2631
2014    24      5       0.7065618       133.8483
2014    24      6       0.6235871       123.5901
2014    24      7       0.5570742       114.0114
2014    25      0       0.5303362       109.7483
2014    25      1       0.4894269       103.5027
2014    25      2       0.5104081       106.8673
2014    25      3       0.5406208       111.3478
2014    25      4       0.4903954       104.6064
2014    25      5       0.4881415       104.2014
2014    25      6       0.4833025       103.3348
2014    25      7       0.443109        97.71595
2014    26      0       0.2074224       54.52466
2014    26      1       0.1106424       33.19541
2014    26      2       0.1033306       31.37667
2014    26      3       0.1066553       32.03122
2014    26      4       0.1015175       30.73962
2014    26      5       0.1325987       37.59447
2014    26      6       0.152891        42.05971
2014    26      7       0.130951        37.71666
2014    27      0       0.1209248       35.45736
2014    27      1       0.1314944       37.47181
2014    27      2       0.1548876       42.47222
2014    27      3       0.1818443       48.42695
2014    27      4       0.1944766       50.87746
2014    27      5       0.2674428       64.81921
2014    27      6       0.2496326       61.89373
2014    27      7       0.2591854       64.04387
2014    28      0       0.4287858       92.79363
2014    28      1       0.3134872       74.32506
2014    28      2       0.3281082       77.21846
2014    28      3       0.3808564       86.67417
2014    28      4       0.4863755       103.326
2014    28      5       0.6135253       121.6276
2014    28      6       0.73249         137.0304
2014    28      7       1.018799        168.0187
2014    29      0       0.6715407       131.2644
2014    29      1       0.3775429       85.41474
2014    29      2       0.4439171       95.99849
2014    29      3       0.8106027       146.1208
2014    29      4       1.130427        177.8792
2014    29      5       1.243227        186.3286
2014    29      6       1.064474        172.1418
2014    29      7       0.838945        150.8195
2014    30      0       0.5770917       117.7048
2014    30      1       0.2369974       60.15782
2014    30      2       0.1063926       32.05135
2014    30      3       0.1011512       30.7633
2014    30      4       0.1042614       31.48821
2014    30      5       0.105051        31.59712
2014    30      6       0.1151709       33.89132
2014    30      7       0.1296085       37.1735
2015    1       0       0.3889232       87.55022
2015    1       1       0.3756437       85.72264
2015    1       2       0.3554255       82.4421
2015    1       3       0.2996481       72.24202
2015    1       4       0.21062         54.88941
2015    1       5       0.1407589       39.91084
2015    1       6       0.1564358       43.26379
2015    1       7       0.2117791       54.90765
2015    2       0       0.2170958       55.9552
2015    2       1       0.2547238       63.54693
2015    2       2       0.3374275       78.92762
2015    2       3       0.3527183       81.34988
2015    2       4       0.3719237       84.57922
2015    2       5       0.4679241       100.6192
2015    2       6       0.6037947       120.767
2015    2       7       0.5912347       118.5876
2015    3       0       0.4959396       104.6358
2015    3       1       0.371531        84.53536
2015    3       2       0.3255163       76.30989
2015    3       3       0.3378225       78.67754
2015    3       4       0.3650052       83.6979
2015    3       5       0.3594141       82.56561
2015    3       6       0.5301084       109.2337
2015    3       7       0.6475459       125.4764
2015    4       0       0.6628298       127.5633
2015    4       1       0.7036196       132.3413
2015    4       2       0.7362514       136.8822
2015    4       3       0.8877527       154.4441
2015    4       4       0.7460392       138.3109
2015    4       5       0.726758        136.1742
2015    4       6       1.011477        167.4651
2015    4       7       1.054348        170.8168
2015    5       0       0.9846725       164.2289
2015    5       1       0.8794158       153.656
2015    5       2       0.7207489       135.8527
2015    5       3       0.5741848       116.8685
2015    5       4       0.6276532       123.9155
2015    5       5       0.6699101       129.3121
2015    5       6       0.6727826       129.8275
2015    5       7       0.6388681       125.4033
2015    6       0       0.5483883       113.0074
2015    6       1       0.3975783       89.68938
2015    6       2       0.2887008       70.32355
2015    6       3       0.2239491       57.59386
2015    6       4       0.1630528       44.57769
2015    6       5       0.1971101       51.35145
2015    6       6       0.2599195       63.91882
2015    6       7       0.3597407       82.94134
2015    7       0       0.2585955       64.19999
2015    7       1       0.2301417       58.64631
2015    7       2       0.2491058       62.25277
2015    7       3       0.2542649       63.08799
2015    7       4       0.2376713       59.82461
2015    7       5       0.2647441       65.40475
2015    7       6       0.3150292       74.94133
2015    7       7       0.3967454       88.98582
2015    8       0       0.2632281       64.95276
2015    8       1       0.2607443       64.53545
2015    8       2       0.279565        68.5691
2015    8       3       0.2749324       67.29967
2015    8       4       0.2355298       59.31584
2015    8       5       0.4400906       94.44637
2015    8       6       0.646698        124.5492
2015    8       7       0.7077475       133.0526
2015    9       0       0.6308997       123.3364
2015    9       1       0.4992812       104.692
2015    9       2       0.3775561       85.24918
2015    9       3       0.2532833       62.83997
2015    9       4       0.1956381       51.47343
2015    9       5       0.2252782       57.52906
2015    9       6       0.314388        74.58365
2015    9       7       0.3638671       83.02173
2015    10      0       0.3159523       74.63191
2015    10      1       0.2638419       65.11172
2015    10      2       0.2977518       72.05675
2015    10      3       0.4118595       92.58669
2015    10      4       0.4077753       91.7684
2015    10      5       0.6174997       123.7582
2015    10      6       1.127268        178.461
2015    10      7       1.073069        174.4454
2015    11      0       0.7218078       137.8288
2015    11      1       0.5500651       115.4684
2015    11      2       0.5637803       117.1774
2015    11      3       0.3790569       87.47865
2015    11      4       0.4034747       91.47941
2015    11      5       0.503509        107.9242
2015    11      6       0.7956548       146.7942
2015    11      7       1.072612        175.0231
2015    12      0       0.8967826       158.4636
2015    12      1       0.6960786       135.0929
2015    12      2       0.855884        151.7638
2015    12      3       0.9364227       159.2249
2015    12      4       0.8003346       145.2628
2015    12      5       0.852359        153.1763
2015    12      6       0.5689661       118.4629
2015    12      7       0.2195103       57.39733
2015    13      0       0.2075346       53.83018
2015    13      1       0.2587464       63.83083
2015    13      2       0.2607959       64.32336
2015    13      3       0.2806331       68.04216
2015    13      4       0.3471642       80.52983
2015    13      5       0.4465722       97.74065
2015    13      6       0.4563464       98.88626
2015    13      7       0.4022975       90.04999
2015    14      0       0.3823603       87.48419
2015    14      1       0.3624726       84.71442
2015    14      2       0.4128739       93.43424
2015    14      3       0.4738275       103.1807
2015    14      4       0.5322633       112.257
2015    14      5       0.5845706       119.5545
2015    14      6       0.4939757       105.5852
2015    14      7       0.4122324       92.78734
2015    15      0       0.281294        69.23799
2015    15      1       0.1982291       52.33279
2015    15      2       0.1777733       48.11312
2015    15      3       0.2204039       57.11975
2015    15      4       0.263361        64.99415
2015    15      5       0.2629238       64.9737
2015    15      6       0.2817536       68.54179
2015    15      7       0.3276717       76.3224
2015    16      0       0.3158501       73.59702
2015    16      1       0.3078898       72.17072
2015    16      2       0.28639         68.13987
2015    16      3       0.2995294       70.80028
2015    16      4       0.3570082       81.46295
2015    16      5       0.4664666       99.66169
2015    16      6       0.5417774       110.8722
2015    16      7       0.5147963       107.3779
2015    17      0       0.4955419       104.6592
2015    17      1       0.4560454       99.20648
2015    17      2       0.3731739       85.5414
2015    17      3       0.3214823       76.43762
2015    17      4       0.3303927       78.09323
2015    17      5       0.3460558       80.72845
2015    17      6       0.4190207       93.29627
2015    17      7       0.4018728       89.99331
2015    18      0       0.3484402       80.42542
2015    18      1       0.3587631       82.58848
2015    18      2       0.363041        82.98481
2015    18      3       0.3613956       82.3257
2015    18      4       0.3228504       75.27551
2015    18      5       0.2790378       66.79628
2015    18      6       0.2599189       63.04055
2015    18      7       0.2285337       56.8943
2015    19      0       0.1455131       40.2134
2015    19      1       0.09438531      29.15961
2015    19      2       0.0708657       23.639
2015    19      3       0.05194491      19.03385
2015    19      4       0.06624175      22.45441
2015    19      5       0.1606625       43.49591
2015    19      6       0.3716786       84.72017
2015    19      7       0.5059234       107.0144
2015    20      0       0.4600631       99.94133
2015    20      1       0.3313077       78.66427
2015    20      2       0.2931776       71.61448
2015    20      3       0.2952727       71.83939
2015    20      4       0.2936203       71.61723
2015    20      5       0.3384452       79.7776
2015    20      6       0.3939229       89.066
2015    20      7       0.4042287       90.26691
2015    21      0       0.3872418       87.26271
2015    21      1       0.3927913       88.22738
2015    21      2       0.4315185       94.75034
2015    21      3       0.4948596       104.7366
2015    21      4       0.5708868       116.0159
2015    21      5       0.5875023       118.6829
2015    21      6       0.4769483       102.5077
2015    21      7       0.4396839       96.38506
2015    22      0       0.4191531       92.58117
2015    22      1       0.4204761       92.38056
2015    22      2       0.3849559       85.94469
2015    22      3       0.3138603       73.26553
2015    22      4       0.2491038       60.85083
2015    22      5       0.2621403       63.63745
2015    22      6       0.2368709       59.51147
2015    22      7       0.2733864       66.98513
2015    23      0       0.2404705       60.93744
2015    23      1       0.2138318       55.69591
2015    23      2       0.2193686       56.64064
2015    23      3       0.2452211       61.6492
2015    23      4       0.2479585       62.06535
2015    23      5       0.2599003       64.27901
2015    23      6       0.3041739       72.87509
2015    23      7       0.3112296       74.1232
2015    24      0       0.1936434       51.22093
2015    24      1       0.1839934       48.7414
2015    24      2       0.2207999       56.06986
2015    24      3       0.2867367       69.28189
2015    24      4       0.3116704       74.01284
2015    24      5       0.2220006       57.07568
2015    24      6       0.2005057       52.59562
2015    24      7       0.3005295       72.04382
2015    25      0       0.3812964       86.38092
2015    25      1       0.3436779       78.4895
2015    25      2       0.3086356       73.03645
2015    25      3       0.1684586       46.00354
2015    25      4       0.1655837       45.29854
2015    25      5       0.1961573       51.7117
2015    25      6       0.2166713       55.98512
2015    25      7       0.2160413       56.00476
2015    26      0       0.1821409       48.96764
2015    26      1       0.1713773       46.87509
2015    26      2       0.1822841       48.85885
2015    26      3       0.2249984       57.6745
2015    26      4       0.2205257       56.96655
2015    26      5       0.2235263       57.68193
2015    26      6       0.2672642       66.21214
2015    26      7       0.2580687       64.40541
2015    27      0       0.2373182       60.10544
2015    27      1       0.2197188       56.4808
2015    27      2       0.1640893       44.91981
2015    27      3       0.1226091       35.7822
2015    27      4       0.141204        39.82478
2015    27      5       0.1708368       46.2456
2015    27      6       0.1652613       44.9237
2015    27      7       0.1669801       45.18346
2015    28      0       0.1762522       47.25294
2015    28      1       0.1710487       46.35409
2015    28      2       0.1765612       47.65508
2015    28      3       0.1589291       43.93073
2015    28      4       0.1211725       35.53523
2015    28      5       0.1029558       31.36333
2015    28      6       0.1116074       33.40123
2015    28      7       0.1201301       35.41654
2015    29      0       0.1175757       34.92241
2015    29      1       0.09712381      30.15745
2015    29      2       0.09965301      30.74486
2015    29      3       0.08951947      28.3394
2015    29      4       0.09252592      29.04752
2015    29      5       0.1597566       44.45626
2015    29      6       0.2402269       61.3974
2015    29      7       0.2063604       54.47903
2015    30      0       0.1665936       46.11811
2015    30      1       0.1221898       36.05341
2015    30      2       0.1184725       35.0156
2015    30      3       0.1210223       35.4487
2015    30      4       0.1119431       33.28506
2015    30      5       0.1356345       38.67025
2015    30      6       0.1639029       44.91976
2015    30      7       0.1635626       44.92967
2016    1       0       0.5221923       108.2438
2016    1       1       0.3789855       85.95698
2016    1       2       0.2712277       66.16611
2016    1       3       0.2835445       68.39783
2016    1       4       0.1386287       38.56773
2016    1       5       0.1362992       38.11872
2016    1       6       0.1558525       42.57807
2016    1       7       0.1715912       46.0463
2016    2       0       0.1432584       39.9761
2016    2       1       0.1594388       42.87718
2016    2       2       0.3112935       72.17772
2016    2       3       0.5917027       116.9244
2016    2       4       0.4466503       97.49429
2016    2       5       0.3940706       89.16194
2016    2       6       0.3645746       84.5527
2016    2       7       0.3794481       87.65004
2016    3       0       0.4306493       96.12213
2016    3       1       0.6242877       126.2993
2016    3       2       0.6317439       127.7158
2016    3       3       0.3444328       82.748
2016    3       4       0.2832306       70.75217
2016    3       5       0.3612668       85.0933
2016    3       6       0.4764638       104.7161
2016    3       7       0.7083141       139.1929
2016    4       0       0.7125295       140.1871
2016    4       1       0.3743753       88.35512
2016    4       2       0.344849        83.01617
2016    4       3       0.3114546       76.63505
2016    4       4       0.3543786       84.5598
2016    4       5       0.4572196       102.3776
2016    4       6       0.6031607       124.8536
2016    4       7       0.7073567       139.5969
2016    5       0       0.6522674       132.8061
2016    5       1       0.395643        93.11624
2016    5       2       0.278658        71.08632
2016    5       3       0.1734588       48.2321
2016    5       4       0.1974771       53.42943
2016    5       5       0.2604455       66.57569
2016    5       6       0.4666474       104.5442
2016    5       7       0.6890379       137.7783
2016    6       0       0.6423312       131.8756
2016    6       1       0.4654766       105.2131
2016    6       2       0.4231281       98.17026
2016    6       3       0.3931602       92.7052
2016    6       4       0.3824142       90.47513
2016    6       5       0.4079455       93.9771
2016    6       6       0.6338373       128.4818
2016    6       7       0.7777515       146.7411
2016    7       0       0.7004554       137.4933
2016    7       1       0.6591423       131.8932
2016    7       2       0.7692413       145.9074
2016    7       3       0.5639395       118.5295
2016    7       4       0.4016739       92.69351
2016    7       5       0.3965306       91.86844
2016    7       6       0.4866059       107.0232
2016    7       7       0.5821318       121.6458
2016    8       0       0.5748618       120.4096
2016    8       1       0.4634791       103.122
2016    8       2       0.3159908       76.32356
2016    8       3       0.2251913       57.3123
2016    8       4       0.2499982       63.33021
2016    8       5       0.3766654       86.85412
2016    8       6       0.4996705       107.3292
2016    8       7       0.6039288       123.5675
2016    9       0       0.5275833       112.0544
2016    9       1       0.5169416       110.2812
2016    9       2       0.5035422       107.8875
2016    9       3       0.5578468       116.3564
2016    9       4       0.4953662       107.202
2016    9       5       0.4685051       102.8066
2016    9       6       0.5913933       121.1873
2016    9       7       0.7125285       137.6345
2016    10      0       0.5160567       110.3499
2016    10      1       0.3782718       87.04935
2016    10      2       0.2990999       72.35906
2016    10      3       0.2506354       63.00554
2016    10      4       0.2737426       67.80753
2016    10      5       0.3816828       87.62465
2016    10      6       0.448132        99.17417
2016    10      7       0.4852885       105.482
2016    11      0       0.3737675       86.85141
2016    11      1       0.3132833       75.86708
2016    11      2       0.269273        67.20663
2016    11      3       0.2560546       64.66751
2016    11      4       0.2539917       64.46782
2016    11      5       0.2798435       69.60386
2016    11      6       0.4117905       93.69192
2016    11      7       0.5246349       112.0193
2016    12      0       0.4816067       105.5106
2016    12      1       0.3446405       81.71855
2016    12      2       0.2555807       64.15882
2016    12      3       0.2710621       66.8885
2016    12      4       0.2577959       64.42319
2016    12      5       0.3026017       72.8024
2016    12      6       0.4286497       95.21062
2016    12      7       0.5980093       121.0384
2016    13      0       0.5609432       114.7443
2016    13      1       0.5012549       105.4509
2016    13      2       0.5251802       108.8137
2016    13      3       0.4921976       104.0756
2016    13      4       0.5590947       113.8754
2016    13      5       0.710601        134.218
2016    13      6       0.9260327       158.6932
2016    13      7       0.9473          161.4071
2016    14      0       0.6436642       127.8925
2016    14      1       0.5051522       107.851
2016    14      2       0.4204924       94.07715
2016    14      3       0.415729        92.93978
2016    14      4       0.4549497       99.50498
2016    14      5       0.5501702       114.382
2016    14      6       0.6631182       130.001
2016    14      7       0.7941178       146.0349
2016    15      0       0.6497654       127.3605
2016    15      1       0.6929773       132.4784
2016    15      2       0.6651546       129.9171
2016    15      3       0.5697685       117.327
2016    15      4       0.5739075       117.5481
2016    15      5       0.6403368       127.006
2016    15      6       0.810939        149.2786
2016    15      7       0.9280644       161.7957
2016    16      0       0.7695884       144.8291
2016    16      1       0.6218618       125.6593
2016    16      2       0.5702029       117.2396
2016    16      3       0.6105007       122.6538
2016    16      4       0.5525532       114.4831
2016    16      5       0.6039099       121.5632
2016    16      6       0.8470666       151.3879
2016    16      7       1.101449        176.6163
2016    17      0       0.7021          136.2369
2016    17      1       0.2411098       62.23645
2016    17      2       0.1195083       35.89681
2016    17      3       0.0910235       29.04243
2016    17      4       0.1137014       34.26708
2016    17      5       0.1875255       50.87849
2016    17      6       0.356579        84.15694
2016    17      7       0.4671023       103.1249
2016    18      0       0.4467734       100.3763
2016    18      1       0.403304        92.97479
2016    18      2       0.2932457       72.67916
2016    18      3       0.1722436       47.52054
2016    18      4       0.1398131       40.35695
2016    18      5       0.1765659       48.40007
2016    18      6       0.3822729       88.65447
2016    18      7       0.5406978       115.0938
2016    19      0       0.5177226       111.7973
2016    19      1       0.3332965       80.09734
2016    19      2       0.3749394       87.37694
2016    19      3       0.3407223       80.8603
2016    19      4       0.3458912       81.72565
2016    19      5       0.5645996       116.7213
2016    19      6       1.209738        186.0843
2016    19      7       1.353342        196.5422
2016    20      0       1.208377        185.656
2016    20      1       0.5416465       113.2518
2016    20      2       0.3717604       85.78308
2016    20      3       0.3002242       72.30678
2016    20      4       0.4008916       90.12151
2016    20      5       0.6084429       122.2435
2016    20      6       0.8653638       153.4647
2016    20      7       0.9676082       164.0893
2016    21      0       0.9893257       167.0301
2016    21      1       0.7143433       137.158
2016    21      2       0.7730615       144.1915
2016    21      3       0.8594495       153.6112
2016    21      4       0.7400611       139.4945
2016    21      5       0.8314591       149.8865
2016    21      6       0.9975087       167.1983
2016    21      7       1.095376        175.8283
2016    22      0       1.101604        177.0603
2016    22      1       1.149766        181.1649
2016    22      2       1.033135        171.7757
2016    22      3       0.7862508       146.9539
2016    22      4       0.7056642       136.8285
2016    22      5       0.702827        135.938
2016    22      6       1.136717        180.4294
2016    22      7       1.3664          197.7706
2016    23      0       1.174656        184.2298
2016    23      1       1.119047        179.4774
2016    23      2       0.8775691       156.2202
2016    23      3       0.9482074       163.0295
2016    23      4       0.9841562       165.7496
2016    23      5       0.9244606       160.2228
2016    23      6       1.152756        180.6967
2016    23      7       1.244266        188.092
2016    24      0       1.06802         174.1957
2016    24      1       0.7771413       144.6951
2016    24      2       0.7884347       145.6162
2016    24      3       0.8157359       148.3706
2016    24      4       0.8793614       155.2977
2016    24      5       0.8705239       155.1622
2016    24      6       0.8648072       155.0074
2016    24      7       0.7884877       146.178
2016    25      0       0.5617822       117.335
2016    25      1       0.4106692       93.1075
2016    25      2       0.3858237       88.81181
2016    25      3       0.3936053       89.88567
2016    25      4       0.3535774       82.40698
2016    25      5       0.411175        92.41047
2016    25      6       0.8302093       151.2833
2016    25      7       0.943378        163.9475
2016    26      0       0.6992409       136.5436
2016    26      1       0.3634322       84.73388
2016    26      2       0.2047382       53.58459
2016    26      3       0.1953704       51.60029
2016    26      4       0.1638106       45.06318
2016    26      5       0.1915819       51.03311
2016    26      6       0.3939171       90.00021
2016    26      7       0.6902704       134.4828
2016    27      0       0.5763778       119.3249
2016    27      1       0.2799371       69.2726
2016    27      2       0.2219615       57.56686
2016    27      3       0.1987243       52.41953
2016    27      4       0.2377539       60.38308
2016    27      5       0.312209        74.93032
2016    27      6       0.4815019       104.1229
2016    27      7       0.556644        115.5527
2016    28      0       0.3702193       85.78019
2016    28      1       0.1733656       47.36986
2016    28      2       0.1256055       36.7777
2016    28      3       0.1053484       31.95499
2016    28      4       0.1028328       31.37544
2016    28      5       0.1281123       37.3246
2016    28      6       0.199211        52.97299
2016    28      7       0.2634095       66.16126
2016    29      0       0.3283997       79.36316
2016    29      1       0.4230788       96.9167
2016    29      2       0.5905028       123.3356
2016    29      3       0.4630179       103.5114
2016    29      4       0.4789744       106.0022
2016    29      5       0.7846484       147.1223
2016    29      6       1.289026        193.5325
2016    29      7       1.518483        207.8381
2016    30      0       1.234682        190.3302
2016    30      1       1.039095        174.621
2016    30      2       1.042296        174.901
2016    30      3       1.026486        173.5362
2016    30      4       0.9179959       162.6854
2016    30      5       0.9840378       168.8381
2016    30      6       1.190645        186.699
2016    30      7       1.310869        196.1495
2017    1       0       0.3434599       79.23113
2017    1       1       0.3128118       73.37614
2017    1       2       0.3638984       82.61043
2017    1       3       0.4140624       91.34034
2017    1       4       0.4596899       98.91277
2017    1       5       0.5828228       116.8163
2017    1       6       0.7017376       132.3033
2017    1       7       0.7999262       143.7898
2017    2       0       0.7692534       140.5958
2017    2       1       0.7894936       143.2526
2017    2       2       0.7883816       142.8416
2017    2       3       0.6831915       130.3675
2017    2       4       0.5071829       106.2915
2017    2       5       0.401056        89.57067
2017    2       6       0.630713        124.1769
2017    2       7       0.527599        109.4313
2017    3       0       0.2823557       67.77178
2017    3       1       0.22881         56.73342
2017    3       2       0.3366369       76.47108
2017    3       3       0.6284781       121.9135
2017    3       4       0.8104943       144.8301
2017    3       5       0.8220597       146.3316
2017    3       6       0.7642103       140.7526
2017    3       7       0.6288901       124.3591
2017    4       0       0.3961913       89.02757
2017    4       1       0.4661696       99.56839
2017    4       2       0.6109969       120.4495
2017    4       3       0.6932899       131.0981
2017    4       4       0.7280809       135.2463
2017    4       5       0.9468591       159.3891
2017    4       6       0.999637        165.3818
2017    4       7       0.9774779       164.9516
2017    5       0       0.9176878       159.2759
2017    5       1       0.869111        153.9592
2017    5       2       0.6920135       132.4556
2017    5       3       0.50464         107.5488
2017    5       4       0.5846683       119.8973
2017    5       5       0.5062264       108.2877
2017    5       6       0.5688336       118.1254
2017    5       7       0.6070188       123.4355
2017    6       0       0.6702472       131.1465
2017    6       1       0.6659507       130.1664
2017    6       2       0.694152        133.5389
2017    6       3       0.6291161       125.5189
2017    6       4       0.6255571       124.705
2017    6       5       0.8962677       156.5044
2017    6       6       1.153606        180.6816
2017    6       7       1.320181        193.6636
2017    7       0       1.293775        191.4429
2017    7       1       1.147827        180.72
2017    7       2       0.9826331       166.4743
2017    7       3       0.6051215       122.7296
2017    7       4       0.3977268       89.48929
2017    7       5       0.4847596       102.4106
2017    7       6       0.6725227       129.0028
2017    7       7       0.9040278       156.1586
2017    8       0       0.8455413       150.9339
2017    8       1       0.6784051       131.2116
2017    8       2       0.6180749       122.1419
2017    8       3       0.6513324       125.8912
2017    8       4       0.7056914       133.1047
2017    8       5       0.8332892       148.6691
2017    8       6       0.8284916       149.4977
2017    8       7       0.8531228       153.0618
2017    9       0       0.7304143       139.2228
2017    9       1       0.5707851       117.3775
2017    9       2       0.6111375       122.7032
2017    9       3       0.7469318       139.1995
2017    9       4       0.7715481       142.3801
2017    9       5       0.505327        107.5293
2017    9       6       0.4693626       102.0839
2017    9       7       0.5294989       111.5778
2017    10      0       0.4576438       100.8373
2017    10      1       0.2409878       61.23688
2017    10      2       0.2418191       60.97395
2017    10      3       0.2479987       62.36339
2017    10      4       0.2092774       55.00914
2017    10      5       0.2284907       59.33
2017    10      6       0.3048312       74.506
2017    10      7       0.35878         84.3436
2017    11      0       0.3463058       82.26809
2017    11      1       0.3355651       81.1135
2017    11      2       0.4264352       97.41631
2017    11      3       0.1873489       50.63288
2017    11      4       0.1768317       48.18105
2017    11      5       0.2477742       63.14222
2017    11      6       0.3978756       91.33072
2017    11      7       0.5535616       116.8432
2017    12      0       0.6445303       130.9392
2017    12      1       0.6216788       128.7367
2017    12      2       0.4115772       95.38418
2017    12      3       0.3170269       77.814
2017    12      4       0.2404966       62.37273
2017    12      5       0.3313127       80.23709
2017    12      6       0.5719028       120.482
2017    12      7       0.7820184       148.6287
2017    13      0       0.7829342       149.7669
2017    13      1       0.7594153       147.356
2017    13      2       0.8342028       155.7583
2017    13      3       0.9876167       171.7856
2017    13      4       0.8147357       153.3703
2017    13      5       0.8063843       151.6408
2017    13      6       0.9750639       169.6664
2017    13      7       1.025888        174.3001
2017    14      0       0.6762167       136.1355
2017    14      1       0.4847781       108.2831
2017    14      2       0.3169995       77.9096
2017    14      3       0.2532716       64.8978
2017    14      4       0.2510148       64.06739
2017    14      5       0.2813549       70.13649
2017    14      6       0.523644        112.0285
2017    14      7       0.6289695       127.4124
2017    15      0       0.4034951       92.23471
2017    15      1       0.3700847       86.25111
2017    15      2       0.3655476       85.13069
2017    15      3       0.2907646       71.11995
2017    15      4       0.2857037       70.072
2017    15      5       0.3975665       89.70814
2017    15      6       0.424205        94.27313
2017    15      7       0.3273222       78.08842
2017    16      0       0.1759046       47.85175
2017    16      1       0.0923379       28.71679
2017    16      2       0.1460234       40.90557
2017    16      3       0.1800431       48.61438
2017    16      4       0.1789019       48.60696
2017    16      5       0.2467377       62.52014
2017    16      6       0.3013979       73.25235
2017    16      7       0.3006247       73.088
2017    17      0       0.2232205       57.52388
2017    17      1       0.2223151       57.16225
2017    17      2       0.4049631       90.32016
2017    17      3       0.5891231       119.3697
2017    17      4       0.240426        61.24015
2017    17      5       0.3290383       77.52651
2017    17      6       0.5786552       116.7541
2017    17      7       0.7118495       135.0664
2017    18      0       0.6534987       127.6409
2017    18      1       0.3181124       74.56305
2017    18      2       0.3470715       80.03252
2017    18      3       0.307405        73.4827
2017    18      4       0.2519127       63.31815
2017    18      5       0.3002841       72.49466
2017    18      6       0.4378201       97.12369
2017    18      7       0.4866217       105.1335
2017    19      0       0.4895001       105.5705
2017    19      1       0.4189322       94.59949
2017    19      2       0.4154141       94.01543
2017    19      3       0.4102696       92.94218
2017    19      4       0.4279807       95.65639
2017    19      5       0.4815523       104.1265
2017    19      6       0.5808309       118.9159
2017    19      7       0.6685075       130.9942
2017    20      0       0.6328728       126.4156
2017    20      1       0.5244497       110.6858
2017    20      2       0.5199259       109.3117
2017    20      3       0.5731871       116.7003
2017    20      4       0.5563518       114.3571
2017    20      5       0.6531005       127.4897
2017    20      6       0.739392        138.5194
2017    20      7       0.8057919       145.757
2017    21      0       0.5517953       113.9442
2017    21      1       0.2282448       58.7285
2017    21      2       0.1312488       37.91558
2017    21      3       0.09240878      28.68045
2017    21      4       0.1203309       35.01263
2017    21      5       0.164196        45.13834
2017    21      6       0.2589664       64.77252
2017    21      7       0.3534647       82.50844
2017    22      0       0.2959109       72.19992
2017    22      1       0.2054793       53.64337
2017    22      2       0.2144829       55.55065
2017    22      3       0.232624        59.36189
2017    22      4       0.2436755       61.63699
2017    22      5       0.2635668       65.69125
2017    22      6       0.3169864       76.1584
2017    22      7       0.3824331       88.35323
2017    23      0       0.3516578       83.12549
2017    23      1       0.2365043       60.9796
2017    23      2       0.1788917       48.54818
2017    23      3       0.163654        44.78319
2017    23      4       0.1691995       45.78336
2017    23      5       0.1982617       52.23098
2017    23      6       0.2836898       69.85474
2017    23      7       0.4358963       97.55898
2017    24      0       0.4486177       99.75365
2017    24      1       0.2578661       64.88546
2017    24      2       0.1996058       52.55448
2017    24      3       0.2368854       60.31294
2017    24      4       0.2752334       68.08365
2017    24      5       0.3323102       78.8249
2017    24      6       0.6154054       122.8271
2017    24      7       0.7029416       134.2765
2017    25      0       0.4691118       102.6528
2017    25      1       0.3139776       75.98829
2017    25      2       0.2789389       69.18367
2017    25      3       0.2616186       65.49269
2017    25      4       0.2888652       70.75165
2017    25      5       0.3186389       76.85037
2017    25      6       0.3842787       88.816
2017    25      7       0.3885063       89.87753
2017    26      0       0.3690629       87.0883
2017    26      1       0.4135966       95.11382
2017    26      2       0.4554388       102.2149
2017    26      3       0.3110427       76.66439
2017    26      4       0.2553978       65.5289
2017    26      5       0.3441282       82.48221
2017    26      6       0.5698673       119.1639
2017    26      7       0.6579818       131.3077
2017    27      0       0.5717385       119.7911
2017    27      1       0.7892578       148.5145
2017    27      2       1.147145        183.0835
2017    27      3       1.206655        187.3424
2017    27      4       1.185725        185.5322
2017    27      5       1.119529        180.5155
2017    27      6       1.297692        194.2857
2017    27      7       1.58183         212.337
2017    28      0       1.28571         194.7111
2017    28      1       0.9563815       167.394
2017    28      2       0.8719254       158.4223
2017    28      3       0.5728742       120.1486
2017    28      4       0.3727009       87.76107
2017    28      5       0.3717222       87.01567
2017    28      6       0.5284567       112.5724
2017    28      7       0.6074029       124.3818
2017    29      0       0.5534932       116.5894
2017    29      1       0.3578949       84.3334
2017    29      2       0.312275        75.70697
2017    29      3       0.3090314       75.02418
2017    29      4       0.2684282       67.16171
2017    29      5       0.2845404       70.20343
2017    29      6       0.4067607       92.70771
2017    29      7       0.5529957       116.3343
2017    30      0       0.6129539       124.6916
2017    30      1       0.5689118       118.1796
2017    30      2       0.770096        144.948
2017    30      3       0.5427365       113.6102
2017    30      4       0.5172965       109.6994
2017    30      5       0.5544198       115.8405
2017    30      6       0.6713425       132.7958
2017    30      7       0.8347047       153.1297
2018    1       0       0.4269789       93.17785
2018    1       1       0.4994          104.2911
2018    1       2       0.5791251       116.666
2018    1       3       0.8617566       151.3693
2018    1       4       0.9207031       159.2398
2018    1       5       1.02735         170.1687
2018    1       6       1.149182        181.263
2018    1       7       1.138611        181.0623
2018    2       0       1.112941        179.4164
2018    2       1       0.9732021       166.3096
2018    2       2       0.806324        148.3683
2018    2       3       0.8716754       155.1168
2018    2       4       0.8073544       147.29
2018    2       5       0.4534778       99.01722
2018    2       6       0.5116936       107.9731
2018    2       7       0.5004216       106.2302
2018    3       0       0.2351296       59.56705
2018    3       1       0.1658533       45.35815
2018    3       2       0.1633169       44.89996
2018    3       3       0.1745616       47.3102
2018    3       4       0.1637893       45.10115
2018    3       5       0.1806311       48.82985
2018    3       6       0.2390361       61.01095
2018    3       7       0.355278        83.32762
2018    4       0       0.2586067       65.51759
2018    4       1       0.1698566       46.99936
2018    4       2       0.2255867       58.77829
2018    4       3       0.2235307       57.47695
2018    4       4       0.2690413       66.62212
2018    4       5       0.299274        72.46646
2018    4       6       0.4485214       98.99554
2018    4       7       0.5265644       111.7176
2018    5       0       0.3405328       80.27891
2018    5       1       0.2700504       67.11723
2018    5       2       0.2457436       62.20005
2018    5       3       0.2645717       65.32651
2018    5       4       0.2970778       71.7863
2018    5       5       0.3595349       83.23247
2018    5       6       0.4136861       92.70867
2018    5       7       0.4789946       103.5172
2018    6       0       0.4502217       99.20501
2018    6       1       0.3085271       74.21957
2018    6       2       0.3145969       75.07356
2018    6       3       0.3748888       85.89736
2018    6       4       0.4778901       103.1406
2018    6       5       0.5486531       114.9888
2018    6       6       0.5105198       109.4122
2018    6       7       0.5273268       111.6805
2018    7       0       0.5495067       115.7804
2018    7       1       0.5763471       120.3445
2018    7       2       0.5519538       116.8271
2018    7       3       0.3746524       87.70078
2018    7       4       0.3284969       79.47914
2018    7       5       0.3574826       84.68
2018    7       6       0.4217902       95.89801
2018    7       7       0.4757655       105.0727
2018    8       0       0.4450555       100.336
2018    8       1       0.3000491       74.3259
2018    8       2       0.2097598       55.18482
2018    8       3       0.2466602       61.89317
2018    8       4       0.2605711       64.53903
2018    8       5       0.2712228       67.31954
2018    8       6       0.2949091       71.9994
2018    8       7       0.392649        90.55697
2018    9       0       0.2700857       67.71759
2018    9       1       0.176336        48.19668
2018    9       2       0.1508114       42.30813
2018    9       3       0.1669574       45.61967
2018    9       4       0.2208465       56.97567
2018    9       5       0.2926716       71.233
2018    9       6       0.4302781       95.92544
2018    9       7       0.5423341       113.6373
2018    10      0       0.446845        98.42878
2018    10      1       0.3433684       79.99001
2018    10      2       0.361365        83.62023
2018    10      3       0.3053621       72.88559
2018    10      4       0.3347387       78.03458
2018    10      5       0.3758924       85.35017
2018    10      6       0.4361083       96.50659
2018    10      7       0.4739438       103.2803
2018    11      0       0.467578        102.5936
2018    11      1       0.3315245       78.68405
2018    11      2       0.2794518       68.70833
2018    11      3       0.2704235       67.10455
2018    11      4       0.3086675       74.62969
2018    11      5       0.4684433       102.3699
2018    11      6       0.6700355       131.7033
2018    11      7       0.6746752       132.2173
2018    12      0       0.5225646       111.0156
2018    12      1       0.3123616       75.46021
2018    12      2       0.3157196       75.96446
2018    12      3       0.3985399       90.42946
2018    12      4       0.2992618       72.3933
2018    12      5       0.4623149       99.92636
2018    12      6       0.6398282       125.7084
2018    12      7       0.7213956       135.8263
2018    13      0       0.5605441       114.5055
2018    13      1       0.4792162       102.1494
2018    13      2       0.4568632       97.89637
2018    13      3       0.3243819       75.03212
2018    13      4       0.3832525       84.49218
2018    13      5       0.4127353       89.36479
2018    13      6       0.4580844       97.03415
2018    13      7       0.5299823       108.7394
2018    14      0       0.3871674       87.95846
2018    14      1       0.2113134       55.05517
2018    14      2       0.1867182       49.26614
2018    14      3       0.3088028       72.75464
2018    14      4       0.5444191       112.2259
2018    14      5       0.5541995       114.3456
2018    14      6       0.5405775       112.1354
2018    14      7       0.6186243       123.0316
2018    15      0       0.6208678       123.6392
2018    15      1       0.4820671       103.8841
2018    15      2       0.4472289       98.08838
2018    15      3       0.4281374       94.91394
2018    15      4       0.4239092       94.64863
2018    15      5       0.5312297       111.5795
2018    15      6       0.5596271       115.6113
2018    15      7       0.6232292       124.7795
2018    16      0       0.5442813       114.1398
2018    16      1       0.4028795       91.377
2018    16      2       0.356535        83.19504
2018    16      3       0.3106343       74.94548
2018    16      4       0.3003129       72.99385
2018    16      5       0.394256        89.91656
2018    16      6       0.6515724       129.2096
2018    16      7       0.720284        138.1819
2018    17      0       0.5210121       109.8489
2018    17      1       0.5261128       109.3213
2018    17      2       0.4376763       96.50985
2018    17      3       0.2552856       63.55686
2018    17      4       0.2682316       65.68834
2018    17      5       0.3187974       75.44162
2018    17      6       0.5343154       111.1581
2018    17      7       0.6388891       126.2363
2018    18      0       0.3571186       83.23656
2018    18      1       0.2548478       64.01167
2018    18      2       0.2190639       56.85249
2018    18      3       0.2158585       56.37149
2018    18      4       0.2339188       59.90639
2018    18      5       0.3280156       77.46755
2018    18      6       0.3959562       89.53881
2018    18      7       0.3957508       90.41894
2018    19      0       0.4038573       92.18242
2018    19      1       0.3807239       88.9593
2018    19      2       0.4032609       92.81458
2018    19      3       0.4179308       95.31767
2018    19      4       0.4064542       93.54185
2018    19      5       0.4233763       96.34696
2018    19      6       0.4604411       102.5559
2018    19      7       0.4537069       100.9321
2018    20      0       0.4001101       91.99677
2018    20      1       0.2795269       69.33537
2018    20      2       0.2266772       58.10588
2018    20      3       0.2321932       58.69279
2018    20      4       0.2782504       68.14512
2018    20      5       0.3954738       90.28298
2018    20      6       0.5290032       112.8729
2018    20      7       0.5713256       119.6274
2018    21      0       0.4645812       103.5563
2018    21      1       0.3289952       79.8768
2018    21      2       0.2778895       69.88853
2018    21      3       0.2770197       69.55034
2018    21      4       0.3099399       76.00682
2018    21      5       0.3775307       88.63611
2018    21      6       0.4710679       104.837
2018    21      7       0.5200992       112.5511
2018    22      0       0.3442386       82.86192
2018    22      1       0.2696075       68.35728
2018    22      2       0.2414221       62.27388
2018    22      3       0.1853946       50.18577
2018    22      4       0.4492265       100.2797
2018    22      5       0.8726565       156.3902
2018    22      6       1.403209        200.7859
2018    22      7       1.367223        199.2424
2018    23      0       0.9942899       170.5404
2018    23      1       0.6863062       135.8278
2018    23      2       0.5129586       111.1043
2018    23      3       0.5459389       115.0072
2018    23      4       0.6321056       127.0745
2018    23      5       0.652787        129.7816
2018    23      6       0.762072        144.209
2018    23      7       0.8936705       158.5233
2018    24      0       0.7649856       144.3286
2018    24      1       0.556325        116.68
2018    24      2       0.4938315       106.6222
2018    24      3       0.4656162       101.0794
2018    24      4       0.4489504       98.6958
2018    24      5       0.5581212       115.4906
2018    24      6       0.6566521       129.0791
2018    24      7       0.7853738       145.1449
2018    25      0       0.8649148       154.217
2018    25      1       0.7941144       147.0712
2018    25      2       0.7428598       140.6974
2018    25      3       0.6591981       129.5722
2018    25      4       0.6407539       127.7256
2018    25      5       0.7425085       141.0456
2018    25      6       0.7507216       142.7286
2018    25      7       0.757699        143.7925
2018    26      0       0.7298295       140.4865
2018    26      1       0.7379053       141.8571
2018    26      2       0.8143841       150.7503
2018    26      3       0.7406854       141.5213
2018    26      4       0.6422093       128.6026
2018    26      5       0.7889259       145.9711
2018    26      6       0.8049096       148.3757
2018    26      7       0.7910923       147.307
2018    27      0       0.6423457       129.0369
2018    27      1       0.3338859       79.96262
2018    27      2       0.2391276       61.30511
2018    27      3       0.153183        42.53435
2018    27      4       0.1209681       35.24233
2018    27      5       0.149847        41.97511
2018    27      6       0.2005339       53.09907
2018    27      7       0.290919        71.38888
2018    28      0       0.2868356       70.72664
2018    28      1       0.356811        83.96246
2018    28      2       0.8045503       150.1819
2018    28      3       0.9953956       170.1576
2018    28      4       0.8571          155.1937
2018    28      5       0.8580841       155.1668
2018    28      6       0.9825392       167.3511
2018    28      7       0.9223292       161.4853
2018    29      0       0.6937081       136.474
2018    29      1       0.535954        114.3216
2018    29      2       0.6154945       125.1108
2018    29      3       0.6414979       127.6789
2018    29      4       0.6209152       125.1039
2018    29      5       0.7435274       140.5191
2018    29      6       0.9496254       163.1565
2018    29      7       1.045664        172.2805
2018    30      0       0.7743535       145.6078
2018    30      1       0.4916829       106.6905
2018    30      2       0.4456282       99.1778
2018    30      3       0.4586355       101.3318
2018    30      4       0.4442829       98.50475
2018    30      5       0.6766775       131.9082
2018    30      6       1.077259        174.3189
2018    30      7       0.9854521       166.3875
