####################################################################################################
# Month: 10Oct                                                                                     #
# Station: SGO                                                                                     #
# Frequency: 345 GHz                                                                               #
# Columns are: year    day     tau     Tb (K)                                                      #
####################################################################################################
2009    1       0.16868028      44.633345
2009    2       0.43953706      94.71641
2009    3       0.248272        60.55882
2009    4       0.27164367      64.63108375
2009    5       0.27413936      65.12135125
2009    6       0.62802195      122.23522375
2009    7       0.58835861      119.5538875
2009    8       0.30734881      73.95454625
2009    9       0.19684811      51.50268875
2009    10      0.4281168       93.02741875
2009    11      0.30850009      71.146685
2009    12      0.24687136      61.35432625
2009    13      0.34688542      76.8426475
2009    14      0.50637002      104.7525275
2009    15      0.36921396      82.4619075
2009    16      0.26967368      64.25331375
2009    17      0.11696151      34.0494975
2009    18      0.12583524      36.17180625
2009    19      0.25263356      61.32855875
2009    20      0.32908037      73.59055125
2009    21      0.48073799      99.07229375
2009    22      0.90637262      158.0951625
2009    23      0.78155556      140.9258
2009    24      0.30863756      71.5416175
2009    25      0.62530375      122.7711625
2009    26      0.52230239      109.187045
2009    27      0.7857389       140.67976
2009    28      0.83173439      150.9046625
2009    29      0.50733586      107.08102875
2009    30      0.31252158      75.4967225
2009    31      0.39470492      86.65330375
2010    1       0.07636836      24.60586
2010    2       0.17716091      47.478335
2010    3       0.16191928      44.24529125
2010    4       0.47015779      98.63480375
2010    5       0.32900109      76.25484875
2010    6       0.2500363       61.899485
2010    7       0.18737326      49.34442125
2010    8       0.23561261      59.99496875
2010    9       0.22506938      57.36786875
2010    10      0.37690538      85.02201
2010    11      0.49030296      104.449375
2010    12      0.61530064      123.63845
2010    13      0.46410381      98.82909875
2010    14      0.43718415      93.60060125
2010    15      0.18673202      47.17580625
2010    16      0.15062809      40.86106125
2010    17      0.2450868       60.6079925
2010    18      0.3074988       73.05166375
2010    19      0.22659368      57.070835
2010    20      0.38102278      86.19233875
2010    21      0.26654855      65.5625725
2010    22      0.35184591      80.5826375
2010    23      0.35682391      80.78283
2010    24      0.22193769      56.47378375
2010    25      0.17411396      45.634265
2010    26      0.20430399      53.07183375
2010    27      0.28894081      68.28303
2010    28      0.37768611      84.78329875
2010    29      0.32728379      74.27677125
2010    30      0.38618035      85.9322225
2010    31      0.38033096      86.255825
2011    1       0.51766395      107.60466875
2011    2       0.30528245      72.34549625
2011    3       0.31001791      74.43827
2011    4       0.36651791      82.24304125
2011    5       0.66191991      129.2484375
2011    6       0.45370951      98.46536125
2011    7       0.24762268      60.21363125
2011    8       0.14491032      39.68492875
2011    9       0.12882339      37.07275625
2011    10      0.17822534      47.05490125
2011    11      0.23148936      57.7327525
2011    12      0.16932971      44.7801925
2011    13      0.45522584      95.431705
2011    14      0.50547261      104.0341375
2011    15      0.2780553       67.7130525
2011    16      0.54770301      112.217515
2011    17      0.53548795      110.65962375
2011    18      0.25986981      63.3345975
2011    19      0.16235482      44.23408
2011    20      0.30522186      74.11432375
2011    21      0.26269754      64.5475125
2011    22      0.321883        76.32114125
2011    23      0.19798975      51.74183
2011    24      0.24764419      61.81764
2011    25      0.23347239      58.62252625
2011    26      0.12726726      36.64177625
2011    27      0.11072539      33.07310625
2011    28      0.11706944      34.418985
2011    29      0.09019191      28.21681125
2011    30      0.08075805      26.0567775
2011    31      0.14618492      40.69584
2012    1       0.35061663      75.14685625
2012    2       0.14304058      38.1780925
2012    3       0.11629491      33.87498875
2012    4       0.37885223      82.764475
2012    5       0.96463268      161.8101125
2012    6       0.83793754      148.7202625
2012    7       0.54956801      111.77490125
2012    8       0.12374017      35.60847375
2012    9       0.38887978      85.0878325
2012    10      0.20566485      53.57847125
2012    11      0.11758136      34.753575
2012    12      0.17813778      46.734295
2012    13      0.16449828      44.6332875
2012    14      0.19867324      51.48387
2012    15      0.1457604       40.353705
2012    16      0.32481869      76.41612
2012    17      0.33753116      77.515255
2012    18      0.18799032      49.7762225
2012    19      0.1988034       51.00761625
2012    20      0.51850119      107.0102675
2012    21      0.61725805      120.6992425
2012    22      0.57163416      114.292625
2012    23      0.19836371      49.52927
2012    24      0.47362984      100.00589125
2012    25      0.16437768      44.60436375
2012    26      0.1544539       41.557505
2012    27      0.71650239      131.21798625
2012    28      0.4908342       104.934485
2012    29      0.18522177      48.9140625
2012    30      0.16028285      43.62125
2012    31      0.33305069      77.39749125
2013    1       0.43596406      91.587815
2013    2       0.2756759       65.029545
2013    3       0.23633619      56.9074375
2013    4       0.28239766      67.50106125
2013    5       0.27910729      68.33692625
2013    6       0.20247379      52.941685
2013    7       0.30695106      73.460325
2013    8       0.23823691      58.712735
2013    9       0.10639613      32.04452
2013    10      0.11468225      33.29450125
2013    11      0.16439138      44.62402625
2013    12      0.09549557      29.44105
2013    13      0.09847851      30.1439125
2013    14      0.08383453      26.85161
2013    15      0.16692991      45.34278375
2013    16      0.12632002      36.34125375
2013    17      0.13468995      38.28968375
2013    18      0.21639138      53.94757
2013    19      0.22623222      57.14195375
2013    20      0.33610366      76.5666875
2013    21      0.14976891      40.8729525
2013    22      0.34873325      78.81325125
2013    23      0.26109525      63.36940125
2013    24      0.61317892      118.8022525
2013    25      0.4356509       91.619745
2013    26      0.15431015      42.16247375
2013    27      0.24480306      60.40526375
2013    28      0.27815626      67.07475125
2013    29      0.1645278       44.39524125
2013    30      0.68328286      128.816615
2013    31      0.7580551       138.795575
2014    1       0.30148211      72.2488
2014    2       0.22152554      57.00402625
2014    3       0.26157115      64.491385
2014    4       0.68208721      128.9973625
2014    5       0.23015934      56.801995
2014    6       0.1530136       42.97048625
2014    7       0.14843324      41.62981375
2014    8       0.1848023       48.53109875
2014    9       0.25606366      63.55159
2014    10      0.15286959      42.34419
2014    11      0.14216605      39.4864575
2014    12      0.2168688       55.04249625
2014    13      0.34177422      77.54843625
2014    14      0.24265435      60.3682225
2014    15      0.32531948      75.7635075
2014    16      0.2721228       64.26351
2014    17      0.47667792      99.13475125
2014    18      0.83138504      147.4338
2014    19      0.3984119       87.9261175
2014    20      0.7526401       140.8851125
2014    21      0.46873996      102.01373
2014    22      0.21271914      56.11892875
2014    23      0.42698806      95.73365
2014    24      0.34912429      81.5332325
2014    25      0.20876121      55.28276875
2014    26      0.30514664      74.50256375
2014    27      0.31899816      75.55521375
2014    28      0.45309869      97.78887
2014    29      0.19140552      49.77933375
2014    30      0.1854782       47.8841
2014    31      0.12644961      35.930625
2015    1       0.76078885      139.3610125
2015    2       0.30016289      70.16091625
2015    3       0.70789556      131.1749675
2015    4       0.93679369      158.0563625
2015    5       0.72399521      132.5850625
2015    6       0.67592909      127.79813
2015    7       0.13404008      37.2856275
2015    8       0.21615117      52.09800625
2015    9       0.12298935      34.4736575
2015    10      0.07565182      24.6799375
2015    11      0.0756416       24.5609125
2015    12      0.49665876      102.565595
2015    13      0.44745979      95.74090125
2015    14      0.54108116      109.080255
2015    15      0.20365159      50.79274
2015    16      0.4201813       90.0307075
2015    17      0.38922979      86.57119875
2015    18      0.45933569      95.36898625
2015    19      0.90527748      154.7931625
2015    20      0.23892842      59.5855075
2015    21      0.21528935      54.859765
2015    22      0.22771594      57.26965375
2015    23      0.38884478      88.37618
2015    24      0.37065014      84.15264
2015    25      0.15802454      42.705395
2015    26      0.15192145      41.5841475
2015    27      0.49296883      100.693545
2015    28      0.53181095      110.37458
2015    29      0.28305212      68.782975
2015    30      0.34643558      79.55267875
2015    31      0.33577566      78.03072625
2016    1       0.4213294       91.01578
2016    2       0.28885161      69.88567
2016    3       0.28060845      67.694065
2016    4       0.55144878      110.89749125
2016    5       0.57016536      116.0176925
2016    6       0.86174635      149.883225
2016    7       0.51892172      100.79026
2016    8       0.31177566      72.1466225
2016    9       0.57465949      117.2415375
2016    10      0.53446546      111.02191
2016    11      0.59500256      118.6865125
2016    12      0.6806745       128.615375
2016    13      0.6153629       121.5867375
2016    14      0.81248086      144.2510625
2016    15      0.85185         151.3127
2016    16      0.53031366      107.50053375
2016    17      0.64262009      117.561985
2016    18      0.44692485      95.25301625
2016    19      0.1964665       50.650075
2016    20      0.1629724       43.92656125
2016    21      0.22245682      55.071265
2016    22      0.42921121      92.10576
2016    23      0.39262779      86.8476775
2016    24      0.34042001      78.0871
2016    25      0.34293104      76.57002625
2016    26      0.40398935      90.2856725
2016    27      0.40975109      92.448225
2016    28      0.53935281      113.28530375
2016    29      0.6162268       124.76462625
2016    30      0.6229726       123.3774075
2016    31      0.582707        115.38653375
2017    1       0.29229569      68.53895125
2017    2       0.42954325      89.76645875
2017    3       0.5928309       118.28066625
2017    4       0.5449309       111.0213475
2017    5       0.57631011      115.75905875
2017    6       0.3053533       73.03315625
2017    7       0.44339974      96.4326
2017    8       0.33317482      77.5615975
2017    9       0.23588739      58.64107125
2017    10      0.30435536      71.88910625
2017    11      0.2718321       65.0129275
2017    12      0.3198215       74.59704375
2017    13      0.17816888      47.23085875
2017    14      0.11803458      34.38826625
2017    15      0.24842042      62.75895625
2017    16      0.31193145      73.28345375
2017    17      0.30011734      70.002185
2017    18      0.5077437       105.680305
2017    19      0.26202141      64.411325
2017    20      0.66769311      126.9063925
2017    21      0.36164775      78.86333375
2017    22      0.43710246      93.3654325
2017    23      0.66981825      129.536725
2017    24      0.36594408      82.82147625
2017    25      0.32147372      75.0442275
2017    26      0.36234078      81.3420275
2017    27      0.2081284       53.91717125
2017    28      0.39812366      85.7006
2017    29      0.38569994      84.8589225
2017    30      0.42840124      92.44959625
2017    31      0.32575539      75.80320625
2018    1       0.41750708      86.233225
2018    2       0.15288994      41.424945
2018    3       0.09604152      29.37368625
2018    4       0.25058552      60.03222
2018    5       0.47550448      102.17908125
2018    6       0.28987968      69.905845
2018    7       0.49294686      104.224235
2018    8       0.76669952      140.641025
2018    9       0.3686345       79.3777625
2018    10      0.76475419      139.70695
2018    11      0.86916974      151.6932375
2018    12      0.4141675       90.99555
2018    13      0.5190499       105.46565375
2018    14      0.48091686      98.4339625
2018    15      0.40541824      91.45719
2018    16      0.62598121      121.85226
2018    17      0.55808696      111.92421375
2018    18      0.21073868      54.24578375
2018    19      0.30027261      72.24211625
2018    20      0.2386537       60.55551375
2018    21      0.2555723       63.3115475
2018    22      0.34061431      78.61646375
2018    23      0.47349418      101.225235
2018    24      0.55346432      112.045235
2018    25      0.68549284      131.5864125
2018    26      0.50154426      105.01182375
2018    27      0.83167988      145.87079625
2018    28      0.93765342      160.394375
2018    29      0.94941539      161.380375
2018    30      0.60143786      117.7117
2018    31      0.44970569      96.58528875
