####################################################################################################
# Month: 04Apr                                                                                     #
# Station: ERB                                                                                     #
# Frequency: 230 GHz                                                                               #
# Columns are: year    day     segment         tau     Tb (K)                                      #
####################################################################################################
2009    1       0       0.1173354       33.4115
2009    1       1       0.1331472       37.18139
2009    1       2       0.1526545       41.80537
2009    1       3       0.1989193       52.04211
2009    1       4       0.2762182       68.08317
2009    1       5       0.3244999       77.61178
2009    1       6       0.3004346       73.14165
2009    1       7       0.2508484       63.25006
2009    2       0       0.279133        68.6724
2009    2       1       0.3037627       73.31684
2009    2       2       0.3204022       76.48611
2009    2       3       0.4071801       92.1762
2009    2       4       0.4271586       95.71885
2009    2       5       0.4181728       94.15527
2009    2       6       0.4207869       94.57257
2009    2       7       0.419088        94.21393
2009    3       0       0.3841905       88.12208
2009    3       1       0.3629645       84.28621
2009    3       2       0.387838        88.51096
2009    3       3       0.4623534       100.9948
2009    3       4       0.4977751       106.7705
2009    3       5       0.5262446       111.1071
2009    3       6       0.5453201       113.9013
2009    3       7       0.5923449       120.878
2009    4       0       0.5768091       118.7606
2009    4       1       0.6858166       133.7337
2009    4       2       0.7194674       137.7752
2009    4       3       0.7108055       136.9462
2009    4       4       0.7432884       140.5229
2009    4       5       0.6766219       132.4454
2009    4       6       0.704893        136.5352
2009    4       7       0.6880843       134.5147
2009    5       0       0.7023536       136.9524
2009    5       1       0.5185838       110.2271
2009    5       2       0.4406232       98.50372
2009    5       3       0.4646307       102.4852
2009    5       4       0.5043329       108.3728
2009    5       5       0.4538089       100.6904
2009    5       6       0.3307175       79.30445
2009    5       7       0.2598002       65.29133
2009    6       0       0.2038794       53.47573
2009    6       1       0.1729705       46.70723
2009    6       2       0.1748615       47.12145
2009    6       3       0.2456916       62.13215
2009    6       4       0.2971596       72.42275
2009    6       5       0.3075403       74.47912
2009    6       6       0.381138        87.7466
2009    6       7       0.4206156       95.49086
2009    7       0       0.5445585       115.9504
2009    7       1       0.5855626       122.4933
2009    7       2       0.67009         134.7362
2009    7       3       0.5658669       118.8632
2009    7       4       0.3687093       86.68072
2009    7       5       0.2698371       67.91537
2009    7       6       0.2664129       66.91846
2009    7       7       0.2345358       60.13067
2009    8       0       0.2120162       54.91934
2009    8       1       0.2226732       56.92271
2009    8       2       0.3477233       81.15323
2009    8       3       0.494637        105.4862
2009    8       4       0.5078888       108.1275
2009    8       5       0.504495        107.3107
2009    8       6       0.48669         104.6786
2009    8       7       0.5339638       112.1933
2009    9       0       0.6596795       129.5329
2009    9       1       0.5936486       120.1494
2009    9       2       0.6393138       126.2232
2009    9       3       0.7310857       138.0593
2009    9       4       0.7382292       138.9973
2009    9       5       0.5962275       121.3038
2009    9       6       0.3810962       87.58138
2009    9       7       0.2891289       70.64943
2009    10      0       0.2472851       62.38859
2009    10      1       0.1802373       48.1934
2009    10      2       0.1918924       50.80574
2009    10      3       0.2260546       58.29535
2009    10      4       0.2214254       57.2641
2009    10      5       0.175908        47.4378
2009    10      6       0.1457973       40.53772
2009    10      7       0.1308646       36.99052
2009    11      0       0.1387329       38.74199
2009    11      1       0.1482268       40.82452
2009    11      2       0.2052326       53.27431
2009    11      3       0.3174349       75.60372
2009    11      4       0.4367025       96.60327
2009    11      5       0.3144453       75.35982
2009    11      6       0.2615363       64.99101
2009    11      7       0.2726427       67.12913
2009    12      0       0.3864895       88.34724
2009    12      1       0.4993901       107.2168
2009    12      2       0.5329685       111.7892
2009    12      3       0.6874895       133.0114
2009    12      4       0.8162607       149.0149
2009    12      5       0.6168494       124.2132
2009    12      6       0.483557        104.3992
2009    12      7       0.4517666       98.5106
2009    13      0       0.3761725       86.01576
2009    13      1       0.2709632       67.20188
2009    13      2       0.3485888       81.6512
2009    13      3       0.3603906       83.15231
2009    13      4       0.4099551       91.93096
2009    13      5       0.2985144       72.19437
2009    13      6       0.1490422       41.31372
2009    13      7       0.08943583      27.26161
2009    14      0       0.06925368      22.17876
2009    14      1       0.06834751      21.81986
2009    14      2       0.09075602      27.15889
2009    14      3       0.1687545       45.01279
2009    14      4       0.2489342       62.12068
2009    14      5       0.3335223       78.88488
2009    14      6       0.4317125       95.8664
2009    14      7       0.4807908       105.0043
2009    15      0       0.5430282       114.5951
2009    15      1       0.6912476       134.4905
2009    15      2       0.742857        142.0655
2009    15      3       0.4892702       106.7842
2009    15      4       0.4489262       100.0335
2009    15      5       0.3746968       86.82798
2009    15      6       0.4279092       95.64911
2009    15      7       0.4650005       102.4108
2009    16      0       0.3513793       82.44902
2009    16      1       0.3781722       86.80155
2009    16      2       0.711416        136.3901
2009    16      3       0.7466763       141.7082
2009    16      4       0.8215968       150.8514
2009    16      5       0.9483835       165.0249
2009    16      6       0.7795264       146.2452
2009    16      7       0.6717592       132.6953
2009    17      0       0.7212603       138.992
2009    17      1       0.6950753       135.2048
2009    17      2       0.7896551       146.6283
2009    17      3       0.7795116       145.0463
2009    17      4       0.7876271       145.8365
2009    17      5       0.8641904       154.3578
2009    17      6       0.7128518       137.147
2009    17      7       0.7128929       137.4944
2009    18      0       0.7008421       136.263
2009    18      1       0.7049763       136.6186
2009    18      2       0.6497117       128.2431
2009    18      3       0.7186997       135.8318
2009    18      4       0.6911728       132.3759
2009    18      5       0.6508904       126.9334
2009    18      6       0.3850121       86.94568
2009    18      7       0.5882313       118.9513
2009    19      0       0.3905402       88.2556
2009    19      1       0.3519252       81.58263
2009    19      2       0.4892134       104.748
2009    19      3       0.5016739       107.269
2009    19      4       0.5103024       108.9944
2009    19      5       0.4452806       99.22219
2009    19      6       0.3426873       81.48777
2009    19      7       0.2918577       71.70514
2009    20      0       0.2478247       62.73913
2009    20      1       0.2249874       57.81313
2009    20      2       0.2442355       61.76414
2009    20      3       0.3004637       72.87948
2009    20      4       0.4235643       95.35642
2009    20      5       0.4550011       101.0699
2009    20      6       0.3861292       89.17346
2009    20      7       0.3252216       77.70501
2009    21      0       0.3027498       73.33348
2009    21      1       0.278507        68.7394
2009    21      2       0.2886362       70.74071
2009    21      3       0.3611788       84.44502
2009    21      4       0.4889425       106.0919
2009    21      5       0.4848057       105.6053
2009    21      6       0.4259797       96.16792
2009    21      7       0.4561851       101.1963
2009    22      0       0.4474446       99.6836
2009    22      1       0.4072141       92.89716
2009    22      2       0.4524959       100.1718
2009    22      3       0.5164509       110.2388
2009    22      4       0.550294        115.2646
2009    22      5       0.5444587       114.7327
2009    22      6       0.4542592       101.0456
2009    22      7       0.4706619       103.2511
2009    23      0       0.4774415       104.5723
2009    23      1       0.4152362       94.0375
2009    23      2       0.447519        99.51406
2009    23      3       0.5526244       115.2915
2009    23      4       0.6455332       128.7058
2009    23      5       0.6862928       134.366
2009    23      6       0.7017582       136.6411
2009    23      7       0.5998867       122.9723
2009    24      0       0.2670368       67.37619
2009    24      1       0.06847878      22.06095
2009    24      2       0.1560872       43.10868
2009    24      3       0.2791456       69.64154
2009    24      4       0.4919967       107.3379
2009    24      5       0.5863954       121.489
2009    24      6       0.52175         111.9019
2009    24      7       0.4022602       92.25665
2009    25      0       0.3216275       77.67798
2009    25      1       0.2065888       54.15952
2009    25      2       0.3510317       82.84422
2009    25      3       0.6198175       126.1
2009    25      4       0.6860213       135.8233
2009    25      5       0.8399374       155.187
2009    25      6       0.7627408       146.2457
2009    25      7       0.4939434       107.6957
2009    26      0       0.3807909       88.30415
2009    26      1       0.4453553       98.81755
2009    26      2       0.5664618       117.9903
2009    26      3       0.6405599       127.0592
2009    26      4       0.6923987       133.8945
2009    26      5       0.4321845       97.08719
2009    26      6       0.3287136       78.83087
2009    26      7       0.2920895       71.76086
2009    27      0       0.2627055       65.97213
2009    27      1       0.2787584       69.01497
2009    27      2       0.3451937       81.54328
2009    27      3       0.3470732       82.03871
2009    27      4       0.3837768       88.83718
2009    27      5       0.424099        96.05106
2009    27      6       0.4026678       92.52134
2009    27      7       0.324679        78.39265
2009    28      0       0.3196931       77.28735
2009    28      1       0.350578        82.49038
2009    28      2       0.3968495       91.08514
2009    28      3       0.4956606       107.9177
2009    28      4       0.6288531       127.443
2009    28      5       0.8153061       150.887
2009    28      6       0.7824859       147.91
2009    28      7       0.8164547       152.098
2009    29      0       0.5917345       123.2499
2009    29      1       0.5176999       112.0555
2009    29      2       0.4804048       106.5113
2009    29      3       0.5079894       111.0483
2009    29      4       0.5465965       116.9
2009    29      5       0.6080411       125.9113
2009    29      6       0.5475044       117.0885
2009    29      7       0.3855579       90.3108
2009    30      0       0.2945982       72.81481
2009    30      1       0.4018061       92.05194
2009    30      2       0.4431318       99.28363
2009    30      3       0.5115001       110.5039
2009    30      4       0.5260254       113.0681
2009    30      5       0.4281726       97.85008
2009    30      6       0.3935134       91.7823
2009    30      7       0.414733        95.46331
2010    1       0       0.1852769       48.82897
2010    1       1       0.1767123       46.68228
2010    1       2       0.2720614       66.30546
2010    1       3       0.3733811       86.08266
2010    1       4       0.5019695       108.0918
2010    1       5       0.4289112       96.43162
2010    1       6       0.3920745       89.82876
2010    1       7       0.4242858       94.89613
2010    2       0       0.4356821       96.71881
2010    2       1       0.3635372       84.7326
2010    2       2       0.3645414       85.08738
2010    2       3       0.4743737       104.0158
2010    2       4       0.5333733       113.3375
2010    2       5       0.4326557       97.50068
2010    2       6       0.3572246       84.35046
2010    2       7       0.2965193       72.84111
2010    3       0       0.2814189       69.32949
2010    3       1       0.3895799       88.94114
2010    3       2       0.3797937       87.8361
2010    3       3       0.4317604       97.10491
2010    3       4       0.4426944       99.50005
2010    3       5       0.4016349       92.71388
2010    3       6       0.3507937       83.56228
2010    3       7       0.3350187       80.52732
2010    4       0       0.3344195       80.18659
2010    4       1       0.3101587       75.52068
2010    4       2       0.2687585       67.43793
2010    4       3       0.2353534       60.70848
2010    4       4       0.2357544       60.91219
2010    4       5       0.2246564       58.5798
2010    4       6       0.1906923       51.19727
2010    4       7       0.1873748       50.41938
2010    5       0       0.1870899       50.45039
2010    5       1       0.1992675       53.08181
2010    5       2       0.2037835       54.04071
2010    5       3       0.209336        55.30317
2010    5       4       0.2406936       62.12596
2010    5       5       0.2752048       69.2914
2010    5       6       0.255391        65.13705
2010    5       7       0.2381104       61.44788
2010    6       0       0.252729        64.53121
2010    6       1       0.2596628       65.9976
2010    6       2       0.2629813       66.54281
2010    6       3       0.3038322       74.68108
2010    6       4       0.3739772       88.10184
2010    6       5       0.4112784       94.74531
2010    6       6       0.3188098       77.8391
2010    6       7       0.1609373       44.51332
2010    7       0       0.173197        47.11576
2010    7       1       0.3479009       82.70578
2010    7       2       0.6802764       135.1548
2010    7       3       0.8239238       152.5604
2010    7       4       0.8511746       157.1362
2010    7       5       1.01379         174.7876
2010    7       6       1.058873        179.1518
2010    7       7       0.6305352       129.7476
2010    8       0       0.3064816       74.60392
2010    8       1       0.279487        68.72969
2010    8       2       0.2828888       69.26062
2010    8       3       0.3958486       89.94333
2010    8       4       0.3226057       77.57248
2010    8       5       0.2215035       57.49676
2010    8       6       0.1782118       48.07159
2010    8       7       0.1632078       44.637
2010    9       0       0.1828698       48.81278
2010    9       1       0.2624272       65.39876
2010    9       2       0.4334715       96.46183
2010    9       3       0.5964745       121.7769
2010    9       4       0.5176312       109.9958
2010    9       5       0.3651631       85.0766
2010    9       6       0.3694798       85.78679
2010    9       7       0.4246525       95.10668
2010    10      0       0.3151782       75.47696
2010    10      1       0.2745892       67.71285
2010    10      2       0.4909249       105.3189
2010    10      3       0.5314894       111.3602
2010    10      4       0.5390922       112.7095
2010    10      5       0.7310254       138.6095
2010    10      6       0.4118323       92.92576
2010    10      7       0.3289091       78.32931
2010    11      0       0.2638588       65.65468
2010    11      1       0.2337704       59.21054
2010    11      2       0.3057239       73.34677
2010    11      3       0.420388        94.13266
2010    11      4       0.7601069       142.8108
2010    11      5       0.670331        132.9818
2010    11      6       0.6635886       132.3967
2010    11      7       0.7061434       138.5076
2010    12      0       0.729288        141.3266
2010    12      1       0.656357        130.911
2010    12      2       0.7818421       147.1607
2010    12      3       0.8961271       160.5845
2010    12      4       0.7572019       144.611
2010    12      5       0.6968163       137.206
2010    12      6       0.7329686       141.823
2010    12      7       0.6261986       127.9328
2010    13      0       0.2822621       70.08444
2010    13      1       0.1889078       50.6156
2010    13      2       0.2926029       71.90241
2010    13      3       0.361983        84.97731
2010    13      4       0.4493409       99.80991
2010    13      5       0.3641106       85.22157
2010    13      6       0.2647389       66.39398
2010    13      7       0.1206863       34.73582
2010    14      0       0.0795234       24.6177
2010    14      1       0.07758138      24.06297
2010    14      2       0.09429809      28.19981
2010    14      3       0.1615918       44.05933
2010    14      4       0.1915903       50.82336
2010    14      5       0.1688973       45.92036
2010    14      6       0.1298505       36.94953
2010    14      7       0.09868738      29.27872
2010    15      0       0.1089821       31.36675
2010    15      1       0.1217807       34.21645
2010    15      2       0.1446245       39.77455
2010    15      3       0.2026062       52.7553
2010    15      4       0.238589        60.84948
2010    15      5       0.2597297       65.42358
2010    15      6       0.2245652       58.04587
2010    15      7       0.1908408       50.6291
2010    16      0       0.1921367       50.8203
2010    16      1       0.2117723       55.08412
2010    16      2       0.2547961       64.18351
2010    16      3       0.294906        72.45628
2010    16      4       0.330643        79.74516
2010    16      5       0.32711         79.43248
2010    16      6       0.3219742       78.31142
2010    16      7       0.2745358       68.91119
2010    17      0       0.2651373       66.9587
2010    17      1       0.2730926       68.49027
2010    17      2       0.2766721       69.09387
2010    17      3       0.356252        84.14697
2010    17      4       0.5169946       111.5823
2010    17      5       0.689118        136.6935
2010    17      6       0.7721879       146.7526
2010    17      7       0.8798201       158.4794
2010    18      0       0.8717243       157.3594
2010    18      1       0.8485377       155.0157
2010    18      2       0.8531086       155.7658
2010    18      3       1.1173          181.9404
2010    18      4       1.096766        180.083
2010    18      5       0.8021913       149.7098
2010    18      6       0.6813237       134.8966
2010    18      7       0.6025429       124.376
2010    19      0       0.5933983       123.5069
2010    19      1       0.6264524       128.309
2010    19      2       0.7194142       140.6823
2010    19      3       0.7259974       140.9683
2010    19      4       0.8604342       156.3973
2010    19      5       0.8009509       150.6935
2010    19      6       0.5244455       113.588
2010    19      7       0.4645609       103.9529
2010    20      0       0.3820298       89.60057
2010    20      1       0.3030554       74.66511
2010    20      2       0.3531042       84.06752
2010    20      3       0.4057951       93.67024
2010    20      4       0.4113761       95.13644
2010    20      5       0.4193486       96.8628
2010    20      6       0.396173        92.83834
2010    20      7       0.3925482       91.83208
2010    21      0       0.4035318       93.44942
2010    21      1       0.5792533       120.9222
2010    21      2       0.8553006       156.327
2010    21      3       0.9590127       167.3065
2010    21      4       0.8212746       154.0112
2010    21      5       0.8048185       152.5283
2010    21      6       0.7431089       145.0632
2010    21      7       0.902524        163.6366
2010    22      0       0.8945162       162.6203
2010    22      1       0.9224321       164.9687
2010    22      2       0.8343193       154.9295
2010    22      3       1.251004        193.7389
2010    22      4       1.188042        189.0145
2010    22      5       0.6623163       133.4856
2010    22      6       0.77597         146.8265
2010    22      7       0.4461048       100.9077
2010    23      0       0.5181366       110.3256
2010    23      1       0.5295017       112.3499
2010    23      2       0.8065459       149.2093
2010    23      3       0.6634005       132.208
2010    23      4       0.6525851       131.1249
2010    23      5       0.4760732       105.1662
2010    23      6       0.4034042       92.74904
2010    23      7       0.426395        96.54836
2010    24      0       0.4684522       103.2964
2010    24      1       0.4861284       105.6984
2010    24      2       0.6363527       127.8724
2010    24      3       0.6790419       133.7185
2010    24      4       0.6727126       133.3543
2010    24      5       0.587231        121.0919
2010    24      6       0.4622811       101.878
2010    24      7       0.4348108       97.05935
2010    25      0       0.4798566       104.3774
2010    25      1       0.4633931       101.9788
2010    25      2       0.474433        104.105
2010    25      3       0.5050525       109.4302
2010    25      4       0.625725        127.5324
2010    25      5       0.5412393       115.7282
2010    25      6       0.4475012       100.8053
2010    25      7       0.4040238       93.23253
2010    26      0       0.3761518       88.15015
2010    26      1       0.39395         90.85958
2010    26      2       0.4400097       98.73248
2010    26      3       0.5160512       111.2415
2010    26      4       0.5927552       122.644
2010    26      5       0.6582007       131.495
2010    26      6       0.5914738       122.2669
2010    26      7       0.5755754       119.9076
2010    27      0       0.5559786       116.6945
2010    27      1       0.5873668       120.8959
2010    27      2       0.578266        119.6534
2010    27      3       0.5399551       114.7375
2010    27      4       0.6435792       129.7274
2010    27      5       0.8202684       151.4924
2010    27      6       0.6240691       127.9006
2010    27      7       0.771289        145.8945
2010    28      0       0.6591811       132.7422
2010    28      1       0.7197281       140.6063
2010    28      2       0.6330709       128.9624
2010    28      3       0.7134651       139.8658
2010    28      4       0.8918409       160.6785
2010    28      5       0.6369731       130.061
2010    28      6       0.5934555       123.55
2010    28      7       0.6463111       130.9725
2010    29      0       0.6276974       128.8851
2010    29      1       0.5389664       115.9856
2010    29      2       0.5098892       111.1319
2010    29      3       0.5311803       114.1084
2010    29      4       0.726251        141.4734
2010    29      5       0.5810981       122.0294
2010    29      6       0.4883841       107.8441
2010    29      7       0.4838326       106.7843
2010    30      0       0.5451808       116.2383
2010    30      1       0.5374379       115.1041
2010    30      2       0.7313455       141.6269
2010    30      3       0.8999645       160.7516
2010    30      4       1.030783        174.205
2010    30      5       0.8465483       155.9786
2010    30      6       1.058149        177.6077
2010    30      7       1.053118        176.3841
2011    1       0       0.2658956       65.91448
2011    1       1       0.3002053       72.4466
2011    1       2       0.3309376       78.20033
2011    1       3       0.3613575       83.89886
2011    1       4       0.3802931       87.83886
2011    1       5       0.3823932       88.37303
2011    1       6       0.5253807       113.0531
2011    1       7       0.4957194       107.8565
2011    2       0       0.4895446       107.0458
2011    2       1       0.4407914       98.70756
2011    2       2       0.4623261       101.6507
2011    2       3       0.4563161       101.2712
2011    2       4       0.4296559       97.32634
2011    2       5       0.3943403       91.4456
2011    2       6       0.3718093       87.33335
2011    2       7       0.3420753       81.83664
2011    3       0       0.3140062       76.45715
2011    3       1       0.2533899       64.1657
2011    3       2       0.2416185       61.63772
2011    3       3       0.3929243       89.74729
2011    3       4       0.4817101       105.1463
2011    3       5       0.628077        126.8993
2011    3       6       0.6043424       123.5739
2011    3       7       0.5911842       122.1294
2011    4       0       0.6561679       131.3284
2011    4       1       0.8145547       150.9862
2011    4       2       0.6753158       134.2352
2011    4       3       0.5809656       121.4988
2011    4       4       0.7339101       142.4019
2011    4       5       0.8697684       157.6488
2011    4       6       0.750369        143.697
2011    4       7       0.7944281       148.5782
2011    5       0       0.7782083       146.0864
2011    5       1       0.6937235       133.2436
2011    5       2       0.7222013       137.872
2011    5       3       0.8402431       151.9822
2011    5       4       0.7090272       137.1949
2011    5       5       0.4608895       101.9075
2011    5       6       0.3709626       86.01966
2011    5       7       0.3899233       89.32398
2011    6       0       0.4560086       100.5627
2011    6       1       0.549076        114.508
2011    6       2       0.707479        136.5041
2011    6       3       0.7838603       145.0195
2011    6       4       0.9078602       159.4692
2011    6       5       0.8145097       150.4571
2011    6       6       0.6973253       135.7691
2011    6       7       0.6164769       124.875
2011    7       0       0.6357487       128.0005
2011    7       1       0.5484012       115.3536
2011    7       2       0.6296378       127.0982
2011    7       3       0.7611776       143.6003
2011    7       4       0.6722115       132.1081
2011    7       5       0.6445602       128.756
2011    7       6       0.5257679       111.5775
2011    7       7       0.4823474       104.647
2011    8       0       0.4834195       104.4601
2011    8       1       0.6403573       128.4167
2011    8       2       0.7044527       136.3336
2011    8       3       0.7843176       145.3445
2011    8       4       0.8896926       157.2612
2011    8       5       0.6202318       125.2462
2011    8       6       0.5461237       114.3821
2011    8       7       0.5513753       115.3472
2011    9       0       0.6203539       124.928
2011    9       1       0.6130943       124.1893
2011    9       2       0.6991377       135.7599
2011    9       3       0.7698231       144.5513
2011    9       4       0.6903622       135.0587
2011    9       5       0.5517494       115.9832
2011    9       6       0.5612515       117.6556
2011    9       7       0.7383701       142.0295
2011    10      0       0.7412767       142.2085
2011    10      1       0.6959018       136.1756
2011    10      2       0.663205        131.6902
2011    10      3       0.8156939       150.517
2011    10      4       0.8326405       152.6688
2011    10      5       0.7211366       139.8053
2011    10      6       0.8422701       154.537
2011    10      7       0.7434749       142.4818
2011    11      0       0.5438836       114.6362
2011    11      1       0.5532796       116.0797
2011    11      2       0.6688244       131.8653
2011    11      3       0.7143915       136.6777
2011    11      4       0.9578208       164.5617
2011    11      5       1.007078        170.8255
2011    11      6       0.6787277       133.3617
2011    11      7       0.7558948       143.8772
2011    12      0       0.7775783       146.6341
2011    12      1       0.5636009       117.6402
2011    12      2       0.4222148       94.49217
2011    12      3       0.4654656       101.4967
2011    12      4       0.6133115       124.3189
2011    12      5       0.6920842       135.0842
2011    12      6       0.3962048       89.86934
2011    12      7       0.2928741       70.34831
2011    13      0       0.3845947       86.23653
2011    13      1       0.3341811       78.39595
2011    13      2       0.3379395       79.2633
2011    13      3       0.3073178       73.06644
2011    13      4       0.2765069       67.2592
2011    13      5       0.2781689       67.71605
2011    13      6       0.2291359       57.94444
2011    13      7       0.1550866       42.19935
2011    14      0       0.1202941       34.30701
2011    14      1       0.1157147       33.21901
2011    14      2       0.1292478       36.44856
2011    14      3       0.1428019       39.78513
2011    14      4       0.1686086       45.80903
2011    14      5       0.1757163       47.47938
2011    14      6       0.15222         42.2264
2011    14      7       0.1117303       32.60199
2011    15      0       0.1259052       35.48128
2011    15      1       0.1655164       44.66821
2011    15      2       0.200061        52.26528
2011    15      3       0.2614148       65.02558
2011    15      4       0.3756389       86.83227
2011    15      5       0.3923623       89.93863
2011    15      6       0.3110616       75.1602
2011    15      7       0.2774941       68.71078
2011    16      0       0.2749046       68.16705
2011    16      1       0.2772576       68.473
2011    16      2       0.2660364       66.15204
2011    16      3       0.2749667       67.95998
2011    16      4       0.311453        74.97866
2011    16      5       0.2666038       66.65981
2011    16      6       0.3557038       83.23515
2011    16      7       0.4059541       92.56017
2011    17      0       0.4417609       98.59558
2011    17      1       0.4266409       96.16101
2011    17      2       0.4290385       96.51937
2011    17      3       0.5359565       113.5402
2011    17      4       0.4483078       100.1328
2011    17      5       0.4057625       93.08807
2011    17      6       0.3824633       88.99984
2011    17      7       0.369751        86.57749
2011    18      0       0.3886767       89.77719
2011    18      1       0.4035433       92.17487
2011    18      2       0.4222131       95.42516
2011    18      3       0.459554        102.0313
2011    18      4       0.4704233       104.2108
2011    18      5       0.4825848       106.3841
2011    18      6       0.4319582       97.53326
2011    18      7       0.381811        88.27866
2011    19      0       0.4186792       94.60838
2011    19      1       0.4238978       95.05614
2011    19      2       0.4266284       95.91409
2011    19      3       0.4105186       93.80468
2011    19      4       0.3734394       87.48906
2011    19      5       0.3234796       78.43764
2011    19      6       0.3079422       75.66445
2011    19      7       0.5697013       118.9628
2011    20      0       0.5793177       120.8896
2011    20      1       0.7324704       141.9623
2011    20      2       0.9222486       165.465
2011    20      3       1.127837        184.2738
2011    20      4       0.9503843       167.6852
2011    20      5       0.8354818       156.5632
2011    20      6       0.9728315       171.86
2011    20      7       1.171414        190.0518
2011    21      0       0.8258987       155.3504
2011    21      1       0.4442065       100.4655
2011    21      2       0.4032862       92.88592
2011    21      3       0.530601        113.3109
2011    21      4       0.8631342       156.6986
2011    21      5       0.6679906       134.4538
2011    21      6       0.8103817       153.3111
2011    21      7       1.148022        188.5295
2011    22      0       1.287829        199.0308
2011    22      1       1.145511        186.4333
2011    22      2       1.10918         181.2913
2011    22      3       1.052861        176.8562
2011    22      4       1.391455        205.8326
2011    22      5       1.138169        186.8176
2011    22      6       1.095609        182.7638
2011    22      7       1.035871        176.0028
2011    23      0       0.6082398       124.2214
2011    23      1       0.5213574       111.0419
2011    23      2       0.8595935       155.4882
2011    23      3       0.7283012       139.3967
2011    23      4       0.6101067       123.9297
2011    23      5       0.6666569       132.778
2011    23      6       0.4569892       101.4051
2011    23      7       0.3720387       86.75948
2011    24      0       0.3404599       80.77044
2011    24      1       0.3315874       78.97516
2011    24      2       0.3885865       89.6992
2011    24      3       0.5464517       115.6965
2011    24      4       0.4782923       105.5704
2011    24      5       0.3441533       82.58555
2011    24      6       0.2508559       63.87997
2011    24      7       0.2237964       57.68647
2011    25      0       0.2196279       56.53528
2011    25      1       0.1864003       48.71739
2011    25      2       0.2281897       57.65624
2011    25      3       0.2824521       69.52836
2011    25      4       0.3091521       75.28288
2011    25      5       0.3056232       74.60825
2011    25      6       0.2806778       69.32569
2011    25      7       0.4234974       95.26296
2011    26      0       0.4196001       94.9135
2011    26      1       0.4930504       106.942
2011    26      2       0.4778297       104.2412
2011    26      3       0.5646068       117.4518
2011    26      4       0.5848244       121.2379
2011    26      5       0.6721699       133.0115
2011    26      6       0.5445802       114.5628
2011    26      7       0.5241515       112.2816
2011    27      0       0.4075353       92.273
2011    27      1       0.2802432       68.8009
2011    27      2       0.2900142       71.22556
2011    27      3       0.3254789       78.38066
2011    27      4       0.3909171       90.93505
2011    27      5       0.4132934       94.97387
2011    27      6       0.3828664       89.5071
2011    27      7       0.3620933       85.7779
2011    28      0       0.3429118       82.03598
2011    28      1       0.3291922       79.12814
2011    28      2       0.3664508       85.80699
2011    28      3       0.454148        101.5957
2011    28      4       0.5179179       112.3705
2011    28      5       0.5935892       123.6652
2011    28      6       0.8157528       153.2633
2011    28      7       0.9976856       172.9591
2011    29      0       1.027392        175.8432
2011    29      1       0.9368361       166.31
2011    29      2       0.7247359       141.8396
2011    29      3       0.6396986       130.4286
2011    29      4       0.8264591       154.1508
2011    29      5       0.9340154       166.1969
2011    29      6       0.7651239       147.8927
2011    29      7       0.8998565       163.0263
2011    30      0       0.8350612       156.131
2011    30      1       0.9513098       168.5564
2011    30      2       1.028249        176.6246
2011    30      3       0.7907448       149.1321
2011    30      4       0.9860327       171.1623
2011    30      5       1.075004        179.9544
2011    30      6       0.7716508       149.0852
2011    30      7       0.8503382       157.9858
2012    1       0       0.2861186       69.60474
2012    1       1       0.2682214       66.0232
2012    1       2       0.2643333       65.23747
2012    1       3       0.2797912       68.3721
2012    1       4       0.2838285       69.29409
2012    1       5       0.2520919       63.0278
2012    1       6       0.2495269       62.28761
2012    1       7       0.4355054       95.81647
2012    2       0       0.5340793       111.0553
2012    2       1       0.4283301       94.93388
2012    2       2       0.5434666       112.9369
2012    2       3       0.5651802       116.1621
2012    2       4       0.6178635       124.971
2012    2       5       0.489915        106.637
2012    2       6       0.6049936       122.9132
2012    2       7       0.591434        121.3764
2012    3       0       0.557394        116.6359
2012    3       1       0.5252477       112.038
2012    3       2       0.5453209       114.9814
2012    3       3       0.5322845       113.2189
2012    3       4       0.5054469       109.0178
2012    3       5       0.3802166       88.64343
2012    3       6       0.2872872       71.25338
2012    3       7       0.2070517       54.62732
2012    4       0       0.1496372       41.76854
2012    4       1       0.1484838       41.51084
2012    4       2       0.1695367       46.36526
2012    4       3       0.2011329       53.5111
2012    4       4       0.2209037       57.93741
2012    4       5       0.2351797       60.99772
2012    4       6       0.2157825       56.81847
2012    4       7       0.2415569       62.27333
2012    5       0       0.2775618       69.51772
2012    5       1       0.2457008       62.93837
2012    5       2       0.2151311       56.40045
2012    5       3       0.2282202       59.13168
2012    5       4       0.2328735       60.28189
2012    5       5       0.236931        61.10705
2012    5       6       0.2521522       64.17267
2012    5       7       0.2797307       69.57647
2012    6       0       0.2904887       71.56374
2012    6       1       0.2723107       67.78369
2012    6       2       0.2669419       66.46126
2012    6       3       0.2819162       69.23662
2012    6       4       0.2915421       71.16782
2012    6       5       0.2863344       70.38817
2012    6       6       0.2836119       70.18353
2012    6       7       0.2736298       68.04815
2012    7       0       0.2668252       66.28444
2012    7       1       0.3658705       85.49271
2012    7       2       0.4541089       100.7504
2012    7       3       0.4850589       106.1047
2012    7       4       0.5117971       110.6752
2012    7       5       0.4974657       108.7418
2012    7       6       0.476638        105.595
2012    7       7       0.515121        111.6664
2012    8       0       0.5260112       113.3082
2012    8       1       0.7159636       139.4235
2012    8       2       0.7116085       139.3751
2012    8       3       0.617871        126.8724
2012    8       4       0.8983725       161.5866
2012    8       5       0.6542508       131.8985
2012    8       6       0.7755462       147.6186
2012    8       7       0.6760876       135.2037
2012    9       0       0.7198727       140.966
2012    9       1       0.7085289       139.2941
2012    9       2       0.7671072       146.3303
2012    9       3       0.5390747       115.4161
2012    9       4       0.5208478       113.1772
2012    9       5       0.5618142       119.8153
2012    9       6       0.566548        120.2134
2012    9       7       0.5283212       114.1364
2012    10      0       0.5590797       118.3817
2012    10      1       0.6096522       124.3858
2012    10      2       0.5420279       114.6992
2012    10      3       0.4432084       99.6706
2012    10      4       0.5526438       117.0922
2012    10      5       0.8074478       150.6685
2012    10      6       0.6386957       130.2312
2012    10      7       0.7897208       148.6365
2012    11      0       0.6656941       134.1443
2012    11      1       0.9535125       167.3996
2012    11      2       0.9354303       166.2294
2012    11      3       0.9974148       171.0534
2012    11      4       1.089453        180.7403
2012    11      5       0.8587864       158.5327
2012    11      6       0.3664152       86.83381
2012    11      7       0.4913865       108.8513
2012    12      0       0.7375108       143.0218
2012    12      1       0.7532982       144.6984
2012    12      2       0.6132538       126.6544
2012    12      3       0.5488635       116.6092
2012    12      4       0.3272629       78.25714
2012    12      5       0.1662318       45.34862
2012    12      6       0.306033        74.78207
2012    12      7       0.2981187       73.40158
2012    13      0       0.3006443       73.41656
2012    13      1       0.3144637       75.84999
2012    13      2       0.3493135       82.53999
2012    13      3       0.386019        89.23792
2012    13      4       0.4266895       96.24171
2012    13      5       0.4033207       92.18575
2012    13      6       0.4197541       95.19241
2012    13      7       0.4194336       95.39347
2012    14      0       0.4520821       100.942
2012    14      1       0.4463162       100.0412
2012    14      2       0.432002        97.7009
2012    14      3       0.4840922       106.5122
2012    14      4       0.623481        127.8549
2012    14      5       0.6648305       134.0591
2012    14      6       0.5975231       124.8781
2012    14      7       0.5434028       117.0385
2012    15      0       0.5335218       115.4007
2012    15      1       0.5350524       115.4857
2012    15      2       0.6393102       130.9479
2012    15      3       0.8189341       154.0158
2012    15      4       0.9511966       168.406
2012    15      5       0.8291551       154.8523
2012    15      6       0.6403681       130.084
2012    15      7       0.5728916       119.2485
2012    16      0       0.6458559       129.661
2012    16      1       0.6562429       132.1843
2012    16      2       0.8424862       155.8756
2012    16      3       1.019755        173.9109
2012    16      4       0.9182058       163.9339
2012    16      5       0.572099        120.3328
2012    16      6       0.5289253       113.5325
2012    16      7       0.4320027       97.16066
2012    17      0       0.4207811       95.27741
2012    17      1       0.5313321       113.8268
2012    17      2       0.5200064       112.1107
2012    17      3       0.4947879       108.0152
2012    17      4       0.504338        108.9415
2012    17      5       0.5330579       112.5831
2012    17      6       0.5377076       113.3617
2012    17      7       0.5496719       114.949
2012    18      0       0.4693128       102.8328
2012    18      1       0.3958994       90.89003
2012    18      2       0.3694085       86.7103
2012    18      3       0.4122292       94.69608
2012    18      4       0.3795989       89.57022
2012    18      5       0.382429        90.13056
2012    18      6       0.3175216       78.07743
2012    18      7       0.2544625       65.25845
2012    19      0       0.3309144       79.67209
2012    19      1       0.6738186       132.9185
2012    19      2       0.4431664       99.77431
2012    19      3       0.4075903       93.60091
2012    19      4       0.381229        88.84955
2012    19      5       0.3489251       83.06612
2012    19      6       0.3216646       77.83279
2012    19      7       0.2884296       71.27722
2012    20      0       0.2913382       71.52508
2012    20      1       0.3149559       75.87227
2012    20      2       0.4518512       100.1699
2012    20      3       0.6406385       128.1687
2012    20      4       0.7381202       140.4207
2012    20      5       0.5965782       122.3233
2012    20      6       0.4502359       100.4567
2012    20      7       0.3830302       89.03066
2012    21      0       0.3533196       83.51125
2012    21      1       0.3556425       83.80062
2012    21      2       0.348263        82.59115
2012    21      3       0.3796857       88.43319
2012    21      4       0.4007182       92.54962
2012    21      5       0.3935208       91.5424
2012    21      6       0.3722464       87.75646
2012    21      7       0.3471513       83.07894
2012    22      0       0.3396442       81.57883
2012    22      1       0.3131108       76.49864
2012    22      2       0.2925841       72.57733
2012    22      3       0.3002133       74.24987
2012    22      4       0.3058902       75.4781
2012    22      5       0.2919662       72.74144
2012    22      6       0.2733993       68.96111
2012    22      7       0.2593416       66.03053
2012    23      0       0.2334592       60.58521
2012    23      1       0.1889115       50.89523
2012    23      2       0.2035481       54.21422
2012    23      3       0.2055725       54.68359
2012    23      4       0.219424        57.75661
2012    23      5       0.2089074       55.54895
2012    23      6       0.1904871       51.45977
2012    23      7       0.1726396       47.42254
2012    24      0       0.1558683       43.4817
2012    24      1       0.159834        44.36405
2012    24      2       0.1785048       48.61349
2012    24      3       0.2129514       56.1546
2012    24      4       0.2438107       62.64114
2012    24      5       0.2547725       64.81768
2012    24      6       0.2593053       65.68459
2012    24      7       0.2591725       65.61831
2012    25      0       0.2566892       65.09224
2012    25      1       0.2524268       64.19037
2012    25      2       0.2896345       71.84089
2012    25      3       0.3722129       87.42064
2012    25      4       0.4344828       98.44023
2012    25      5       0.5070424       110.2215
2012    25      6       0.5301112       113.6315
2012    25      7       0.4761548       105.2966
2012    26      0       0.4309265       97.92123
2012    26      1       0.3981596       92.08427
2012    26      2       0.4184136       95.60638
2012    26      3       0.5148877       111.2586
2012    26      4       0.6476836       130.5373
2012    26      5       0.7584297       145.0301
2012    26      6       0.5580325       117.9689
2012    26      7       0.4605082       102.6438
2012    27      0       0.4501139       100.9509
2012    27      1       0.4566645       102.0748
2012    27      2       0.5285055       113.2025
2012    27      3       0.5967233       123.338
2012    27      4       0.5705279       119.8709
2012    27      5       0.5862404       122.1856
2012    27      6       0.4660367       103.744
2012    27      7       0.3993158       92.10439
2012    28      0       0.3985502       91.82868
2012    28      1       0.3994523       91.75766
2012    28      2       0.4907562       106.9915
2012    28      3       0.5204432       112.0121
2012    28      4       0.506076        110.1994
2012    28      5       0.5031812       110.0239
2012    28      6       0.4456361       100.7374
2012    28      7       0.3890573       90.93881
2012    29      0       0.3926997       91.28495
2012    29      1       0.4203002       95.94649
2012    29      2       0.4399444       99.2623
2012    29      3       0.4484564       100.7396
2012    29      4       0.4037673       93.52763
2012    29      5       0.3113054       76.76771
2012    29      6       0.2614421       66.59798
2012    29      7       0.308443        75.75054
2012    30      0       0.3596067       85.44636
2012    30      1       0.5081725       109.7276
2012    30      2       0.5503365       116.7119
2012    30      3       0.5086706       110.893
2012    30      4       0.5130914       111.7345
2012    30      5       0.488808        107.6569
2012    30      6       0.5302688       113.353
2012    30      7       0.6987698       136.9863
2013    1       0       0.1971526       52.55285
2013    1       1       0.1904291       50.96081
2013    1       2       0.1714651       46.75657
2013    1       3       0.1825799       49.25419
2013    1       4       0.2266878       58.80011
2013    1       5       0.2222328       57.73622
2013    1       6       0.3140776       75.61195
2013    1       7       0.4951821       106.723
2013    2       0       0.4435965       98.34991
2013    2       1       0.3928044       90.10684
2013    2       2       0.353491        83.1733
2013    2       3       0.3889055       89.81447
2013    2       4       0.4508349       100.9883
2013    2       5       0.420618        95.79403
2013    2       6       0.4031762       92.6527
2013    2       7       0.4652776       103.3209
2013    3       0       0.4785596       105.6817
2013    3       1       0.4119757       94.40644
2013    3       2       0.3580193       84.30577
2013    3       3       0.3346491       79.90473
2013    3       4       0.3550549       84.04122
2013    3       5       0.3484514       83.13951
2013    3       6       0.34464         82.48802
2013    3       7       0.3213099       78.06299
2013    4       0       0.3128714       76.33816
2013    4       1       0.3576131       84.81233
2013    4       2       0.3938856       91.51674
2013    4       3       0.4499159       100.9434
2013    4       4       0.4774666       105.368
2013    4       5       0.4516001       100.7383
2013    4       6       0.7800344       147.3575
2013    4       7       0.6580769       132.8731
2013    5       0       0.5368817       114.9858
2013    5       1       0.4355008       98.06943
2013    5       2       0.3801597       88.33693
2013    5       3       0.5882996       121.0931
2013    5       4       0.6203166       126.0288
2013    5       5       0.5618622       117.8253
2013    5       6       0.5450499       115.5763
2013    5       7       0.421681        95.80659
2013    6       0       0.4078236       93.49859
2013    6       1       0.4333483       98.04589
2013    6       2       0.4770647       105.662
2013    6       3       0.5806673       122.0947
2013    6       4       0.7110542       140.368
2013    6       5       0.6156913       127.7839
2013    6       6       0.4986389       110.2672
2013    6       7       0.399508        93.62482
2013    7       0       0.3117569       77.16931
2013    7       1       0.2195488       58.26922
2013    7       2       0.1604512       45.03588
2013    7       3       0.2171073       57.79487
2013    7       4       0.2637829       67.55484
2013    7       5       0.284569        71.85106
2013    7       6       0.2707565       68.9011
2013    7       7       0.2430685       62.88663
2013    8       0       0.2487241       64.07537
2013    8       1       0.2310127       60.73422
2013    8       2       0.2166203       57.7195
2013    8       3       0.2542862       65.78883
2013    8       4       0.3114478       77.52273
2013    8       5       0.3368119       82.69125
2013    8       6       0.3823765       90.68904
2013    8       7       0.3602424       86.17685
2013    9       0       0.3924019       91.12479
2013    9       1       0.4619252       101.9849
2013    9       2       0.3867301       89.34007
2013    9       3       0.2885227       71.11165
2013    9       4       0.2033195       53.95147
2013    9       5       0.2779833       69.14419
2013    9       6       0.4551607       101.2126
2013    9       7       0.5201023       111.413
2013    10      0       0.5848317       121.4597
2013    10      1       0.7122106       139.4374
2013    10      2       0.7314325       141.3431
2013    10      3       0.8852226       158.6129
2013    10      4       0.9759801       167.3981
2013    10      5       0.9107732       161.2633
2013    10      6       0.8120367       151.1518
2013    10      7       0.5865547       121.4265
2013    11      0       0.4946073       106.9034
2013    11      1       0.4673965       102.4208
2013    11      2       0.6922574       136.029
2013    11      3       0.6503976       130.6284
2013    11      4       0.6865981       135.34
2013    11      5       0.7022703       137.4368
2013    11      6       0.5276441       112.2034
2013    11      7       0.4968673       106.9547
2013    12      0       0.4107039       92.12998
2013    12      1       0.4290394       95.17333
2013    12      2       0.3899131       88.93035
2013    12      3       0.3676563       85.47009
2013    12      4       0.3220038       77.63845
2013    12      5       0.3173059       77.05107
2013    12      6       0.296671        73.03056
2013    12      7       0.2874827       71.0561
2013    13      0       0.2914414       71.68201
2013    13      1       0.3152044       76.05844
2013    13      2       0.5386793       113.557
2013    13      3       0.6609096       130.2249
2013    13      4       0.4523969       100.5268
2013    13      5       0.2954632       72.87036
2013    13      6       0.2530768       64.13559
2013    13      7       0.2237672       57.80663
2013    14      0       0.2138491       55.73166
2013    14      1       0.1970422       52.22277
2013    14      2       0.1776609       47.95786
2013    14      3       0.1986222       52.67687
2013    14      4       0.2343507       60.20736
2013    14      5       0.2356495       60.59837
2013    14      6       0.2308042       59.52283
2013    14      7       0.2407578       61.43302
2013    15      0       0.2528102       63.66442
2013    15      1       0.2379783       60.65467
2013    15      2       0.2408432       61.07909
2013    15      3       0.2664441       66.5287
2013    15      4       0.3060442       74.69664
2013    15      5       0.3752305       87.59399
2013    15      6       0.4593478       102.2641
2013    15      7       0.5369829       114.1794
2013    16      0       0.5956609       122.9583
2013    16      1       0.5781152       120.3736
2013    16      2       0.7143653       138.4171
2013    16      3       0.8555497       155.5745
2013    16      4       0.7572721       145.6247
2013    16      5       0.8583697       156.9529
2013    16      6       0.8349875       154.4613
2013    16      7       0.4985149       108.3193
2013    17      0       0.3424938       81.22261
2013    17      1       0.2675619       66.66286
2013    17      2       0.2982826       72.63965
2013    17      3       0.3790128       87.64674
2013    17      4       0.5341656       113.1149
2013    17      5       0.7519928       143.6334
2013    17      6       0.6265397       127.3008
2013    17      7       0.621993        126.5422
2013    18      0       0.5375037       114.019
2013    18      1       0.5268353       112.3334
2013    18      2       0.6830776       133.8776
2013    18      3       0.7734222       144.5208
2013    18      4       0.8486282       153.3153
2013    18      5       0.6912946       135.3782
2013    18      6       0.4792454       104.5608
2013    18      7       0.4441452       98.69017
2013    19      0       0.4493708       99.58713
2013    19      1       0.4899562       106.4156
2013    19      2       0.6417984       128.872
2013    19      3       0.6061552       123.7309
2013    19      4       0.6282756       126.5606
2013    19      5       0.6505071       129.5245
2013    19      6       0.4558402       100.8544
2013    19      7       0.6356498       128.3417
2013    20      0       0.5447624       114.4429
2013    20      1       0.3719349       85.95484
2013    20      2       0.3977745       90.01431
2013    20      3       0.3853555       88.08999
2013    20      4       0.4279251       95.09314
2013    20      5       0.4517974       99.68706
2013    20      6       0.3993499       90.56772
2013    20      7       0.4127091       92.33343
2013    21      0       0.3493712       81.26771
2013    21      1       0.3408488       79.61915
2013    21      2       0.6167831       123.2348
2013    21      3       0.6582916       128.6546
2013    21      4       0.6764453       131.5035
2013    21      5       0.5447955       113.5721
2013    21      6       0.5124383       109.4287
2013    21      7       0.4840361       104.9697
2013    22      0       0.4349611       96.89645
2013    22      1       0.445201        98.37516
2013    22      2       0.6786531       132.4386
2013    22      3       0.772384        144.0552
2013    22      4       0.8137265       148.8341
2013    22      5       0.8108225       149.3589
2013    22      6       0.7164228       138.4392
2013    22      7       0.5723289       118.5647
2013    23      0       0.6203014       125.582
2013    23      1       0.5164508       110.0666
2013    23      2       0.6620973       131.0476
2013    23      3       0.7170415       136.1908
2013    23      4       0.6933885       134.062
2013    23      5       0.4747192       103.4699
2013    23      6       0.3238669       77.3446
2013    23      7       0.2772386       68.24822
2013    24      0       0.253068        63.40697
2013    24      1       0.2133961       55.14896
2013    24      2       0.1916647       50.31896
2013    24      3       0.1734339       46.31169
2013    24      4       0.1654656       44.55249
2013    24      5       0.1986148       51.67273
2013    24      6       0.1886153       49.56809
2013    24      7       0.1790076       47.52673
2013    25      0       0.1693301       45.44138
2013    25      1       0.1531628       41.92265
2013    25      2       0.1599492       43.33411
2013    25      3       0.1831508       48.54455
2013    25      4       0.2357043       59.66492
2013    25      5       0.2919337       71.05873
2013    25      6       0.2999569       72.76139
2013    25      7       0.2893109       70.73377
2013    26      0       0.2744463       67.79835
2013    26      1       0.2494036       62.8553
2013    26      2       0.2464602       62.31575
2013    26      3       0.2765169       68.53845
2013    26      4       0.313642        75.91804
2013    26      5       0.3447903       81.84735
2013    26      6       0.3503047       83.00139
2013    26      7       0.3458872       82.13927
2013    27      0       0.3353436       80.17432
2013    27      1       0.3228195       77.81237
2013    27      2       0.3613293       84.67324
2013    27      3       0.4496202       99.75618
2013    27      4       0.5227665       111.4984
2013    27      5       0.485562        106.1325
2013    27      6       0.3726726       87.59828
2013    27      7       0.2985692       73.61334
2013    28      0       0.2592375       65.51582
2013    28      1       0.228012        59.08907
2013    28      2       0.2257977       58.84349
2013    28      3       0.2896064       72.23489
2013    28      4       0.3339717       81.05286
2013    28      5       0.3150816       77.47286
2013    28      6       0.3096253       76.12957
2013    28      7       0.5331489       116.2902
2013    29      0       0.3236301       79.01232
2013    29      1       0.2882387       71.95501
2013    29      2       0.2865202       71.59873
2013    29      3       0.3141214       77.18653
2013    29      4       0.3385748       81.99432
2013    29      5       0.3270695       79.93558
2013    29      6       0.2621717       67.08903
2013    29      7       0.2237511       58.79695
2013    30      0       0.2744797       69.27698
2013    30      1       0.2999125       74.38984
2013    30      2       0.3137299       77.02915
2013    30      3       0.3695276       87.69184
2013    30      4       0.4051705       94.41248
2013    30      5       0.3716546       88.50941
2013    30      6       0.3423815       82.68406
2013    30      7       0.354729        84.75006
2014    1       0       0.1092146       31.66042
2014    1       1       0.1059413       30.91858
2014    1       2       0.1087609       31.55648
2014    1       3       0.1317613       36.71088
2014    1       4       0.1641659       44.01832
2014    1       5       0.1658895       44.49871
2014    1       6       0.149833        40.95342
2014    1       7       0.1262415       35.52149
2014    2       0       0.1148011       32.66634
2014    2       1       0.134324        36.88889
2014    2       2       0.1330218       36.59243
2014    2       3       0.1569972       42.16122
2014    2       4       0.1690207       45.07262
2014    2       5       0.2048293       52.77693
2014    2       6       0.2180802       55.54273
2014    2       7       0.2178264       55.52512
2014    3       0       0.223007        56.55103
2014    3       1       0.2197046       55.92279
2014    3       2       0.2179824       55.58268
2014    3       3       0.2606812       64.2383
2014    3       4       0.3468601       80.49866
2014    3       5       0.3439431       80.26258
2014    3       6       0.32761         77.22247
2014    3       7       0.3643029       83.80365
2014    4       0       0.3636896       83.61397
2014    4       1       0.3992104       89.92279
2014    4       2       0.4711898       101.6676
2014    4       3       0.5577767       115.0213
2014    4       4       0.4833473       104.0874
2014    4       5       0.3353005       79.07519
2014    4       6       0.2143787       55.37677
2014    4       7       0.171252        45.92831
2014    5       0       0.1376688       38.17534
2014    5       1       0.1434704       39.31521
2014    5       2       0.2069836       53.18268
2014    5       3       0.28414         69.1487
2014    5       4       0.3709522       85.92151
2014    5       5       0.3740135       86.80492
2014    5       6       0.3296528       78.79424
2014    5       7       0.3053446       74.05667
2014    6       0       0.3300389       78.33685
2014    6       1       0.2581382       64.63693
2014    6       2       0.2646491       66.31655
2014    6       3       0.2878703       71.15619
2014    6       4       0.3421457       81.78585
2014    6       5       0.363152        85.72594
2014    6       6       0.347673        82.60818
2014    6       7       0.3098709       75.13134
2014    7       0       0.2437938       61.40867
2014    7       1       0.1920779       49.97928
2014    7       2       0.2021159       52.51702
2014    7       3       0.2739416       67.67697
2014    7       4       0.3086406       74.73686
2014    7       5       0.6156796       125.2186
2014    7       6       0.5696005       119.6628
2014    7       7       0.4511058       101.0068
2014    8       0       0.5734568       120.2307
2014    8       1       0.5307131       112.6152
2014    8       2       0.6091018       125.3491
2014    8       3       0.8277148       155.1566
2014    8       4       0.8822786       161.3544
2014    8       5       0.9516804       168.5831
2014    8       6       0.5338609       113.7595
2014    8       7       0.3446272       81.54703
2014    9       0       0.3422224       80.80536
2014    9       1       0.3419618       80.81071
2014    9       2       0.3850023       88.34923
2014    9       3       0.3869494       89.0129
2014    9       4       0.4242106       95.31446
2014    9       5       0.4196637       94.7205
2014    9       6       0.3647008       85.12522
2014    9       7       0.2795436       69.0207
2014    10      0       0.377449        86.83204
2014    10      1       0.4313076       96.30905
2014    10      2       0.7381516       141.5903
2014    10      3       0.699419        136.3748
2014    10      4       0.720917        138.8835
2014    10      5       0.7660641       144.1888
2014    10      6       0.7863636       146.2828
2014    10      7       0.3576396       84.03195
2014    11      0       0.2558852       64.50146
2014    11      1       0.2407444       61.33665
2014    11      2       0.2944517       72.28986
2014    11      3       0.279956        69.66117
2014    11      4       0.2368926       61.08722
2014    11      5       0.2248774       58.63063
2014    11      6       0.207726        54.9381
2014    11      7       0.1609608       44.37398
2014    12      0       0.09928054      29.68967
2014    12      1       0.08747425      26.60253
2014    12      2       0.1101431       32.16735
2014    12      3       0.1645356       44.95803
2014    12      4       0.2009564       53.00324
2014    12      5       0.1815241       48.47772
2014    12      6       0.2070732       53.01076
2014    12      7       0.2934894       69.98204
2014    13      0       0.3422458       79.02093
2014    13      1       0.4567263       98.72769
2014    13      2       0.6304291       125.5367
2014    13      3       0.8107629       150.6521
2014    13      4       1.034609        174.2102
2014    13      5       0.8705802       158.519
2014    13      6       0.7262118       141.6072
2014    13      7       0.4318378       97.81187
2014    14      0       0.2263208       58.3994
2014    14      1       0.3206652       77.30163
2014    14      2       0.5708364       118.7818
2014    14      3       0.6824564       133.7247
2014    14      4       0.6900103       134.3697
2014    14      5       0.4135735       93.71984
2014    14      6       0.3243404       77.64497
2014    14      7       0.291669        71.19922
2014    15      0       0.2998348       72.79186
2014    15      1       0.3073905       74.77087
2014    15      2       0.4430243       99.07019
2014    15      3       0.5753634       119.4468
2014    15      4       0.6784006       133.5666
2014    15      5       0.6021971       123.7984
2014    15      6       0.5471227       116.0696
2014    15      7       0.6557398       131.8224
2014    16      0       0.6199303       126.7209
2014    16      1       0.6157515       125.183
2014    16      2       0.6018046       123.3727
2014    16      3       0.6230059       126.549
2014    16      4       0.6176941       126.2307
2014    16      5       0.5964288       123.5974
2014    16      6       0.5968915       123.9266
2014    16      7       0.5561167       118.132
2014    17      0       0.4499181       101.5858
2014    17      1       0.3880681       91.08645
2014    17      2       0.4252705       97.40593
2014    17      3       0.4927384       108.481
2014    17      4       0.7056772       139.0915
2014    17      5       0.9869169       171.4939
2014    17      6       1.015797        175.9309
2014    17      7       0.788011        151.343
2014    18      0       0.7461989       145.4683
2014    18      1       0.6457823       131.9008
2014    18      2       0.5643593       120.0569
2014    18      3       0.4872636       108.5275
2014    18      4       0.4556891       103.6769
2014    18      5       0.4659246       105.4643
2014    18      6       0.4219578       97.71568
2014    18      7       0.3558855       85.73707
2014    19      0       0.3230693       79.27939
2014    19      1       0.2965713       74.02368
2014    19      2       0.2792362       70.60721
2014    19      3       0.3471728       83.97055
2014    19      4       0.4385702       100.5139
2014    19      5       0.4471186       102.2917
2014    19      6       0.4029492       94.05749
2014    19      7       0.4743807       105.3734
2014    20      0       0.5094257       110.9045
2014    20      1       0.7120732       139.3579
2014    20      2       0.8838129       159.4448
2014    20      3       0.8907378       161.4741
2014    20      4       0.9392321       167.3209
2014    20      5       0.7602622       146.7864
2014    20      6       0.7350883       143.054
2014    20      7       0.43404         99.56464
2014    21      0       0.4934879       108.9169
2014    21      1       0.6079527       126.3294
2014    21      2       0.5586347       118.9511
2014    21      3       0.6596058       132.9189
2014    21      4       0.722435        140.9166
2014    21      5       0.9235117       164.166
2014    21      6       0.9304154       166.6428
2014    21      7       0.8317691       156.1126
2014    22      0       0.9565817       169.8983
2014    22      1       1.108157        184.1798
2014    22      2       0.7077499       139.0242
2014    22      3       0.5237035       113.1083
2014    22      4       0.3777625       89.17132
2014    22      5       0.3163931       77.58625
2014    22      6       0.3068889       75.39846
2014    22      7       0.3302558       79.49542
2014    23      0       0.2858169       71.14296
2014    23      1       0.2661084       67.22579
2014    23      2       0.245946        63.11369
2014    23      3       0.2543305       64.7416
2014    23      4       0.2348019       60.81015
2014    23      5       0.2495724       63.71351
2014    23      6       0.3364715       80.61147
2014    23      7       0.4014313       92.80672
2014    24      0       0.3409007       82.10832
2014    24      1       0.2467017       63.30182
2014    24      2       0.2048371       54.36088
2014    24      3       0.2461455       63.0467
2014    24      4       0.2971264       73.48057
2014    24      5       0.3232138       78.48739
2014    24      6       0.3541054       84.15838
2014    24      7       0.3713551       87.14416
2014    25      0       0.3386692       81.45539
2014    25      1       0.3823309       89.69011
2014    25      2       0.4674356       104.1939
2014    25      3       0.636517        129.6716
2014    25      4       0.6180063       128.358
2014    25      5       0.8348299       155.6069
2014    25      6       0.8844213       160.4923
2014    25      7       0.8806259       160.7032
2014    26      0       0.64152         131.7703
2014    26      1       0.6008433       126.3249
2014    26      2       0.5517464       118.2961
2014    26      3       0.5098596       112.0216
2014    26      4       0.4256131       98.37459
2014    26      5       0.3600433       86.82119
2014    26      6       0.3000792       75.12096
2014    26      7       0.2332022       61.22349
2014    27      0       0.2846312       71.52134
2014    27      1       0.4597918       103.352
2014    27      2       0.7460328       144.7089
2014    27      3       0.6325505       130.2471
2014    27      4       0.4746434       106.5947
2014    27      5       0.4386929       100.6217
2014    27      6       0.4279904       98.68578
2014    27      7       0.3138573       77.74773
2014    28      0       0.3207684       78.97195
2014    28      1       0.2828848       71.23732
2014    28      2       0.2579643       66.01825
2014    28      3       0.3777552       89.2265
2014    28      4       0.5442474       116.92
2014    28      5       0.8507464       158.4073
2014    28      6       0.6289142       130.1222
2014    28      7       0.463598        104.2299
2014    29      0       0.4022201       93.88526
2014    29      1       0.3793125       89.79105
2014    29      2       0.4242437       97.31304
2014    29      3       0.4920598       108.6937
2014    29      4       0.4124397       95.7339
2014    29      5       0.3595609       86.33421
2014    29      6       0.3075462       76.16614
2014    29      7       0.2550459       65.34562
2014    30      0       0.2406633       62.16346
2014    30      1       0.2635949       66.84011
2014    30      2       0.2988846       73.82236
2014    30      3       0.3070561       75.58743
2014    30      4       0.272844        69.10846
2014    30      5       0.2571552       66.15875
2014    30      6       0.2535804       65.28177
2014    30      7       0.2559117       65.47663
2015    1       0       0.3352366       79.31715
2015    1       1       0.3273957       77.62226
2015    1       2       0.3921386       89.1405
2015    1       3       0.4194714       94.07376
2015    1       4       0.5875611       120.9608
2015    1       5       0.5210366       111.022
2015    1       6       0.3868222       89.02486
2015    1       7       0.3172384       76.21764
2015    2       0       0.3040232       73.75441
2015    2       1       0.2886837       70.77508
2015    2       2       0.3098246       74.87587
2015    2       3       0.5427126       115.2773
2015    2       4       0.5603251       118.68
2015    2       5       0.5043918       110.214
2015    2       6       0.3651753       86.14268
2015    2       7       0.2717782       68.3278
2015    3       0       0.2532901       64.73868
2015    3       1       0.2597252       65.87218
2015    3       2       0.4366235       98.71813
2015    3       3       0.4371646       98.64296
2015    3       4       0.4539444       101.6061
2015    3       5       0.4904352       107.5684
2015    3       6       0.6621542       133.0651
2015    3       7       0.6153559       126.3083
2015    4       0       0.5319225       113.3456
2015    4       1       0.4456459       99.45924
2015    4       2       0.5079158       109.4626
2015    4       3       0.8463287       154.1616
2015    4       4       0.8042077       149.729
2015    4       5       0.7423765       143.0413
2015    4       6       0.5021914       108.9774
2015    4       7       0.2503778       63.61407
2015    5       0       0.1545153       42.68509
2015    5       1       0.1146706       33.23197
2015    5       2       0.1283159       36.13522
2015    5       3       0.1783188       47.63596
2015    5       4       0.2018117       52.86226
2015    5       5       0.210816        54.412
2015    5       6       0.1955646       50.93004
2015    5       7       0.1626196       43.82231
2015    6       0       0.1468126       40.3752
2015    6       1       0.101988        30.0573
2015    6       2       0.1232694       35.3586
2015    6       3       0.1600021       43.93261
2015    6       4       0.2115054       55.38906
2015    6       5       0.2283747       58.9989
2015    6       6       0.2636559       66.53955
2015    6       7       0.2395692       61.29931
2015    7       0       0.2488359       63.21499
2015    7       1       0.2379283       60.95644
2015    7       2       0.2517794       63.83458
2015    7       3       0.2636292       66.30302
2015    7       4       0.2801469       69.83828
2015    7       5       0.3617069       85.35833
2015    7       6       0.3723026       87.24882
2015    7       7       0.4120723       94.55021
2015    8       0       0.4781985       105.4515
2015    8       1       0.442615        99.62089
2015    8       2       0.4610565       102.3312
2015    8       3       0.5894847       122.0799
2015    8       4       0.5798218       121.1533
2015    8       5       0.5006002       108.9416
2015    8       6       0.4672211       103.1113
2015    8       7       0.4107611       93.76245
2015    9       0       0.4247267       96.5264
2015    9       1       0.4590803       102.6198
2015    9       2       0.4401308       99.63008
2015    9       3       0.4005748       92.72431
2015    9       4       0.3984273       92.68312
2015    9       5       0.3587493       85.41147
2015    9       6       0.3374872       81.54655
2015    9       7       0.6909573       135.9014
2015    10      0       0.8585926       156.5087
2015    10      1       0.6930168       136.7804
2015    10      2       0.4455786       100.0379
2015    10      3       0.6115797       124.959
2015    10      4       0.8097795       151.0616
2015    10      5       0.7919464       149.2552
2015    10      6       0.7375853       142.6027
2015    10      7       0.630446        127.3786
2015    11      0       0.6833432       134.3136
2015    11      1       0.6957134       135.7927
2015    11      2       0.8430284       154.3893
2015    11      3       0.9400464       166.1711
2015    11      4       0.6049393       125.1619
2015    11      5       0.3616409       85.58194
2015    11      6       0.3624443       85.406
2015    11      7       0.3113731       75.44252
2015    12      0       0.2627761       65.43112
2015    12      1       0.2076876       53.80392
2015    12      2       0.2512263       62.66734
2015    12      3       0.3152156       75.21829
2015    12      4       0.4199362       94.02616
2015    12      5       0.4969674       106.7676
2015    12      6       0.6059303       122.6818
2015    12      7       0.6162885       123.7546
2015    13      0       0.7139441       134.9437
2015    13      1       0.6405945       125.8863
2015    13      2       0.6244891       123.4044
2015    13      3       0.6754312       130.0448
2015    13      4       0.7625829       141.4619
2015    13      5       0.7457881       139.7454
2015    13      6       0.6993417       133.8408
2015    13      7       0.5661493       116.0309
2015    14      0       0.392316        88.36865
2015    14      1       0.3398164       79.01738
2015    14      2       0.5096008       107.1692
2015    14      3       0.5934717       119.0551
2015    14      4       0.5981057       119.6086
2015    14      5       0.4010085       89.86342
2015    14      6       0.3082444       73.4743
2015    14      7       0.273984        66.99704
2015    15      0       0.2325338       58.90787
2015    15      1       0.1883922       49.72873
2015    15      2       0.179982        47.96435
2015    15      3       0.2058191       53.55212
2015    15      4       0.2279171       58.27056
2015    15      5       0.2131285       55.19843
2015    15      6       0.1757265       46.84353
2015    15      7       0.2051052       52.75031
2015    16      0       0.2213724       55.87423
2015    16      1       0.209629        53.84639
2015    16      2       0.2261306       57.73922
2015    16      3       0.269487        66.67567
2015    16      4       0.383034        87.68305
2015    16      5       0.568619        117.2807
2015    16      6       0.4759862       103.793
2015    16      7       0.49803         107.0374
2015    17      0       0.3914843       89.19289
2015    17      1       0.3078198       74.00569
2015    17      2       0.3478427       81.58188
2015    17      3       0.4735742       103.0242
2015    17      4       0.5108961       108.8805
2015    17      5       0.4298878       96.19944
2015    17      6       0.4042429       91.90779
2015    17      7       0.3965396       90.68698
2015    18      0       0.3399768       80.72114
2015    18      1       0.275124        68.34198
2015    18      2       0.2583363       64.88466
2015    18      3       0.2887644       71.01414
2015    18      4       0.3148998       76.45625
2015    18      5       0.2919457       72.25716
2015    18      6       0.2477007       63.39744
2015    18      7       0.2213304       57.60008
2015    19      0       0.2686001       67.0528
2015    19      1       0.3010028       73.34151
2015    19      2       0.3054658       74.42486
2015    19      3       0.3440855       82.01886
2015    19      4       0.3996436       92.16657
2015    19      5       0.354567        84.25059
2015    19      6       0.2942988       72.74544
2015    19      7       0.2672348       67.34388
2015    20      0       0.2631909       66.45621
2015    20      1       0.2954017       72.61232
2015    20      2       0.3941544       90.73882
2015    20      3       0.7227305       140.3035
2015    20      4       0.7179112       139.7822
2015    20      5       0.5880783       122.2765
2015    20      6       0.5425086       115.0836
2015    20      7       0.58254         120.4233
2015    21      0       0.7064426       137.5399
2015    21      1       0.515193        110.3179
2015    21      2       0.3792833       87.715
2015    21      3       0.3426409       81.15278
2015    21      4       0.495029        107.1555
2015    21      5       0.7191755       138.8895
2015    21      6       0.6875677       135.1824
2015    21      7       0.4507411       100.65
2015    22      0       0.4165268       95.07895
2015    22      1       0.3821414       88.87802
2015    22      2       0.3130655       75.98805
2015    22      3       0.3448877       81.97255
2015    22      4       0.5935459       122.5569
2015    22      5       0.7018826       137.4581
2015    22      6       0.542195        115.0854
2015    22      7       0.3883215       89.68916
2015    23      0       0.4524744       100.2577
2015    23      1       0.4236226       95.43126
2015    23      2       0.6221004       125.6082
2015    23      3       0.565347        117.7374
2015    23      4       0.5717872       119.2363
2015    23      5       0.4689977       103.4668
2015    23      6       0.2912391       71.28205
2015    23      7       0.3476125       81.63724
2015    24      0       0.3749539       86.44271
2015    24      1       0.4381141       97.05844
2015    24      2       0.4720543       101.4955
2015    24      3       0.4526142       98.02977
2015    24      4       0.5657356       114.6874
2015    24      5       0.5929753       118.5353
2015    24      6       0.4506877       97.8513
2015    24      7       0.3123363       73.70215
2015    25      0       0.2817366       68.23304
2015    25      1       0.2503171       62.07693
2015    25      2       0.2623238       64.75893
2015    25      3       0.2921643       70.98889
2015    25      4       0.3353782       79.70937
2015    25      5       0.3283473       78.79118
2015    25      6       0.2890134       71.44077
2015    25      7       0.2367782       60.83565
2015    26      0       0.2015109       53.26368
2015    26      1       0.1865666       49.85051
2015    26      2       0.1715407       46.27956
2015    26      3       0.2025791       52.94884
2015    26      4       0.2278432       58.24139
2015    26      5       0.1918031       51.06178
2015    26      6       0.1525626       42.31259
2015    26      7       0.1255597       35.92214
2015    27      0       0.1099309       32.07546
2015    27      1       0.1728258       45.81722
2015    27      2       0.2727117       67.04899
2015    27      3       0.3301263       78.60825
2015    27      4       0.3459286       81.80081
2015    27      5       0.3659373       85.6342
2015    27      6       0.4748679       103.3508
2015    27      7       0.6349792       126.7711
2015    28      0       0.4496399       99.41508
2015    28      1       0.3624799       84.55725
2015    28      2       0.4171712       94.20702
2015    28      3       0.4766371       104.5256
2015    28      4       0.4574256       101.7469
2015    28      5       0.4425898       99.35526
2015    28      6       0.3539447       83.87748
2015    28      7       0.2588028       65.69921
2015    29      0       0.2398017       61.70262
2015    29      1       0.3025383       74.08703
2015    29      2       0.3698216       86.88612
2015    29      3       0.442025        99.73453
2015    29      4       0.4667583       104.2526
2015    29      5       0.4338723       98.80606
2015    29      6       0.3702698       87.46136
2015    29      7       0.344237        82.69245
2015    30      0       0.3348508       80.46009
2015    30      1       0.3633657       85.62153
2015    30      2       0.4238081       96.33946
2015    30      3       0.4270341       97.32893
2015    30      4       0.3691699       87.47083
2015    30      5       0.3363485       81.408
2015    30      6       0.3070441       75.92363
2015    30      7       0.284395        71.38218
2016    1       0       0.1492967       40.49034
2016    1       1       0.1672484       44.52684
2016    1       2       0.2262061       56.82272
2016    1       3       0.3197159       75.30605
2016    1       4       0.2874331       69.51466
2016    1       5       0.224066        57.0272
2016    1       6       0.2037497       52.9029
2016    1       7       0.1704052       45.77184
2016    2       0       0.1466223       40.43552
2016    2       1       0.1328201       37.33187
2016    2       2       0.1349838       37.90647
2016    2       3       0.1652998       44.90567
2016    2       4       0.1976965       52.23381
2016    2       5       0.2101579       54.90902
2016    2       6       0.2387297       60.60124
2016    2       7       0.243487        61.33537
2016    3       0       0.2384506       60.28685
2016    3       1       0.274092        67.58616
2016    3       2       0.3519284       81.92204
2016    3       3       0.6627221       130.2446
2016    3       4       0.7645208       143.2346
2016    3       5       0.667647        131.8406
2016    3       6       0.6224433       125.5837
2016    3       7       0.6286725       126.7714
2016    4       0       0.6418476       128.8485
2016    4       1       0.5945554       121.91
2016    4       2       0.5193586       110.337
2016    4       3       0.4590369       100.9643
2016    4       4       0.4939528       107.0053
2016    4       5       0.368189        85.77681
2016    4       6       0.3465506       81.73235
2016    4       7       0.3356601       79.88323
2016    5       0       0.3181806       76.60175
2016    5       1       0.2930829       71.79486
2016    5       2       0.244143        62.17612
2016    5       3       0.2375233       60.96987
2016    5       4       0.3363753       80.54949
2016    5       5       0.3474009       82.83068
2016    5       6       0.2956634       72.92215
2016    5       7       0.2625645       66.18355
2016    6       0       0.2893191       71.29222
2016    6       1       0.326469        78.24749
2016    6       2       0.3641931       85.29177
2016    6       3       0.449576        100.1408
2016    6       4       0.5195768       111.3121
2016    6       5       0.4416039       98.91776
2016    6       6       0.3524534       83.29457
2016    6       7       0.3116263       75.58785
2016    7       0       0.327408        78.51971
2016    7       1       0.3917188       90.11365
2016    7       2       0.4245412       95.61034
2016    7       3       0.4741077       103.5213
2016    7       4       0.4948592       106.8776
2016    7       5       0.4783968       104.5306
2016    7       6       0.4368621       98.02359
2016    7       7       0.4158075       94.39834
2016    8       0       0.421619        95.12513
2016    8       1       0.3981239       91.07407
2016    8       2       0.3913467       90.01082
2016    8       3       0.5119515       109.7493
2016    8       4       0.5568057       116.4699
2016    8       5       0.4226351       95.81542
2016    8       6       0.3734933       87.56576
2016    8       7       0.3626641       85.75316
2016    9       0       0.3555722       84.37445
2016    9       1       0.3818827       88.79563
2016    9       2       0.3548916       83.52134
2016    9       3       0.4508892       100.2694
2016    9       4       0.5697579       119.3393
2016    9       5       0.5350916       114.3381
2016    9       6       0.5310701       113.7546
2016    9       7       0.5623786       118.4123
2016    10      0       0.6137287       125.7359
2016    10      1       0.6531278       131.2202
2016    10      2       0.6867817       136.3068
2016    10      3       0.86331         158.5289
2016    10      4       1.078618        179.0627
2016    10      5       0.933102        164.7415
2016    10      6       0.5442355       116.8459
2016    10      7       1.144281        187.0996
2016    11      0       1.214947        192.3963
2016    11      1       0.8686267       157.0862
2016    11      2       1.024289        172.7282
2016    11      3       1.189118        188.0283
2016    11      4       1.097493        181.8516
2016    11      5       0.7514924       144.1949
2016    11      6       0.6755763       133.5885
2016    11      7       0.8524292       155.7634
2016    12      0       0.8830607       160.017
2016    12      1       0.9675459       169.4065
2016    12      2       0.554873        117.2364
2016    12      3       0.9349177       165.5582
2016    12      4       0.7735937       146.7951
2016    12      5       0.6294589       127.272
2016    12      6       0.6849807       134.9646
2016    12      7       0.4487106       100.5671
2016    13      0       0.3049056       73.77323
2016    13      1       0.4942069       105.3852
2016    13      2       0.3789057       88.15293
2016    13      3       0.4733213       103.7357
2016    13      4       0.5712186       118.5902
2016    13      5       0.5396207       114.2165
2016    13      6       0.5955707       122.8663
2016    13      7       0.5872759       121.7279
2016    14      0       0.651006        131.1936
2016    14      1       0.5673346       118.767
2016    14      2       0.6431659       128.9489
2016    14      3       0.6764409       133.2425
2016    14      4       0.8126067       149.8797
2016    14      5       0.8511848       153.8713
2016    14      6       0.8160187       149.8254
2016    14      7       0.6475936       129.7082
2016    15      0       0.5526359       116.1236
2016    15      1       0.4660779       102.8355
2016    15      2       0.6648961       132.1073
2016    15      3       0.8443536       154.1114
2016    15      4       1.02841         174.1551
2016    15      5       0.9363987       165.4032
2016    15      6       0.5451046       116.6141
2016    15      7       0.4676994       103.909
2016    16      0       0.4776912       105.2849
2016    16      1       0.4865319       106.7436
2016    16      2       0.5214327       112.8162
2016    16      3       0.6138553       126.3131
2016    16      4       0.454211        101.5091
2016    16      5       0.4109036       94.23455
2016    16      6       0.347648        82.59153
2016    16      7       0.2697512       67.63953
2016    17      0       0.1568254       43.08672
2016    17      1       0.1162643       33.49546
2016    17      2       0.129488        36.54617
2016    17      3       0.1747624       46.97815
2016    17      4       0.2463052       62.28474
2016    17      5       0.2400791       61.24242
2016    17      6       0.2024129       53.35745
2016    17      7       0.2162909       56.19733
2016    18      0       0.241355        61.15267
2016    18      1       0.2753145       67.70096
2016    18      2       0.3471714       81.08435
2016    18      3       0.4894761       105.4962
2016    18      4       0.6198326       125.4584
2016    18      5       0.480793        105.1707
2016    18      6       0.3065955       74.70051
2016    18      7       0.2545307       64.16506
2016    19      0       0.2659226       66.1884
2016    19      1       0.2733476       67.58647
2016    19      2       0.2977265       72.49286
2016    19      3       0.3803045       88.04984
2016    19      4       0.6019548       122.9697
2016    19      5       0.6015971       123.6195
2016    19      6       0.4559436       102.0661
2016    19      7       0.3954503       91.88153
2016    20      0       0.3924913       91.32437
2016    20      1       0.3802763       89.20594
2016    20      2       0.389715        90.99407
2016    20      3       0.4894029       107.9799
2016    20      4       0.5895062       123.7574
2016    20      5       0.552497        118.6975
2016    20      6       0.4782838       107.1888
2016    20      7       0.4049068       94.68442
2016    21      0       0.3694509       88.14584
2016    21      1       0.3179431       78.14042
2016    21      2       0.2941119       73.46982
2016    21      3       0.3268429       79.95459
2016    21      4       0.398084        93.03215
2016    21      5       0.4542088       102.2784
2016    21      6       0.545542        116.4124
2016    21      7       0.6959358       137.5722
2016    22      0       0.5814141       121.7217
2016    22      1       0.5308316       114.2518
2016    22      2       0.6872534       138.6429
2016    22      3       0.3288792       80.33061
2016    22      4       0.3186986       78.66313
2016    22      5       0.3122023       77.31838
2016    22      6       0.2690886       68.66483
2016    22      7       0.2253574       59.41431
2016    23      0       0.1550592       43.61742
2016    23      1       0.1276571       37.10991
2016    23      2       0.126519        36.80112
2016    23      3       0.1843809       50.2149
2016    23      4       0.2038004       54.51872
2016    23      5       0.2046557       54.6792
2016    23      6       0.2275944       59.50206
2016    23      7       0.262438        66.43046
2016    24      0       0.2986078       73.85124
2016    24      1       0.3255279       79.07481
2016    24      2       0.314199        76.76827
2016    24      3       0.3400449       81.39243
2016    24      4       0.354403        84.18503
2016    24      5       0.3789087       88.87012
2016    24      6       0.5029112       109.8531
2016    24      7       0.5250517       113.2873
2016    25      0       0.5656241       120.0043
2016    25      1       0.4881265       107.9954
2016    25      2       0.5438954       116.7939
2016    25      3       0.8597442       158.9999
2016    25      4       0.9349566       168.0134
2016    25      5       0.815456        155.0373
2016    25      6       0.9958925       174.3385
2016    25      7       0.6835766       137.9677
2016    26      0       0.4599594       104.0168
2016    26      1       0.2726042       68.95614
2016    26      2       0.1895787       50.60325
2016    26      3       0.3115148       75.97901
2016    26      4       0.4773806       105.4777
2016    26      5       0.5440808       115.9713
2016    26      6       0.4393224       100.4171
2016    26      7       0.5265843       114.7012
2016    27      0       0.5009671       110.486
2016    27      1       0.5325337       115.0123
2016    27      2       0.6027962       124.9297
2016    27      3       0.9197604       164.2498
2016    27      4       0.8941489       161.3874
2016    27      5       0.741864        144.9231
2016    27      6       0.8037723       152.0024
2016    27      7       0.9543819       168.5038
2016    28      0       0.9826099       171.4837
2016    28      1       1.066984        180.3265
2016    28      2       0.9416655       166.6953
2016    28      3       0.9979176       173.4611
2016    28      4       0.6911096       138.6227
2016    28      5       0.5399935       117.413
2016    28      6       0.5373728       116.7742
2016    28      7       0.5710646       121.5316
2016    29      0       0.4376714       100.2061
2016    29      1       0.1959476       52.52853
2016    29      2       0.1372594       39.03532
2016    29      3       0.1681023       46.31774
2016    29      4       0.1941401       52.27198
2016    29      5       0.2126776       56.34419
2016    29      6       0.2104182       55.71258
2016    29      7       0.2102694       55.59208
2016    30      0       0.2064795       54.67575
2016    30      1       0.2358527       60.64462
2016    30      2       0.3226228       77.78838
2016    30      3       0.4307408       97.41415
2016    30      4       0.5365692       114.7494
2016    30      5       0.5543568       117.3794
2016    30      6       0.5466357       116.276
2016    30      7       0.578314        120.9572
2017    1       0       0.3475905       81.07095
2017    1       1       0.3522773       81.55052
2017    1       2       0.3571254       83.50509
2017    1       3       0.5019743       107.1481
2017    1       4       0.6996188       134.3678
2017    1       5       0.7029902       135.5052
2017    1       6       0.6813644       132.8861
2017    1       7       0.6557477       130.0939
2017    2       0       0.3953686       90.01139
2017    2       1       0.4148666       93.73925
2017    2       2       0.4601622       101.5727
2017    2       3       0.5675527       117.7191
2017    2       4       0.5646797       117.1009
2017    2       5       0.6222601       125.3875
2017    2       6       0.5689502       117.4332
2017    2       7       0.6133291       123.1533
2017    3       0       0.6699251       131.1385
2017    3       1       0.589525        120.1054
2017    3       2       0.5793745       118.2938
2017    3       3       0.638313        126.1223
2017    3       4       0.7178506       136.159
2017    3       5       0.5551493       114.5334
2017    3       6       0.4840101       103.6329
2017    3       7       0.4717198       101.3828
2017    4       0       0.397031        88.91688
2017    4       1       0.2784759       67.40977
2017    4       2       0.1718698       45.55251
2017    4       3       0.1370966       38.15144
2017    4       4       0.1258972       35.87679
2017    4       5       0.1152195       33.55343
2017    4       6       0.0745343       23.72717
2017    4       7       0.06346641      20.88351
2017    5       0       0.08685607      26.7108
2017    5       1       0.09262344      28.0833
2017    5       2       0.0944596       28.41851
2017    5       3       0.1305732       36.83955
2017    5       4       0.1763738       46.99419
2017    5       5       0.1799261       47.81361
2017    5       6       0.1449498       40.07104
2017    5       7       0.1125987       32.47
2017    6       0       0.1190865       34.23831
2017    6       1       0.1239866       35.46081
2017    6       2       0.1387168       38.6886
2017    6       3       0.2118375       54.88721
2017    6       4       0.2698013       67.1668
2017    6       5       0.2452729       62.37038
2017    6       6       0.3895106       89.87514
2017    6       7       0.6910686       135.2302
2017    7       0       0.8430093       154.7581
2017    7       1       0.6505842       130.9631
2017    7       2       0.7325962       140.6769
2017    7       3       0.8191006       152.9267
2017    7       4       0.7215739       141.1555
2017    7       5       0.6048579       123.8583
2017    7       6       0.5043073       109.4908
2017    7       7       0.3962093       91.57231
2017    8       0       0.3601512       84.8729
2017    8       1       0.4235343       96.36433
2017    8       2       0.4462841       99.98853
2017    8       3       0.4196524       94.91691
2017    8       4       0.4550595       99.78826
2017    8       5       0.4751043       102.8658
2017    8       6       0.4708626       102.5944
2017    8       7       0.569246        117.999
2017    9       0       0.5882441       120.6813
2017    9       1       0.5571588       116.1855
2017    9       2       0.5993626       122.1402
2017    9       3       0.6651535       131.2986
2017    9       4       0.5215318       111.2105
2017    9       5       0.4523631       99.76057
2017    9       6       0.4445559       98.3109
2017    9       7       0.217242        55.89254
2017    10      0       0.06618915      21.42083
2017    10      1       0.06261681      20.53564
2017    10      2       0.07394276      23.3616
2017    10      3       0.1312821       37.18389
2017    10      4       0.1655779       45.05115
2017    10      5       0.1632135       44.49039
2017    10      6       0.1347666       37.74857
2017    10      7       0.1279184       35.86143
2017    11      0       0.1345801       37.54105
2017    11      1       0.1871807       49.03392
2017    11      2       0.3677366       84.1322
2017    11      3       0.5738567       117.2309
2017    11      4       0.533709        112.5747
2017    11      5       0.4268335       95.98102
2017    11      6       0.4033681       92.29789
2017    11      7       0.1868259       49.68933
2017    12      0       0.1271967       35.70154
2017    12      1       0.1258512       35.06846
2017    12      2       0.1427692       38.98241
2017    12      3       0.2243778       56.93254
2017    12      4       0.3838252       88.22007
2017    12      5       0.5990404       123.9979
2017    12      6       0.607948        126.4528
2017    12      7       0.767263        147.3216
2017    13      0       0.6856991       137.1486
2017    13      1       0.7154107       141.977
2017    13      2       1.047886        180.2076
2017    13      3       1.032301        177.0408
2017    13      4       1.239011        195.7666
2017    13      5       1.331672        201.5912
2017    13      6       1.456201        210.46
2017    13      7       1.415912        208.2867
2017    14      0       1.066914        179.6662
2017    14      1       1.011263        174.0311
2017    14      2       1.137069        185.4058
2017    14      3       1.113623        182.6604
2017    14      4       1.12993         186.269
2017    14      5       0.7722787       148.5358
2017    14      6       0.4859097       107.5134
2017    14      7       0.2737961       68.58223
2017    15      0       0.2180301       56.74434
2017    15      1       0.5274928       113.3371
2017    15      2       0.6113761       125.5068
2017    15      3       0.7276085       141.0312
2017    15      4       0.7017513       137.7946
2017    15      5       0.524937        113.0051
2017    15      6       0.4220399       95.98411
2017    15      7       0.4058145       92.98052
2017    16      0       0.3741894       87.10748
2017    16      1       0.419164        94.69428
2017    16      2       0.7025007       136.4619
2017    16      3       0.7937397       147.6519
2017    16      4       0.7516907       142.7898
2017    16      5       0.5226878       112.1055
2017    16      6       0.3942795       90.96742
2017    16      7       0.3034732       74.27126
2017    17      0       0.2539651       64.33112
2017    17      1       0.2273726       58.70714
2017    17      2       0.2462567       62.5918
2017    17      3       0.2537491       64.50256
2017    17      4       0.2799324       70.08309
2017    17      5       0.3421135       82.25103
2017    17      6       0.3164536       77.16874
2017    17      7       0.254713        64.68115
2017    18      0       0.2383937       61.32951
2017    18      1       0.2471135       63.05883
2017    18      2       0.3336995       80.12857
2017    18      3       0.5125587       110.6557
2017    18      4       0.6138249       125.3805
2017    18      5       0.8486703       155.1362
2017    18      6       0.7440132       142.4489
2017    18      7       0.6746885       135.0189
2017    19      0       0.6945662       137.7978
2017    19      1       0.536051        114.4208
2017    19      2       0.6093961       125.9748
2017    19      3       0.5559273       118.4627
2017    19      4       0.576273        121.2241
2017    19      5       0.4364986       99.13567
2017    19      6       0.3151448       77.00435
2017    19      7       0.2103421       55.36397
2017    20      0       0.1580797       43.28052
2017    20      1       0.146184        40.22735
2017    20      2       0.1696166       45.6185
2017    20      3       0.2440609       61.80156
2017    20      4       0.3120843       75.37685
2017    20      5       0.3526364       83.19685
2017    20      6       0.3162655       76.6174
2017    20      7       0.2600535       65.69733
2017    21      0       0.2520768       64.03591
2017    21      1       0.2257682       58.36369
2017    21      2       0.2366922       60.76572
2017    21      3       0.3727105       87.55226
2017    21      4       0.4596398       103.2468
2017    21      5       0.4880041       108.1715
2017    21      6       0.4302164       98.41561
2017    21      7       0.3619124       86.04389
2017    22      0       0.3344014       80.88944
2017    22      1       0.3639884       86.64529
2017    22      2       0.2955439       73.19597
2017    22      3       0.3280574       79.57732
2017    22      4       0.3688091       87.52424
2017    22      5       0.3122274       76.86923
2017    22      6       0.246025        63.54147
2017    22      7       0.2128838       56.2287
2017    23      0       0.2164818       56.49304
2017    23      1       0.3723001       85.95502
2017    23      2       0.5547758       117.3849
2017    23      3       0.4594922       103.5898
2017    23      4       0.7489397       144.3049
2017    23      5       1.046681        177.3725
2017    23      6       1.291169        200.3874
2017    23      7       1.288012        199.8667
2017    24      0       0.9912166       173.6732
2017    24      1       0.6556369       133.971
2017    24      2       0.4911625       108.6236
2017    24      3       0.2789234       70.18353
2017    24      4       0.1899215       51.41698
2017    24      5       0.1330505       38.33654
2017    24      6       0.1025958       30.93134
2017    24      7       0.07344741      23.59053
2017    25      0       0.06293025      20.82733
2017    25      1       0.07344927      23.41477
2017    25      2       0.1075334       31.84866
2017    25      3       0.1502113       42.03282
2017    25      4       0.1667436       45.97061
2017    25      5       0.1611196       44.74653
2017    25      6       0.1569905       43.78978
2017    25      7       0.1890703       50.97967
2017    26      0       0.1847313       49.94925
2017    26      1       0.1708156       46.66092
2017    26      2       0.173933        47.26074
2017    26      3       0.2372194       61.10286
2017    26      4       0.2446392       62.84424
2017    26      5       0.2527216       64.55733
2017    26      6       0.2143925       56.42878
2017    26      7       0.250152        63.89915
2017    27      0       0.2273091       58.89416
2017    27      1       0.2175463       56.72024
2017    27      2       0.2104773       55.0821
2017    27      3       0.2524623       64.0786
2017    27      4       0.2800761       70.04925
2017    27      5       0.3033155       74.97524
2017    27      6       0.340986        82.57599
2017    27      7       0.330936        80.36413
2017    28      0       0.3415727       81.99815
2017    28      1       0.3688533       86.83463
2017    28      2       0.3647747       86.26531
2017    28      3       0.4071389       94.07446
2017    28      4       0.4656541       103.7318
2017    28      5       0.5758507       120.6183
2017    28      6       0.5847026       122.5358
2017    28      7       0.5608574       119.2908
2017    29      0       0.5688832       120.3449
2017    29      1       0.4109791       94.97255
2017    29      2       0.4174482       95.79532
2017    29      3       0.4527468       101.8175
2017    29      4       0.4032947       93.61058
2017    29      5       0.418866        96.20066
2017    29      6       0.3517907       83.98056
2017    29      7       0.3051213       75.08887
2017    30      0       0.3070027       75.58583
2017    30      1       0.3564645       84.80404
2017    30      2       0.3983254       92.04836
2017    30      3       0.4360382       98.75594
2017    30      4       0.4463125       100.8946
2017    30      5       0.4007894       93.33807
2017    30      6       0.4017053       93.45972
2017    30      7       0.3977347       92.89721
2018    1       0       0.2854544       70.84462
2018    1       1       0.251791        64.09713
2018    1       2       0.2216857       57.80341
2018    1       3       0.2643475       66.61399
2018    1       4       0.3043992       74.72441
2018    1       5       0.2820052       70.69189
2018    1       6       0.2583878       65.88055
2018    1       7       0.2645998       66.85056
2018    2       0       0.2822799       70.22464
2018    2       1       0.3039224       74.32897
2018    2       2       0.3108709       75.49152
2018    2       3       0.3374661       80.75704
2018    2       4       0.3492071       83.37978
2018    2       5       0.3224867       78.55757
2018    2       6       0.2752943       69.28952
2018    2       7       0.2473603       63.44984
2018    3       0       0.2449778       62.57929
2018    3       1       0.2864214       70.86496
2018    3       2       0.418887        95.0655
2018    3       3       0.4651339       102.9464
2018    3       4       0.5692559       119.251
2018    3       5       0.6342543       128.8044
2018    3       6       0.8453582       154.6983
2018    3       7       0.6211077       127.0363
2018    4       0       0.3792689       88.82484
2018    4       1       0.1958927       52.4017
2018    4       2       0.1245125       36.09724
2018    4       3       0.2015025       53.69301
2018    4       4       0.2391018       61.75337
2018    4       5       0.2646976       66.94044
2018    4       6       0.2735799       68.60851
2018    4       7       0.2589233       65.48854
2018    5       0       0.2379768       61.13848
2018    5       1       0.2385448       61.29406
2018    5       2       0.2366609       60.81774
2018    5       3       0.2463355       62.76412
2018    5       4       0.2964028       72.87154
2018    5       5       0.2973187       73.18774
2018    5       6       0.2848482       70.6858
2018    5       7       0.2810253       69.81656
2018    6       0       0.2699807       67.68742
2018    6       1       0.244636        62.57495
2018    6       2       0.2366691       60.89124
2018    6       3       0.2538004       64.39243
2018    6       4       0.2574712       65.34469
2018    6       5       0.2470932       63.36332
2018    6       6       0.2660884       67.17728
2018    6       7       0.2704749       68.00861
2018    7       0       0.2560906       65.17191
2018    7       1       0.2773635       69.48671
2018    7       2       0.3182974       77.48245
2018    7       3       0.4527493       101.4785
2018    7       4       0.5269336       113.4717
2018    7       5       0.4992871       108.91
2018    7       6       0.4869372       107.1831
2018    7       7       0.3614152       85.06734
2018    8       0       0.3270484       78.71805
2018    8       1       0.3161893       76.71944
2018    8       2       0.3384648       81.10118
2018    8       3       0.4055664       93.38764
2018    8       4       0.4642148       103.4815
2018    8       5       0.441047        99.92916
2018    8       6       0.4172908       95.98346
2018    8       7       0.3866125       90.60771
2018    9       0       0.3445112       82.73709
2018    9       1       0.2987879       73.63974
2018    9       2       0.2903994       71.88005
2018    9       3       0.34359         82.00561
2018    9       4       0.4121628       94.37242
2018    9       5       0.3725273       87.60027
2018    9       6       0.3410768       81.73518
2018    9       7       0.3039322       74.20922
2018    10      0       0.3638292       84.79583
2018    10      1       0.5949234       123.161
2018    10      2       0.7923161       149.5415
2018    10      3       0.7638398       146.3647
2018    10      4       0.6770844       135.4621
2018    10      5       0.8252103       154.3107
2018    10      6       0.8347259       155.0097
2018    10      7       0.7264765       141.8341
2018    11      0       0.8245951       154.3947
2018    11      1       0.7835041       149.1466
2018    11      2       0.8361238       155.9344
2018    11      3       0.8166413       152.6933
2018    11      4       0.8043892       151.7142
2018    11      5       0.562637        120.0458
2018    11      6       0.4610017       103.8505
2018    11      7       0.5289492       114.4563
2018    12      0       0.8348029       154.1615
2018    12      1       0.5292577       114.126
2018    12      2       0.6203472       126.4428
2018    12      3       0.8646099       157.2946
2018    12      4       0.8811816       159.2279
2018    12      5       0.6953945       136.6798
2018    12      6       0.6574104       130.8296
2018    12      7       0.7517885       143.8498
2018    13      0       0.8367328       154.0322
2018    13      1       0.853224        155.6964
2018    13      2       0.9513595       166.2535
2018    13      3       1.127089        182.5431
2018    13      4       1.240413        191.2224
2018    13      5       1.002367        171.0828
2018    13      6       0.7661232       145.677
2018    13      7       0.6658801       132.8317
2018    14      0       0.621069        126.7592
2018    14      1       0.5794091       121.0857
2018    14      2       0.6602035       132.6746
2018    14      3       0.8120051       151.4165
2018    14      4       0.8772479       158.7418
2018    14      5       0.6521546       131.3063
2018    14      6       0.5598266       118.2157
2018    14      7       0.5039054       109.6639
2018    15      0       0.5285899       113.2353
2018    15      1       0.5502874       116.3519
2018    15      2       0.7947933       147.6706
2018    15      3       0.7939731       148.1006
2018    15      4       0.8106079       150.6079
2018    15      5       0.7238379       139.2899
2018    15      6       0.4550142       100.1355
2018    15      7       0.3153902       76.1326
2018    16      0       0.2216802       57.25318
2018    16      1       0.1629039       44.34374
2018    16      2       0.1417826       39.57858
2018    16      3       0.1873785       49.95504
2018    16      4       0.2246706       57.8426
2018    16      5       0.2723282       67.62549
2018    16      6       0.2832632       69.85615
2018    16      7       0.2436918       61.95517
2018    17      0       0.2271727       58.45688
2018    17      1       0.2347298       59.77731
2018    17      2       0.2327669       59.32093
2018    17      3       0.2877264       70.33441
2018    17      4       0.3355535       79.39889
2018    17      5       0.3080103       74.38359
2018    17      6       0.2761341       68.19039
2018    17      7       0.2868128       70.16123
2018    18      0       0.2789491       68.58658
2018    18      1       0.254783        63.73123
2018    18      2       0.2727057       67.41781
2018    18      3       0.3369659       80.11534
2018    18      4       0.4173761       95.12637
2018    18      5       0.4392115       99.22674
2018    18      6       0.3838659       89.6301
2018    18      7       0.3559134       84.42613
2018    19      0       0.333751        80.31143
2018    19      1       0.3001596       73.86223
2018    19      2       0.2884667       71.57189
2018    19      3       0.3027969       74.49703
2018    19      4       0.3193439       77.70638
2018    19      5       0.2987447       73.67613
2018    19      6       0.3101055       75.53561
2018    19      7       0.3401036       81.24538
2018    20      0       0.3603343       84.99672
2018    20      1       0.4335149       97.671
2018    20      2       0.4276804       96.07281
2018    20      3       0.4146681       93.74956
2018    20      4       0.4921509       106.667
2018    20      5       0.4986012       107.9405
2018    20      6       0.5410507       115.0879
2018    20      7       0.4357695       98.41503
2018    21      0       0.4832608       106.741
2018    21      1       0.560555        118.6831
2018    21      2       0.7958048       149.1843
2018    21      3       0.9608821       166.7452
2018    21      4       1.245597        192.5403
2018    21      5       1.140949        184.3565
2018    21      6       1.072924        178.7157
2018    21      7       0.8007157       150.1293
2018    22      0       0.7568825       144.0719
2018    22      1       0.4997839       108.2016
2018    22      2       0.608676        124.0279
2018    22      3       0.7998851       148.1702
2018    22      4       1.169008        185.7686
2018    22      5       1.007177        171.963
2018    22      6       0.7042659       138.3401
2018    22      7       0.4252076       95.9531
2018    23      0       0.4269213       96.17918
2018    23      1       0.8041454       148.9226
2018    23      2       0.7053421       137.3083
2018    23      3       0.6247712       126.6296
2018    23      4       0.5111882       110.4394
2018    23      5       0.4284131       97.34095
2018    23      6       0.3215404       77.92649
2018    23      7       0.2609046       65.88138
2018    24      0       0.2518717       63.90456
2018    24      1       0.2502796       63.45272
2018    24      2       0.2813545       69.72522
2018    24      3       0.3494413       82.98966
2018    24      4       0.4189354       95.62518
2018    24      5       0.3861496       90.22722
2018    24      6       0.3534602       84.28921
2018    24      7       0.3195514       77.86099
2018    25      0       0.2708178       68.35405
2018    25      1       0.2940016       72.71463
2018    25      2       0.2623117       66.55063
2018    25      3       0.2816651       70.55394
2018    25      4       0.319907        78.26399
2018    25      5       0.2934764       73.32331
2018    25      6       0.2883787       72.1278
2018    25      7       0.2839188       71.16802
2018    26      0       0.3154532       77.37659
2018    26      1       0.304929        75.29185
2018    26      2       0.3534609       84.36557
2018    26      3       0.4109036       94.71889
2018    26      4       0.470992        105.0466
2018    26      5       0.4834761       107.2509
2018    26      6       0.5498336       117.3802
2018    26      7       0.6838417       136.4848
2018    27      0       0.5830447       122.2704
2018    27      1       0.6734762       134.4356
2018    27      2       0.8084473       150.8566
2018    27      3       0.9608101       167.4463
2018    27      4       0.7477137       144.3768
2018    27      5       0.6758424       135.4369
2018    27      6       0.5912776       124.0857
2018    27      7       0.7613948       145.3313
2018    28      0       0.825393        154.4215
2018    28      1       0.4900382       107.4852
2018    28      2       0.4899189       106.9902
2018    28      3       0.6985778       136.9557
2018    28      4       0.7829959       148.0628
2018    28      5       0.9005786       162.0324
2018    28      6       0.8158773       151.3607
2018    28      7       0.8412694       153.413
2018    29      0       0.8794993       159.2037
2018    29      1       0.8542508       156.5707
2018    29      2       0.8246322       152.7037
2018    29      3       1.065489        177.1963
2018    29      4       1.106607        180.3921
2018    29      5       1.031144        174.0413
2018    29      6       0.795738        149.5658
2018    29      7       0.6799811       135.119
2018    30      0       0.6123648       125.5927
2018    30      1       0.5874123       121.7749
2018    30      2       0.5841283       121.4558
2018    30      3       0.6339041       128.8856
2018    30      4       0.6826669       135.5078
2018    30      5       0.6311093       128.5821
2018    30      6       0.5142074       111.2933
2018    30      7       0.4494494       100.7734
