####################################################################################################
# Month: 10Oct                                                                                     #
# Station: ROB                                                                                     #
# Frequency: 345 GHz                                                                               #
# Columns are: year    day     segment         tau     Tb (K)                                      #
####################################################################################################
2009    1       0       0.2937639       73.04894
2009    1       1       0.2315073       60.36588
2009    1       2       0.1625891       45.55128
2009    1       3       0.1731248       47.36479
2009    1       4       0.2631829       66.02044
2009    1       5       0.3268          77.78582
2009    1       6       0.3603925       83.53056
2009    1       7       0.3311754       78.36311
2009    2       0       0.395737        88.7133
2009    2       1       0.4700449       100.8238
2009    2       2       0.5348453       110.5619
2009    2       3       0.5295364       110.3597
2009    2       4       0.4812871       103.6148
2009    2       5       0.5611989       114.5031
2009    2       6       0.4568457       99.09553
2009    2       7       0.4030686       91.55765
2009    3       0       0.3664723       85.12604
2009    3       1       0.3054267       73.60087
2009    3       2       0.3550715       81.88849
2009    3       3       0.3241422       76.57678
2009    3       4       0.2949374       71.33068
2009    3       5       0.302287        72.75452
2009    3       6       0.4143157       91.39943
2009    3       7       0.3819817       87.054
2009    4       0       0.5690036       114.9476
2009    4       1       0.4066208       90.31499
2009    4       2       0.3248044       76.93857
2009    4       3       0.3112712       74.64225
2009    4       4       0.3376827       79.14661
2009    4       5       0.3262957       78.1675
2009    4       6       0.3687938       86.91321
2009    4       7       0.5408812       114.7932
2009    5       0       0.7439454       142.0755
2009    5       1       0.7024861       137.4637
2009    5       2       0.6631511       132.4374
2009    5       3       0.5467976       115.3036
2009    5       4       0.5078519       108.5943
2009    5       5       0.5761809       118.4928
2009    5       6       0.5832368       120.0085
2009    5       7       0.6099303       123.5995
2009    6       0       0.5436781       112.6352
2009    6       1       0.5520165       113.7624
2009    6       2       0.6956556       133.3985
2009    6       3       0.7823886       144.4751
2009    6       4       0.983836        166.4977
2009    6       5       1.095159        177.3827
2009    6       6       1.077589        175.8416
2009    6       7       1.176672        184.8778
2009    7       0       0.9820986       168.5494
2009    7       1       0.8553661       155.3374
2009    7       2       0.8524215       155.7839
2009    7       3       1.010507        172.6441
2009    7       4       1.0598          177.8415
2009    7       5       1.05084         178.1825
2009    7       6       1.0596          180.2852
2009    7       7       1.047128        179.4056
2009    8       0       0.9300514       167.1979
2009    8       1       0.8918406       162.8335
2009    8       2       0.7961886       152.0452
2009    8       3       0.6542559       133.7886
2009    8       4       0.629985        130.3442
2009    8       5       0.7596187       148.1413
2009    8       6       0.6340652       131.2275
2009    8       7       0.6472096       133.344
2009    9       0       0.4966023       110.6143
2009    9       1       0.4151692       97.10508
2009    9       2       0.4083128       95.89117
2009    9       3       0.4480097       102.7635
2009    9       4       0.4120971       95.79618
2009    9       5       0.4727056       105.0591
2009    9       6       0.5228212       112.6664
2009    9       7       0.5665643       119.7514
2009    10      0       0.53743         114.7624
2009    10      1       0.6300027       127.6485
2009    10      2       0.8575935       155.7663
2009    10      3       1.313494        197.0064
2009    10      4       1.575203        213.3468
2009    10      5       1.613392        214.918
2009    10      6       1.299781        195.6266
2009    10      7       1.074746        178.4687
2009    11      0       0.7677742       145.9871
2009    11      1       0.6927082       134.6709
2009    11      2       0.8381231       150.3443
2009    11      3       0.8682813       153.9939
2009    11      4       0.5835635       120.0241
2009    11      5       0.640405        128.3332
2009    11      6       0.7719325       145.2018
2009    11      7       0.8121387       150.1253
2009    12      0       0.668742        132.5603
2009    12      1       0.5624244       118.182
2009    12      2       0.599468        124.0552
2009    12      3       0.5868181       122.6494
2009    12      4       0.5458832       117.3959
2009    12      5       0.5018948       110.8481
2009    12      6       0.4849326       108.1532
2009    12      7       0.5076181       111.9188
2009    13      0       0.5183692       113.1399
2009    13      1       0.4891729       108.1694
2009    13      2       0.4906269       107.5454
2009    13      3       0.570035        119.3912
2009    13      4       0.725276        139.9512
2009    13      5       0.9458417       164.9702
2009    13      6       1.129324        181.5903
2009    13      7       1.125025        180.8473
2009    14      0       0.9320209       161.8676
2009    14      1       0.9265262       160.4786
2009    14      2       0.9387633       162.0759
2009    14      3       0.9687045       165.5276
2009    14      4       0.8477506       152.9178
2009    14      5       0.7568592       142.7962
2009    14      6       0.8305003       151.8887
2009    14      7       0.7671274       144.7386
2009    15      0       0.6650283       131.5418
2009    15      1       0.6343634       128.141
2009    15      2       0.5583616       117.2522
2009    15      3       0.7123644       138.3416
2009    15      4       0.8529776       154.7743
2009    15      5       0.9859978       168.6978
2009    15      6       1.149809        183.0533
2009    15      7       0.9904217       168.7182
2009    16      0       0.9627103       164.9947
2009    16      1       0.7777556       144.8498
2009    16      2       0.7017373       136.7615
2009    16      3       0.6225132       126.0169
2009    16      4       0.5392475       114.4337
2009    16      5       0.4810613       105.9095
2009    16      6       0.5855491       122.8157
2009    16      7       0.5886354       123.357
2009    17      0       0.399031        92.56233
2009    17      1       0.3149345       76.94761
2009    17      2       0.3794972       89.55491
2009    17      3       0.4201156       96.69737
2009    17      4       0.3628753       86.30668
2009    17      5       0.3205472       78.44359
2009    17      6       0.4798313       106.8649
2009    17      7       0.5386793       116.0725
2009    18      0       0.3931067       91.46426
2009    18      1       0.3498883       83.94235
2009    18      2       0.3597259       85.62681
2009    18      3       0.3671458       86.4725
2009    18      4       0.296378        73.01377
2009    18      5       0.2624942       66.49479
2009    18      6       0.293055        72.76755
2009    18      7       0.3214192       77.9102
2009    19      0       0.2444815       62.31358
2009    19      1       0.2086768       54.96918
2009    19      2       0.2481989       62.91921
2009    19      3       0.3952319       89.92044
2009    19      4       0.4714265       102.7082
2009    19      5       0.5400183       113.455
2009    19      6       0.4851984       105.5598
2009    19      7       0.3362342       81.39157
2009    20      0       0.2901977       72.08591
2009    20      1       0.2884926       70.94362
2009    20      2       0.2876816       70.25075
2009    20      3       0.3320581       77.68562
2009    20      4       0.4085855       91.95914
2009    20      5       0.5437212       113.7928
2009    20      6       0.8716102       155.7743
2009    20      7       0.9896099       168.1644
2009    21      0       0.7569034       144.0964
2009    21      1       0.6118459       125.9569
2009    21      2       0.6254029       127.8006
2009    21      3       0.6641444       132.149
2009    21      4       0.7870337       146.0493
2009    21      5       0.9384088       162.9534
2009    21      6       1.057009        175.7474
2009    21      7       1.063621        177.1917
2009    22      0       1.15457         184.8549
2009    22      1       1.189834        187.6736
2009    22      2       1.051966        175.3314
2009    22      3       1.313363        196.8413
2009    22      4       1.563792        214.0587
2009    22      5       1.511758        212.5151
2009    22      6       1.566617        216.2826
2009    22      7       1.748703        225.042
2009    23      0       1.445054        206.9725
2009    23      1       1.361169        201.7709
2009    23      2       1.404455        206.1805
2009    23      3       1.198355        192.3575
2009    23      4       1.04834         178.7137
2009    23      5       1.525169        212.5742
2009    23      6       1.896104        230.2167
2009    23      7       1.513618        210.2056
2009    24      0       0.8608171       155.0848
2009    24      1       0.4530715       98.73132
2009    24      2       0.3296449       77.56848
2009    24      3       0.3521721       81.92002
2009    24      4       0.4247498       94.62977
2009    24      5       0.5858568       120.219
2009    24      6       0.6242959       127.6361
2009    24      7       0.745498        142.7928
2009    25      0       0.8235662       151.9304
2009    25      1       0.8474896       153.8937
2009    25      2       1.129511        180.5368
2009    25      3       1.323185        195.4377
2009    25      4       1.183254        186.9137
2009    25      5       1.108086        181.7356
2009    25      6       1.171883        187.7714
2009    25      7       1.215949        192.1707
2009    26      0       1.312857        198.6919
2009    26      1       1.301232        198.0377
2009    26      2       1.120196        184.7838
2009    26      3       0.9990601       173.4646
2009    26      4       0.9433995       167.5119
2009    26      5       1.009207        174.1512
2009    26      6       1.078668        181.3196
2009    26      7       1.1324          186.5082
2009    27      0       1.077411        181.4749
2009    27      1       0.9143609       165.2008
2009    27      2       0.9073395       164.0884
2009    27      3       1.19703         189.6705
2009    27      4       1.56096         214.1513
2009    27      5       1.650464        219.9509
2009    27      6       1.596888        216.2648
2009    27      7       2.027574        236.7474
2009    28      0       1.9662          234.6742
2009    28      1       1.633963        221.5333
2009    28      2       1.671619        223.2719
2009    28      3       1.714736        225.2863
2009    28      4       1.762843        228.4846
2009    28      5       1.579384        219.4067
2009    28      6       1.45136         212.4158
2009    28      7       1.323666        204.3813
2009    29      0       1.12675         188.1084
2009    29      1       0.7815968       152.453
2009    29      2       0.657655        135.0588
2009    29      3       0.7472585       146.0924
2009    29      4       0.8061168       151.5807
2009    29      5       0.8606544       158.7794
2009    29      6       0.911129        165.7999
2009    29      7       0.8957903       164.8265
2009    30      0       0.7032546       140.9294
2009    30      1       0.6135193       129.0616
2009    30      2       0.55683         120.8651
2009    30      3       0.554766        120.3585
2009    30      4       0.5784049       124.0461
2009    30      5       0.6107607       129.2668
2009    30      6       0.7643506       150.9443
2009    30      7       0.6962385       142.1371
2009    31      0       0.5117946       114.431
2009    31      1       0.4461725       103.2288
2009    31      2       0.4515308       102.8705
2009    31      3       0.5504388       116.7644
2009    31      4       0.7587446       144.2524
2009    31      5       0.8640322       157.0921
2009    31      6       0.8872315       160.2108
2009    31      7       0.9029749       162.0512
2010    1       0       0.1430024       40.60852
2010    1       1       0.09749207      30.26513
2010    1       2       0.07569446      24.97826
2010    1       3       0.08680025      27.69023
2010    1       4       0.1118925       33.81262
2010    1       5       0.1334816       38.86746
2010    1       6       0.2225893       58.56351
2010    1       7       0.3179112       78.30177
2010    2       0       0.3291544       79.5015
2010    2       1       0.3070754       75.00024
2010    2       2       0.2986176       73.15416
2010    2       3       0.3124052       75.88812
2010    2       4       0.3281345       79.10917
2010    2       5       0.3299379       80.07506
2010    2       6       0.3439055       83.58563
2010    2       7       0.3873986       91.89393
2010    3       0       0.4030372       94.48587
2010    3       1       0.3773626       90.0121
2010    3       2       0.4331698       99.55114
2010    3       3       0.4540718       102.7199
2010    3       4       0.3785034       89.57116
2010    3       5       0.3846761       90.79624
2010    3       6       0.5003877       110.1665
2010    3       7       0.5690698       120.1026
2010    4       0       0.5075049       108.981
2010    4       1       0.6626978       130.2694
2010    4       2       0.8418034       152.973
2010    4       3       0.9471623       164.2557
2010    4       4       0.740306        140.0745
2010    4       5       0.6159921       124.7707
2010    4       6       0.721724        139.1807
2010    4       7       0.7493464       142.6205
2010    5       0       0.6997874       136.8186
2010    5       1       0.610538        125.1338
2010    5       2       0.561052        118.2008
2010    5       3       0.5934099       122.4316
2010    5       4       0.6743887       132.7214
2010    5       5       0.6264359       127.0639
2010    5       6       0.7313698       141.3148
2010    5       7       0.8025137       150.2406
2010    6       0       0.7439055       143.4183
2010    6       1       0.6150655       126.3642
2010    6       2       0.5108033       110.6095
2010    6       3       0.4831016       106.0705
2010    6       4       0.4143794       94.725
2010    6       5       0.4252939       95.46094
2010    6       6       0.5646067       118.4848
2010    6       7       0.527971        113.5332
2010    7       0       0.3466253       83.12916
2010    7       1       0.2716377       68.87636
2010    7       2       0.2889811       72.78028
2010    7       3       0.3197884       78.17238
2010    7       4       0.3925608       91.07544
2010    7       5       0.4071712       93.80135
2010    7       6       0.434656        98.78356
2010    7       7       0.4522504       102.4231
2010    8       0       0.4096455       95.04363
2010    8       1       0.3850593       90.4599
2010    8       2       0.3637243       86.16712
2010    8       3       0.3576388       84.66713
2010    8       4       0.3465254       82.6496
2010    8       5       0.344369        82.66232
2010    8       6       0.4211856       97.1398
2010    8       7       0.498883        110.5028
2010    9       0       0.4498944       102.0551
2010    9       1       0.4851705       107.9383
2010    9       2       0.5653469       120.631
2010    9       3       0.5833821       123.2845
2010    9       4       0.5700459       121.307
2010    9       5       0.6498645       133.2401
2010    9       6       0.7352588       144.7976
2010    9       7       0.6417816       132.5601
2010    10      0       0.5847839       124.0983
2010    10      1       0.7324974       145.0622
2010    10      2       0.9189293       167.7779
2010    10      3       1.005523        176.6649
2010    10      4       0.9440287       170.4904
2010    10      5       1.012008        177.2967
2010    10      6       1.240055        197.0046
2010    10      7       1.458529        211.9919
2010    11      0       1.387045        207.4877
2010    11      1       1.194779        192.5222
2010    11      2       1.002299        174.8891
2010    11      3       0.8866002       163.6108
2010    11      4       0.8017634       154.3033
2010    11      5       0.7952125       153.6355
2010    11      6       0.9382279       170.1753
2010    11      7       0.9509404       171.0457
2010    12      0       0.6517805       134.3845
2010    12      1       0.5689875       121.8709
2010    12      2       0.8391092       157.6347
2010    12      3       1.034627        179.9626
2010    12      4       1.180942        192.8816
2010    12      5       1.481901        213.1803
2010    12      6       1.633834        221.5505
2010    12      7       1.334647        201.8933
2010    13      0       0.8431399       155.3674
2010    13      1       0.7712078       145.6563
2010    13      2       0.807289        148.9517
2010    13      3       0.8030859       149.2846
2010    13      4       0.7074439       136.915
2010    13      5       0.689287        135.3686
2010    13      6       0.7663394       146.2502
2010    13      7       0.7403435       143.8245
2010    14      0       0.6483066       131.3236
2010    14      1       0.5812725       120.8069
2010    14      2       0.598427        121.6968
2010    14      3       0.6604692       129.2445
2010    14      4       0.6764278       130.9966
2010    14      5       0.6165225       123.4744
2010    14      6       0.790371        145.8257
2010    14      7       0.8839583       157.543
2010    15      0       0.9122664       161.7078
2010    15      1       0.7653451       146.0963
2010    15      2       0.5429048       116.3028
2010    15      3       0.3692901       87.53406
2010    15      4       0.2741472       69.29045
2010    15      5       0.2758993       69.63682
2010    15      6       0.3059627       75.82912
2010    15      7       0.3098665       76.7222
2010    16      0       0.1969389       53.04592
2010    16      1       0.183248        49.62051
2010    16      2       0.2199708       56.51605
2010    16      3       0.1961262       51.7562
2010    16      4       0.2403947       60.70182
2010    16      5       0.2748308       68.03775
2010    16      6       0.3605715       84.0177
2010    16      7       0.4347649       96.76188
2010    17      0       0.416853        93.22214
2010    17      1       0.3679945       85.08045
2010    17      2       0.3101047       75.35145
2010    17      3       0.2615819       66.25396
2010    17      4       0.2601623       66.23628
2010    17      5       0.3681627       86.95774
2010    17      6       0.5060975       110.3997
2010    17      7       0.6528595       131.8759
2010    18      0       0.6592432       132.8327
2010    18      1       0.6190489       127.6087
2010    18      2       0.6102344       126.5554
2010    18      3       0.6212914       128.4934
2010    18      4       0.5795896       122.6336
2010    18      5       0.6014183       126.0047
2010    18      6       0.6646253       134.7945
2010    18      7       0.6903499       138.854
2010    19      0       0.5921419       124.5156
2010    19      1       0.4257527       98.39182
2010    19      2       0.3944344       92.58206
2010    19      3       0.3812929       89.66057
2010    19      4       0.3700698       87.34921
2010    19      5       0.4240847       96.59527
2010    19      6       0.5122726       111.385
2010    19      7       0.5882317       123.4081
2010    20      0       0.6610259       133.1468
2010    20      1       0.7054219       138.5134
2010    20      2       0.6514428       131.1143
2010    20      3       0.5895673       122.2252
2010    20      4       0.5297886       113.2231
2010    20      5       0.5673103       118.8038
2010    20      6       0.6898027       136.4952
2010    20      7       0.7884458       149.2881
2010    21      0       0.6168504       127.2137
2010    21      1       0.5681156       120.2922
2010    21      2       0.5387369       115.8276
2010    21      3       0.5304536       114.3812
2010    21      4       0.5473344       117.1523
2010    21      5       0.7144308       141.5137
2010    21      6       0.750102        145.7571
2010    21      7       0.9237761       165.3134
2010    22      0       0.8475759       156.6479
2010    22      1       0.9364432       166.5453
2010    22      2       0.7085365       140.2337
2010    22      3       0.5886117       123.3361
2010    22      4       0.563412        119.1794
2010    22      5       0.6135616       126.0809
2010    22      6       0.7517855       143.7041
2010    22      7       0.8111166       150.3489
2010    23      0       0.7401973       141.2089
2010    23      1       0.607459        124.3282
2010    23      2       0.6254498       126.1349
2010    23      3       0.6321757       127.5317
2010    23      4       0.6665108       131.8363
2010    23      5       0.7485037       142.0959
2010    23      6       0.8602759       155.6276
2010    23      7       0.8178394       151.0983
2010    24      0       0.7121964       138.6373
2010    24      1       0.5812703       121.1903
2010    24      2       0.6097288       125.4876
2010    24      3       0.5771664       120.6817
2010    24      4       0.4664204       103.8107
2010    24      5       0.4275621       97.79391
2010    24      6       0.5744571       121.8116
2010    24      7       0.6279474       129.8432
2010    25      0       0.3898937       92.0517
2010    25      1       0.2826436       71.71435
2010    25      2       0.3224927       79.81059
2010    25      3       0.2984462       74.34748
2010    25      4       0.285086        70.08249
2010    25      5       0.3522353       82.81059
2010    25      6       0.5016716       109.1524
2010    25      7       0.6098012       126.6006
2010    26      0       0.550565        117.7941
2010    26      1       0.4504184       101.9409
2010    26      2       0.3905092       91.88046
2010    26      3       0.2976031       74.37863
2010    26      4       0.276757        70.21324
2010    26      5       0.3466715       84.18403
2010    26      6       0.5090069       112.3607
2010    26      7       0.5604719       120.3031
2010    27      0       0.6170722       128.2186
2010    27      1       0.6437261       130.9336
2010    27      2       0.756149        143.9235
2010    27      3       1.236904        189.2189
2010    27      4       1.370807        199.8832
2010    27      5       1.318341        196.6053
2010    27      6       1.02672         173.9037
2010    27      7       0.8033761       150.851
2010    28      0       0.5298719       113.23
2010    28      1       0.469975        103.3973
2010    28      2       0.5328366       113.5469
2010    28      3       0.6665138       132.5189
2010    28      4       0.7998886       148.9718
2010    28      5       0.8055904       149.8035
2010    28      6       0.8138836       150.8923
2010    28      7       1.205052        188.5813
2010    29      0       1.46522         205.6351
2010    29      1       1.356532        197.4971
2010    29      2       1.039863        171.3345
2010    29      3       0.4487588       98.63062
2010    29      4       0.6658033       129.9608
2010    29      5       0.9520804       161.5497
2010    29      6       0.8771259       154.9967
2010    29      7       0.6308659       126.56
2010    30      0       0.4235403       95.05306
2010    30      1       0.3935107       89.01462
2010    30      2       0.5528455       114.8382
2010    30      3       0.7992253       148.1204
2010    30      4       0.9105618       161.7498
2010    30      5       0.949236        166.2142
2010    30      6       0.9734457       168.719
2010    30      7       0.9483099       167.0581
2010    31      0       0.8570477       157.9387
2010    31      1       0.8088014       152.3859
2010    31      2       0.8330826       154.9302
2010    31      3       0.9429482       167.1464
2010    31      4       0.9623751       169.5568
2010    31      5       0.9076917       163.7463
2010    31      6       0.8524685       158.3932
2010    31      7       0.8479362       158.2695
2011    1       0       0.5349776       112.7596
2011    1       1       0.6051665       123.7281
2011    1       2       0.8210208       150.5821
2011    1       3       0.7673106       144.105
2011    1       4       0.7285528       139.4839
2011    1       5       0.8000836       148.8083
2011    1       6       0.9160461       163.0008
2011    1       7       0.8486562       156.5106
2011    2       0       0.7777092       148.8745
2011    2       1       0.633563        130.1016
2011    2       2       0.5138308       112.1258
2011    2       3       0.4980366       109.7206
2011    2       4       0.573116        122.2981
2011    2       5       0.4881942       108.6123
2011    2       6       0.5703309       121.2206
2011    2       7       0.6713063       136.0652
2011    3       0       0.6707576       136.054
2011    3       1       0.6744738       137.5905
2011    3       2       0.7491467       148.0802
2011    3       3       0.8089077       155.22
2011    3       4       0.7892239       152.6866
2011    3       5       0.719902        143.5862
2011    3       6       0.9207675       166.962
2011    3       7       1.041433        178.4122
2011    4       0       0.970625        170.3759
2011    4       1       1.0868          180.8521
2011    4       2       1.048379        177.6462
2011    4       3       0.789558        150.0219
2011    4       4       0.5939569       123.5395
2011    4       5       0.7141891       137.4998
2011    4       6       0.8901091       158.345
2011    4       7       0.9129262       163.4144
2011    5       0       0.8805373       158.0124
2011    5       1       0.7735969       145.8174
2011    5       2       0.8804856       158.6662
2011    5       3       0.9101338       161.6026
2011    5       4       1.01032         172.2152
2011    5       5       1.027911        174.7594
2011    5       6       1.029344        176.1717
2011    5       7       1.04067         177.5439
2011    6       0       0.8851772       161.3022
2011    6       1       0.6962111       138.1704
2011    6       2       0.7361066       143.4314
2011    6       3       0.7801037       148.7602
2011    6       4       0.7919498       149.6169
2011    6       5       0.9089053       162.2752
2011    6       6       1.076966        179.1946
2011    6       7       1.079573        179.1927
2011    7       0       0.9643524       168.1649
2011    7       1       0.8597092       157.7781
2011    7       2       0.8008141       151.1961
2011    7       3       0.6201937       127.7109
2011    7       4       0.5280402       113.9693
2011    7       5       0.5978516       124.3598
2011    7       6       0.4616658       103.3644
2011    7       7       0.3835774       89.28384
2011    8       0       0.4026975       91.26123
2011    8       1       0.4145422       93.06037
2011    8       2       0.4180586       93.61165
2011    8       3       0.2945191       71.81124
2011    8       4       0.2683429       66.37556
2011    8       5       0.2989805       72.45791
2011    8       6       0.3031236       73.66642
2011    8       7       0.3336872       79.69401
2011    9       0       0.2457801       62.93269
2011    9       1       0.1973448       52.57716
2011    9       2       0.1974966       52.35643
2011    9       3       0.1914965       51.2662
2011    9       4       0.1892138       51.20109
2011    9       5       0.1939701       52.45809
2011    9       6       0.2353552       61.64068
2011    9       7       0.279069        70.62459
2011    10      0       0.2634561       67.48399
2011    10      1       0.3871058       91.3459
2011    10      2       0.5319468       115.0991
2011    10      3       0.5031926       109.4441
2011    10      4       0.4387836       98.49459
2011    10      5       0.4483635       99.84625
2011    10      6       0.5124863       110.3481
2011    10      7       0.5230197       112.1052
2011    11      0       0.4187306       94.53906
2011    11      1       0.4315444       96.61162
2011    11      2       0.4509917       100.0544
2011    11      3       0.4304229       96.72224
2011    11      4       0.4335337       96.95448
2011    11      5       0.5073743       108.6734
2011    11      6       0.5175678       110.3872
2011    11      7       0.5576411       116.4293
2011    12      0       0.5282557       111.8247
2011    12      1       0.4582592       100.3546
2011    12      2       0.4555118       99.57008
2011    12      3       0.4069103       91.79256
2011    12      4       0.2948404       72.11328
2011    12      5       0.3532709       83.17495
2011    12      6       0.5579033       116.1419
2011    12      7       0.5252771       111.0419
2011    13      0       0.601313        121.1133
2011    13      1       0.7140667       136.2203
2011    13      2       1.111193        177.3411
2011    13      3       1.199122        183.8709
2011    13      4       1.003445        167.3034
2011    13      5       1.12205         178.3499
2011    13      6       1.394338        199.1102
2011    13      7       1.151752        181.7061
2011    14      0       1.200408        185.4648
2011    14      1       1.54909         208.8405
2011    14      2       1.508546        206.6217
2011    14      3       1.551788        208.5277
2011    14      4       1.402708        199.5035
2011    14      5       1.355383        196.0875
2011    14      6       1.202989        185.8132
2011    14      7       1.099615        178.4492
2011    15      0       0.9962317       169.7672
2011    15      1       0.8162536       151.7165
2011    15      2       0.7024459       138.5176
2011    15      3       0.6421312       130.5651
2011    15      4       0.6547056       132.02
2011    15      5       0.6614095       132.8262
2011    15      6       0.7395384       143.5092
2011    15      7       0.6865126       137.4592
2011    16      0       0.5084218       111.9214
2011    16      1       0.7430237       144.4516
2011    16      2       0.9025366       163.0084
2011    16      3       0.9473645       167.8339
2011    16      4       0.9868291       172.0134
2011    16      5       1.12893         185.0409
2011    16      6       1.28872         197.5286
2011    16      7       1.317967        198.1446
2011    17      0       1.015083        172.3975
2011    17      1       0.7998746       149.0297
2011    17      2       0.7527991       142.4506
2011    17      3       0.7470141       141.2064
2011    17      4       0.7762928       145.774
2011    17      5       0.8728512       158.0724
2011    17      6       1.035261        175.4255
2011    17      7       0.8587494       157.2446
2011    18      0       0.6377365       129.6531
2011    18      1       0.5988742       124.1338
2011    18      2       0.7797737       146.5806
2011    18      3       0.7309517       141.1898
2011    18      4       0.5020341       109.6582
2011    18      5       0.4976644       109.1016
2011    18      6       0.6196633       128.2265
2011    18      7       0.5747072       122.2806
2011    19      0       0.3930253       92.93564
2011    19      1       0.3482423       84.63756
2011    19      2       0.3984138       93.63651
2011    19      3       0.3721384       89.09614
2011    19      4       0.3779031       90.02604
2011    19      5       0.4799266       107.929
2011    19      6       0.5692829       122.461
2011    19      7       0.6000117       127.415
2011    20      0       0.5877899       125.3724
2011    20      1       0.5284789       116.2605
2011    20      2       0.5033243       112.0233
2011    20      3       0.4924774       109.9911
2011    20      4       0.4956913       110.1379
2011    20      5       0.5559355       119.6707
2011    20      6       0.5757531       123.2123
2011    20      7       0.6359798       132.9029
2011    21      0       0.5455837       119.7218
2011    21      1       0.4466508       103.5203
2011    21      2       0.2762201       70.6233
2011    21      3       0.3815178       90.20771
2011    21      4       0.533327        115.3033
2011    21      5       0.5824564       122.7396
2011    21      6       0.7954068       151.934
2011    21      7       0.9238804       166.8092
2011    22      0       0.6910394       138.3654
2011    22      1       0.5563199       119.1902
2011    22      2       0.5804698       122.8002
2011    22      3       0.6716533       135.2308
2011    22      4       0.6706754       134.6028
2011    22      5       0.6715562       135.1218
2011    22      6       0.7638398       147.69
2011    22      7       0.7591348       147.3437
2011    23      0       0.6234524       129.2415
2011    23      1       0.5999885       126.3545
2011    23      2       0.6724372       137.0809
2011    23      3       0.7699855       149.4892
2011    23      4       0.7240676       143.4051
2011    23      5       0.6317425       130.5337
2011    23      6       0.7931472       151.2578
2011    23      7       0.800007        152.4131
2011    24      0       0.8455147       157.4943
2011    24      1       0.8065335       152.4208
2011    24      2       0.8465258       155.954
2011    24      3       0.9369597       165.1802
2011    24      4       0.6874542       136.6793
2011    24      5       0.5866959       123.3127
2011    24      6       0.5627245       120.1301
2011    24      7       0.6064703       126.2892
2011    25      0       0.5176536       112.4134
2011    25      1       0.4048658       92.6689
2011    25      2       0.4045554       92.82783
2011    25      3       0.3976713       91.79115
2011    25      4       0.3833478       89.40138
2011    25      5       0.386283        90.29814
2011    25      6       0.4455059       101.8833
2011    25      7       0.4323026       99.7507
2011    26      0       0.3303604       80.44604
2011    26      1       0.3369071       81.56303
2011    26      2       0.3138278       77.18862
2011    26      3       0.286157        71.93198
2011    26      4       0.2229809       59.01984
2011    26      5       0.2240674       59.41983
2011    26      6       0.297311        74.09353
2011    26      7       0.2639197       67.10737
2011    27      0       0.1904976       52.02335
2011    27      1       0.1999806       54.00303
2011    27      2       0.1789429       49.4703
2011    27      3       0.1886347       51.47146
2011    27      4       0.1927917       52.25285
2011    27      5       0.2508303       64.24376
2011    27      6       0.356513        85.37276
2011    27      7       0.3371195       82.31926
2011    28      0       0.2854321       71.92327
2011    28      1       0.2716843       68.74709
2011    28      2       0.2200651       58.17873
2011    28      3       0.1893271       51.7947
2011    28      4       0.1980776       53.74696
2011    28      5       0.2553589       65.52823
2011    28      6       0.3230061       79.2055
2011    28      7       0.3435056       83.14258
2011    29      0       0.3144427       77.35053
2011    29      1       0.2893564       72.44344
2011    29      2       0.2711592       68.8812
2011    29      3       0.2421526       62.98735
2011    29      4       0.1911707       52.2689
2011    29      5       0.2317651       61.30123
2011    29      6       0.3150516       78.5078
2011    29      7       0.3963434       93.9163
2011    30      0       0.3370984       83.03761
2011    30      1       0.2247353       60.35421
2011    30      2       0.222961        59.98046
2011    30      3       0.2050211       56.01314
2011    30      4       0.1640164       46.65049
2011    30      5       0.1671794       47.44437
2011    30      6       0.3207229       80.3355
2011    30      7       0.4493851       104.1243
2011    31      0       0.4106903       97.17144
2011    31      1       0.397216        94.8806
2011    31      2       0.3838295       92.42299
2011    31      3       0.323094        80.37992
2011    31      4       0.2736357       69.74758
2011    31      5       0.2989905       74.57478
2011    31      6       0.465762        105.2867
2011    31      7       0.5503375       119.0173
2012    1       0       0.3940046       91.41053
2012    1       1       0.3430834       82.09884
2012    1       2       0.2862004       69.96513
2012    1       3       0.3737987       85.36232
2012    1       4       0.7004077       132.6341
2012    1       5       0.7481886       139.0705
2012    1       6       0.782367        142.8896
2012    1       7       0.6516475       127.8045
2012    2       0       0.5739908       116.4361
2012    2       1       0.2805728       69.69396
2012    2       2       0.1795077       49.15906
2012    2       3       0.1476323       41.86604
2012    2       4       0.1726327       46.99222
2012    2       5       0.2321339       59.85445
2012    2       6       0.3770052       88.56217
2012    2       7       0.3581508       84.74385
2012    3       0       0.2942208       72.34773
2012    3       1       0.2533997       64.08468
2012    3       2       0.2240066       57.99713
2012    3       3       0.1910902       51.01889
2012    3       4       0.1811758       49.42186
2012    3       5       0.1826334       50.11712
2012    3       6       0.2243693       59.26089
2012    3       7       0.2982523       74.02815
2012    4       0       0.353933        83.29316
2012    4       1       0.3731553       85.96967
2012    4       2       0.3815811       88.08252
2012    4       3       0.4163276       94.1564
2012    4       4       0.5692107       118.3262
2012    4       5       0.7846666       146.5843
2012    4       6       0.9765325       167.4143
2012    4       7       1.182336        185.2929
2012    5       0       1.323168        195.9838
2012    5       1       1.607273        214.3847
2012    5       2       1.878735        226.7745
2012    5       3       2.03209         232.9516
2012    5       4       2.171032        238.1348
2012    5       5       2.280982        241.6101
2012    5       6       2.415314        245.3398
2012    5       7       2.410938        245.3357
2012    6       0       2.164229        238.2622
2012    6       1       1.837191        226.2068
2012    6       2       1.782695        223.6443
2012    6       3       1.857732        226.1362
2012    6       4       2.099559        234.3554
2012    6       5       1.93193         229.4001
2012    6       6       2.023696        232.7243
2012    6       7       1.901489        228.1137
2012    7       0       1.83893         225.6341
2012    7       1       1.787006        224.0442
2012    7       2       1.781312        223.8421
2012    7       3       1.746057        221.7678
2012    7       4       1.683349        218.5461
2012    7       5       1.564362        212.2002
2012    7       6       1.700128        219.3004
2012    7       7       1.47344         207.2783
2012    8       0       1.076972        178.2384
2012    8       1       0.777289        147.2634
2012    8       2       0.6034148       124.3086
2012    8       3       0.5063482       109.541
2012    8       4       0.2583548       65.67069
2012    8       5       0.2849605       71.13156
2012    8       6       0.4577004       102.2199
2012    8       7       0.719557        140.0163
2012    9       0       0.6865504       135.8002
2012    9       1       0.574095        120.2492
2012    9       2       0.9825521       168.3809
2012    9       3       1.549718        210.2879
2012    9       4       1.239531        190.6015
2012    9       5       0.8108469       151.3512
2012    9       6       0.6740853       134.836
2012    9       7       0.71079         139.8165
2012    10      0       0.6522852       132.7508
2012    10      1       0.5874455       124.0252
2012    10      2       0.4968087       109.993
2012    10      3       0.4509609       102.0624
2012    10      4       0.4025614       93.49725
2012    10      5       0.4047916       93.927
2012    10      6       0.4767557       106.6729
2012    10      7       0.4972259       110.7279
2012    11      0       0.4072249       95.70585
2012    11      1       0.4253174       99.4254
2012    11      2       0.3949523       93.87788
2012    11      3       0.3513138       85.49429
2012    11      4       0.3129183       77.98917
2012    11      5       0.3216598       79.76852
2012    11      6       0.3731171       89.81532
2012    11      7       0.3939686       93.89953
2012    12      0       0.3704044       89.27603
2012    12      1       0.4148886       97.3505
2012    12      2       0.347852        84.72499
2012    12      3       0.3387161       82.18431
2012    12      4       0.4210553       95.80054
2012    12      5       0.4894376       106.942
2012    12      6       0.5428765       115.9332
2012    12      7       0.4994604       109.8528
2012    13      0       0.4701086       105.4731
2012    13      1       0.4466599       102.214
2012    13      2       0.4631563       105.462
2012    13      3       0.4980617       110.946
2012    13      4       0.3914946       92.52561
2012    13      5       0.3727405       88.38296
2012    13      6       0.4478479       101.6795
2012    13      7       0.5711475       121.517
2012    14      0       0.5634528       120.2417
2012    14      1       0.5653872       120.4021
2012    14      2       0.5121837       112.1093
2012    14      3       0.4866037       108.293
2012    14      4       0.4448763       101.1056
2012    14      5       0.5112049       111.562
2012    14      6       0.6407641       130.1702
2012    14      7       0.7545157       144.1186
2012    15      0       0.5481019       116.422
2012    15      1       0.4250484       96.63469
2012    15      2       0.3783243       88.16408
2012    15      3       0.3672411       86.33535
2012    15      4       0.3063193       75.21239
2012    15      5       0.2773283       69.2103
2012    15      6       0.4297562       96.73174
2012    15      7       0.5015164       108.2377
2012    16      0       0.4649667       102.0601
2012    16      1       0.4406501       98.68242
2012    16      2       0.4836495       105.618
2012    16      3       0.5189143       111.242
2012    16      4       0.5120267       110.6881
2012    16      5       0.5398194       115.1982
2012    16      6       0.6130688       126.1704
2012    16      7       0.6919122       136.7321
2012    17      0       0.696664        136.7855
2012    17      1       0.587239        121.5156
2012    17      2       0.5579548       116.3596
2012    17      3       0.4004956       91.58898
2012    17      4       0.3888588       89.74232
2012    17      5       0.3894795       90.46574
2012    17      6       0.4248878       97.33122
2012    17      7       0.4913272       108.3809
2012    18      0       0.4266791       97.60456
2012    18      1       0.4039046       93.97316
2012    18      2       0.401152        93.74146
2012    18      3       0.3242267       79.01721
2012    18      4       0.2956403       73.51482
2012    18      5       0.3338261       80.86991
2012    18      6       0.3788886       89.39766
2012    18      7       0.4432841       100.6437
2012    19      0       0.402           93.32401
2012    19      1       0.3653985       87.08176
2012    19      2       0.3391165       82.33211
2012    19      3       0.3468421       83.40348
2012    19      4       0.3229964       78.56318
2012    19      5       0.3991448       91.93352
2012    19      6       0.5306961       112.8866
2012    19      7       0.6839136       133.9538
2012    20      0       0.669318        130.5467
2012    20      1       0.6236469       124.0778
2012    20      2       0.6342012       125.823
2012    20      3       0.6861247       132.6804
2012    20      4       0.7601795       141.6982
2012    20      5       0.777361        144.5562
2012    20      6       0.8154324       151.1177
2012    20      7       0.7942243       148.9703
2012    21      0       0.7434315       142.3206
2012    21      1       0.8020681       149.7267
2012    21      2       0.8188524       151.0693
2012    21      3       0.9739575       166.6765
2012    21      4       1.154007        182.1312
2012    21      5       1.349294        196.7962
2012    21      6       1.603459        213.0923
2012    21      7       1.71359         218.1748
2012    22      0       1.511156        206.68
2012    22      1       1.415999        200.951
2012    22      2       1.559935        209.241
2012    22      3       1.583216        210.3735
2012    22      4       1.500523        205.7764
2012    22      5       1.470984        204.2932
2012    22      6       1.337579        196.6918
2012    22      7       1.075178        176.8107
2012    23      0       0.6010697       123.8774
2012    23      1       0.297526        73.21333
2012    23      2       0.2281058       58.85254
2012    23      3       0.2362625       59.78788
2012    23      4       0.2554581       63.53941
2012    23      5       0.3431501       79.89905
2012    23      6       0.5289527       111.6741
2012    23      7       0.7105588       136.8193
2012    24      0       0.8422521       151.276
2012    24      1       0.8082173       148.0988
2012    24      2       0.8616891       154.1247
2012    24      3       0.8509015       153.3341
2012    24      4       0.7479432       142.0169
2012    24      5       0.7627305       144.8928
2012    24      6       0.9170918       163.2683
2012    24      7       0.9561676       167.2774
2012    25      0       0.758797        145.5518
2012    25      1       0.687957        137.0126
2012    25      2       0.5506666       117.5489
2012    25      3       0.5283135       113.7891
2012    25      4       0.4691937       104.5881
2012    25      5       0.4806274       106.9108
2012    25      6       0.6477102       132.6695
2012    25      7       0.6809367       137.3938
2012    26      0       0.4931254       109.9308
2012    26      1       0.3689887       88.52099
2012    26      2       0.3720109       87.97027
2012    26      3       0.3844292       88.94519
2012    26      4       0.3711347       86.79586
2012    26      5       0.4208143       95.70899
2012    26      6       0.5562992       118.0524
2012    26      7       0.5829768       121.7225
2012    27      0       0.590352        122.4149
2012    27      1       0.6466329       129.6458
2012    27      2       0.7594922       141.9177
2012    27      3       1.228124        188.8686
2012    27      4       1.121228        180.7189
2012    27      5       0.9603453       165.7403
2012    27      6       1.24673         191.4968
2012    27      7       1.031473        174.3124
2012    28      0       0.8134954       151.5552
2012    28      1       0.708714        139.2532
2012    28      2       0.6929655       137.6488
2012    28      3       0.7270054       141.6616
2012    28      4       0.6787831       135.1259
2012    28      5       0.7465578       144.0767
2012    28      6       0.7580069       146.2636
2012    28      7       0.6841545       137.9579
2012    29      0       0.6695751       136.3163
2012    29      1       0.6105238       127.2579
2012    29      2       0.6225945       128.3666
2012    29      3       0.4977614       109.669
2012    29      4       0.3434073       83.12442
2012    29      5       0.2742677       70.16852
2012    29      6       0.3344482       82.5612
2012    29      7       0.4105525       96.83805
2012    30      0       0.3265566       80.98436
2012    30      1       0.3174524       79.08281
2012    30      2       0.4027317       94.30523
2012    30      3       0.5209327       113.8372
2012    30      4       0.5652805       121.0964
2012    30      5       0.5946645       126.415
2012    30      6       0.6995997       141.1385
2012    30      7       0.6301739       131.0244
2012    31      0       0.5185053       113.7935
2012    31      1       0.4597728       102.9875
2012    31      2       0.4176922       94.94849
2012    31      3       0.5135175       110.7766
2012    31      4       0.5539538       117.1306
2012    31      5       0.6016769       124.2516
2012    31      6       0.7382746       143.6423
2012    31      7       0.7787713       148.7315
2013    1       0       0.977906        163.9879
2013    1       1       1.069927        174.2052
2013    1       2       0.8153322       149.7286
2013    1       3       0.6720575       132.4328
2013    1       4       0.5711132       118.4574
2013    1       5       0.5933589       121.6852
2013    1       6       0.7059129       137.4262
2013    1       7       0.6975294       136.4296
2013    2       0       0.5944711       121.9928
2013    2       1       0.4877422       106.6666
2013    2       2       0.5494849       116.5066
2013    2       3       0.6163495       125.6925
2013    2       4       0.622897        125.7918
2013    2       5       0.6426817       128.495
2013    2       6       0.7634402       143.3844
2013    2       7       1.053966        172.5712
2013    3       0       0.8967839       157.1668
2013    3       1       0.7193752       138.2797
2013    3       2       0.6612096       131.0404
2013    3       3       0.5508523       115.6348
2013    3       4       0.4409719       98.93246
2013    3       5       0.3993412       92.15552
2013    3       6       0.4272056       97.18786
2013    3       7       0.3906403       91.24054
2013    4       0       0.2592416       65.95658
2013    4       1       0.213975        56.16801
2013    4       2       0.2589703       64.80971
2013    4       3       0.3723844       85.65898
2013    4       4       0.4384551       97.30085
2013    4       5       0.4672708       102.6397
2013    4       6       0.4393193       98.74157
2013    4       7       0.4482944       100.5204
2013    5       0       0.5451027       116.046
2013    5       1       0.5369976       115.6471
2013    5       2       0.4429408       100.5697
2013    5       3       0.3689133       87.64959
2013    5       4       0.4140279       96.23802
2013    5       5       0.4613414       104.5627
2013    5       6       0.5214556       114.2955
2013    5       7       0.5758483       122.8863
2013    6       0       0.5539991       119.476
2013    6       1       0.4892749       109.1772
2013    6       2       0.4835833       108.4539
2013    6       3       0.5326774       116.3341
2013    6       4       0.4624055       105.0399
2013    6       5       0.4822068       108.5487
2013    6       6       0.5499938       119.215
2013    6       7       0.6830722       138.2606
2013    7       0       0.6861932       138.3178
2013    7       1       0.7008638       140.0634
2013    7       2       0.7652958       148.2088
2013    7       3       0.8202586       154.3241
2013    7       4       0.717115        141.9541
2013    7       5       0.7109559       141.425
2013    7       6       0.8990087       164.2999
2013    7       7       0.8016927       153.4819
2013    8       0       0.5705525       121.5464
2013    8       1       0.4135618       93.53581
2013    8       2       0.3798532       86.77906
2013    8       3       0.3098656       74.64909
2013    8       4       0.3428109       80.04665
2013    8       5       0.4484826       98.01634
2013    8       6       0.3653196       86.1519
2013    8       7       0.3935527       92.44688
2013    9       0       0.3601228       86.25965
2013    9       1       0.2870989       72.11714
2013    9       2       0.2571545       66.00872
2013    9       3       0.2595226       66.32893
2013    9       4       0.2368626       61.8892
2013    9       5       0.2311113       60.86951
2013    9       6       0.2886099       73.11642
2013    9       7       0.3104502       77.70791
2013    10      0       0.2275879       60.58833
2013    10      1       0.1941949       53.16103
2013    10      2       0.1687854       47.42444
2013    10      3       0.1421573       41.14535
2013    10      4       0.1647492       45.94343
2013    10      5       0.2246777       58.93275
2013    10      6       0.3192944       77.8728
2013    10      7       0.4425252       100.3609
2013    11      0       0.4119798       94.95527
2013    11      1       0.3449731       83.05509
2013    11      2       0.4045676       94.02208
2013    11      3       0.4481715       101.3318
2013    11      4       0.3772137       89.34907
2013    11      5       0.3427327       83.53957
2013    11      6       0.3443049       83.77116
2013    11      7       0.3454963       84.18867
2013    12      0       0.2709497       69.49449
2013    12      1       0.2313304       61.16732
2013    12      2       0.2459414       64.34766
2013    12      3       0.2404646       63.094
2013    12      4       0.2300726       60.93853
2013    12      5       0.2841121       72.4862
2013    12      6       0.2865445       73.01664
2013    12      7       0.3207995       79.84529
2013    13      0       0.2472267       64.79759
2013    13      1       0.2143099       57.63788
2013    13      2       0.2433893       63.86195
2013    13      3       0.2274801       60.17651
2013    13      4       0.2223314       58.885
2013    13      5       0.2359724       61.69775
2013    13      6       0.3232987       79.7393
2013    13      7       0.3072518       76.78935
2013    14      0       0.2012255       54.73013
2013    14      1       0.1553107       44.47909
2013    14      2       0.151423        43.71272
2013    14      3       0.1552742       44.63116
2013    14      4       0.1790493       50.20394
2013    14      5       0.2451195       64.64895
2013    14      6       0.2830953       72.48052
2013    14      7       0.3537527       86.58519
2013    15      0       0.3753025       90.57077
2013    15      1       0.4619384       105.8071
2013    15      2       0.4865938       109.7164
2013    15      3       0.4570422       104.7546
2013    15      4       0.4407622       101.5412
2013    15      5       0.4152054       96.63808
2013    15      6       0.5542986       119.9537
2013    15      7       0.622616        130.2247
2013    16      0       0.517962        113.9873
2013    16      1       0.4041986       94.84977
2013    16      2       0.3657397       87.79095
2013    16      3       0.3486154       84.83741
2013    16      4       0.2919283       73.82134
2013    16      5       0.2873199       73.05225
2013    16      6       0.4540715       104.3107
2013    16      7       0.4972312       111.5193
2013    17      0       0.3594002       87.24517
2013    17      1       0.2858844       72.55436
2013    17      2       0.2746381       69.82918
2013    17      3       0.2800145       70.69464
2013    17      4       0.2476893       64.28634
2013    17      5       0.2684524       68.77761
2013    17      6       0.383582        91.33899
2013    17      7       0.3548066       85.81174
2013    18      0       0.3048989       75.64888
2013    18      1       0.3638271       87.35081
2013    18      2       0.3250992       79.71012
2013    18      3       0.2921799       71.77991
2013    18      4       0.3324802       78.71737
2013    18      5       0.435103        96.05524
2013    18      6       0.4546428       100.6215
2013    18      7       0.4163129       94.70307
2013    19      0       0.3782126       88.27558
2013    19      1       0.3359099       80.41299
2013    19      2       0.3848184       89.15025
2013    19      3       0.3955739       91.66629
2013    19      4       0.4228632       96.43538
2013    19      5       0.4282491       97.63123
2013    19      6       0.477319        106.2374
2013    19      7       0.4750165       105.7339
2013    20      0       0.4461252       99.56555
2013    20      1       0.4546103       100.4077
2013    20      2       0.5292658       112.3075
2013    20      3       0.6284446       127.1928
2013    20      4       0.7341583       141.2958
2013    20      5       1.135505        181.9217
2013    20      6       1.315238        195.7052
2013    20      7       1.267622        192.707
2013    21      0       0.7922279       148.8126
2013    21      1       0.3971553       91.84709
2013    21      2       0.3317346       80.06003
2013    21      3       0.3037319       74.86409
2013    21      4       0.2662498       67.41453
2013    21      5       0.2673643       67.15787
2013    21      6       0.3622876       85.40029
2013    21      7       0.4691714       103.2398
2013    22      0       0.4808179       104.6766
2013    22      1       0.6244748       124.7587
2013    22      2       0.566478        117.3788
2013    22      3       0.5219848       111.1235
2013    22      4       0.641748        127.6862
2013    22      5       0.8420344       152.2674
2013    22      6       0.8564703       154.7384
2013    22      7       0.8547363       155.09
2013    23      0       0.8144996       150.1546
2013    23      1       0.7653827       144.5431
2013    23      2       0.6703514       132.4357
2013    23      3       0.5848026       120.6812
2013    23      4       0.5552751       116.5007
2013    23      5       0.5516201       116.0117
2013    23      6       0.5491892       115.6619
2013    23      7       0.5227379       111.3859
2013    24      0       0.5717717       118.1242
2013    24      1       0.720991        138.156
2013    24      2       0.8224          150.9989
2013    24      3       0.9126137       161.02
2013    24      4       1.266194        191.4837
2013    24      5       1.406001        201.0047
2013    24      6       0.8562672       154.0861
2013    24      7       0.897533        159.2329
2013    25      0       0.9621139       165.8925
2013    25      1       0.9942234       169.5149
2013    25      2       0.9088643       161.5897
2013    25      3       0.6897973       136.3887
2013    25      4       0.5306645       113.6395
2013    25      5       0.4881906       107.3826
2013    25      6       0.5665889       119.7924
2013    25      7       0.5988632       124.6694
2013    26      0       0.5160315       111.9914
2013    26      1       0.4208426       96.84337
2013    26      2       0.4266934       97.9929
2013    26      3       0.3777152       89.43934
2013    26      4       0.280796        71.23782
2013    26      5       0.2230055       59.06383
2013    26      6       0.3646007       87.19164
2013    26      7       0.4825853       107.1749
2013    27      0       0.4372163       99.51846
2013    27      1       0.4627652       104.6563
2013    27      2       0.5132085       112.6326
2013    27      3       0.5365016       116.2908
2013    27      4       0.6302026       129.8909
2013    27      5       0.6774989       136.3658
2013    27      6       0.6156833       129.1022
2013    27      7       0.723511        144.6601
2013    28      0       0.7155291       143.2722
2013    28      1       0.6700379       135.9657
2013    28      2       0.7988453       151.7996
2013    28      3       0.9095008       164.1277
2013    28      4       0.8569714       158.1647
2013    28      5       0.7258496       143.6554
2013    28      6       0.5951259       126.3805
2013    28      7       0.5108987       112.8546
2013    29      0       0.4361715       99.97108
2013    29      1       0.3558629       86.06984
2013    29      2       0.3282433       80.72481
2013    29      3       0.3588378       85.76767
2013    29      4       0.3189221       77.78347
2013    29      5       0.3356176       81.71981
2013    29      6       0.4363394       99.67883
2013    29      7       0.5187151       113.3515
2013    30      0       0.659641        132.9723
2013    30      1       0.889131        160.3414
2013    30      2       0.9751184       167.9721
2013    30      3       0.9418318       164.1283
2013    30      4       0.9182666       161.0519
2013    30      5       1.065087        175.4248
2013    30      6       1.196199        186.8518
2013    30      7       1.2842          194.574
2013    31      0       1.122892        182.5056
2013    31      1       1.083917        179.7308
2013    31      2       1.035356        174.4185
2013    31      3       0.9860416       168.77
2013    31      4       0.9204374       161.9452
2013    31      5       1.172779        185.2912
2013    31      6       1.663505        216.3744
2013    31      7       1.809356        223.3698
2014    1       0       0.719847        141.6968
2014    1       1       0.599221        124.4095
2014    1       2       0.6237158       128.3334
2014    1       3       0.7005443       138.9481
2014    1       4       0.703139        139.6106
2014    1       5       0.6698562       135.9337
2014    1       6       0.7438267       146.5769
2014    1       7       0.7837142       152.0467
2014    2       0       0.7031957       141.6873
2014    2       1       0.5936566       126.4016
2014    2       2       0.5355538       117.3689
2014    2       3       0.5110478       113.2429
2014    2       4       0.5937059       125.7644
2014    2       5       0.6980473       140.6124
2014    2       6       0.7481769       147.5065
2014    2       7       0.8218386       156.6541
2014    3       0       0.7987091       153.7245
2014    3       1       0.7742063       150.4291
2014    3       2       0.7441312       146.6587
2014    3       3       0.6324415       131.4423
2014    3       4       0.5500196       118.7643
2014    3       5       0.6193575       128.95
2014    3       6       0.713039        142.0595
2014    3       7       0.8949084       162.9777
2014    4       0       1.256099        194.253
2014    4       1       1.717605        221.5712
2014    4       2       1.809566        224.8975
2014    4       3       1.522164        209.5926
2014    4       4       1.08049         177.7968
2014    4       5       1.361053        198.89
2014    4       6       1.321553        195.6126
2014    4       7       1.274729        193.0818
2014    5       0       1.043805        174.659
2014    5       1       0.9300638       163.7855
2014    5       2       0.7710405       145.8443
2014    5       3       0.8134518       149.5183
2014    5       4       0.6621897       131.5162
2014    5       5       0.3900249       91.80523
2014    5       6       0.4235177       98.50983
2014    5       7       0.470256        106.9431
2014    6       0       0.2112833       56.96395
2014    6       1       0.2059856       55.32982
2014    6       2       0.2381141       62.03322
2014    6       3       0.2691641       68.52979
2014    6       4       0.311712        77.40726
2014    6       5       0.2872117       73.10035
2014    6       6       0.2794955       71.71286
2014    6       7       0.3214475       80.0359
2014    7       0       0.263378        68.28701
2014    7       1       0.2555232       66.52864
2014    7       2       0.2826792       72.00602
2014    7       3       0.3682033       88.65661
2014    7       4       0.3617063       87.18125
2014    7       5       0.3926954       92.77189
2014    7       6       0.4173152       97.18672
2014    7       7       0.4377881       100.6812
2014    8       0       0.4067389       94.87189
2014    8       1       0.3671688       87.5826
2014    8       2       0.3636294       87.05324
2014    8       3       0.3878591       91.40746
2014    8       4       0.4311705       98.58803
2014    8       5       0.454335        102.3605
2014    8       6       0.5072066       110.8144
2014    8       7       0.5716786       120.2554
2014    9       0       0.5143442       110.9496
2014    9       1       0.4664535       103.3203
2014    9       2       0.3703479       86.57609
2014    9       3       0.3123831       75.56771
2014    9       4       0.2874968       70.63154
2014    9       5       0.3032373       73.75688
2014    9       6       0.3394849       80.98717
2014    9       7       0.3436064       81.98227
2014    10      0       0.2842581       70.75709
2014    10      1       0.2505049       64.51946
2014    10      2       0.2329901       60.83815
2014    10      3       0.231858        60.31642
2014    10      4       0.2384952       61.57171
2014    10      5       0.2679081       67.50682
2014    10      6       0.2554894       65.40835
2014    10      7       0.2436482       62.78341
2014    11      0       0.2131886       55.87014
2014    11      1       0.190718        51.3507
2014    11      2       0.1951373       52.29649
2014    11      3       0.1857362       50.26334
2014    11      4       0.1932474       51.76831
2014    11      5       0.2400217       61.5134
2014    11      6       0.300508        73.32594
2014    11      7       0.3070982       75.08715
2014    12      0       0.261392        65.87338
2014    12      1       0.2513558       63.36515
2014    12      2       0.2626106       65.43621
2014    12      3       0.3118805       74.34955
2014    12      4       0.3340537       78.95956
2014    12      5       0.3302568       79.04584
2014    12      6       0.379944        88.39575
2014    12      7       0.3704374       86.38386
2014    13      0       0.4591784       100.0531
2014    13      1       0.4459884       98.73057
2014    13      2       0.6786218       131.6069
2014    13      3       0.5777127       118.1785
2014    13      4       0.4492744       99.87864
2014    13      5       0.4260835       96.48899
2014    13      6       0.4607251       102.4579
2014    13      7       0.4484046       101.1187
2014    14      0       0.3663604       86.59494
2014    14      1       0.3619423       86.0356
2014    14      2       0.4357959       98.96096
2014    14      3       0.5008341       108.8385
2014    14      4       0.3851281       89.81355
2014    14      5       0.3717846       87.76864
2014    14      6       0.3560047       84.89949
2014    14      7       0.3334559       80.09462
2014    15      0       0.3247256       77.07972
2014    15      1       0.4389414       97.6544
2014    15      2       0.4972774       107.6455
2014    15      3       0.5239386       111.3404
2014    15      4       0.5199098       110.8951
2014    15      5       0.4648062       102.1694
2014    15      6       0.5769986       120.4765
2014    15      7       0.4831313       105.6048
2014    16      0       0.3208478       77.15268
2014    16      1       0.3665341       84.37991
2014    16      2       0.276022        68.23003
2014    16      3       0.3535236       81.05381
2014    16      4       0.4930371       103.6235
2014    16      5       0.3863196       87.29602
2014    16      6       0.4591114       100.0179
2014    16      7       0.5478485       113.8088
2014    17      0       0.660872        128.2882
2014    17      1       0.7524463       139.9107
2014    17      2       0.6763592       129.8836
2014    17      3       0.7012166       132.6426
2014    17      4       0.4927707       106.1347
2014    17      5       0.3335291       79.073
2014    17      6       0.4571829       100.1667
2014    17      7       0.5373072       112.8774
2014    18      0       0.6235891       124.2997
2014    18      1       0.7951086       146.472
2014    18      2       0.9275396       161.6454
2014    18      3       1.155125        182.7602
2014    18      4       1.444726        203.4319
2014    18      5       1.47069         205.2081
2014    18      6       1.753978        221.869
2014    18      7       1.565102        213.8744
2014    19      0       1.430447        206.6961
2014    19      1       1.419925        207.1297
2014    19      2       1.293293        198.5181
2014    19      3       0.9963659       174.0528
2014    19      4       0.8990996       163.1576
2014    19      5       0.7231065       141.7652
2014    19      6       0.7862552       149.6152
2014    19      7       0.9233779       164.0983
2014    20      0       0.861399        157.3778
2014    20      1       0.7944938       149.7721
2014    20      2       1.049634        175.5788
2014    20      3       1.288494        196.0785
2014    20      4       1.340913        201.5959
2014    20      5       1.264344        197.8196
2014    20      6       1.312146        202.2955
2014    20      7       1.291079        201.0964
2014    21      0       1.289677        201.2571
2014    21      1       1.169974        192.4233
2014    21      2       1.050818        181.7524
2014    21      3       0.9836999       175.2159
2014    21      4       0.9636372       173.3203
2014    21      5       1.025903        180.2048
2014    21      6       1.174606        194.0211
2014    21      7       1.229766        198.9742
2014    22      0       0.9659792       175.314
2014    22      1       0.8143454       158.2146
2014    22      2       0.8158362       158.0833
2014    22      3       0.7955856       155.3721
2014    22      4       0.7328742       147.6065
2014    22      5       0.7205709       146.3793
2014    22      6       0.8821457       166.4882
2014    22      7       1.209597        198.2867
2014    23      0       1.004559        179.2897
2014    23      1       0.907627        168.8829
2014    23      2       0.9245278       170.1934
2014    23      3       0.9416532       171.4406
2014    23      4       0.9288312       169.9372
2014    23      5       1.142472        190.6813
2014    23      6       1.382347        209.4469
2014    23      7       1.461322        215.2439
2014    24      0       1.250511        200.0759
2014    24      1       1.021835        179.7286
2014    24      2       0.8625392       163.0541
2014    24      3       0.6733131       139.2551
2014    24      4       0.556738        122.1201
2014    24      5       0.6209448       132.0157
2014    24      6       0.6321915       133.9123
2014    24      7       0.6653232       139.0916
2014    25      0       0.4901809       111.781
2014    25      1       0.4187761       99.32175
2014    25      2       0.5134277       116.036
2014    25      3       0.5445211       121.0929
2014    25      4       0.6120609       131.6896
2014    25      5       0.5856801       127.6838
2014    25      6       0.6334681       135.2448
2014    25      7       0.7386798       149.8307
2014    26      0       0.8466384       163.0313
2014    26      1       0.9314613       172.4883
2014    26      2       1.079058        186.5397
2014    26      3       1.235773        199.3901
2014    26      4       1.420893        212.5005
2014    26      5       1.498279        217.246
2014    26      6       1.377968        209.6041
2014    26      7       1.427741        212.5074
2014    27      0       1.463714        214.8066
2014    27      1       1.404439        209.9784
2014    27      2       1.420856        209.4788
2014    27      3       1.381331        205.4484
2014    27      4       0.8881258       162.7994
2014    27      5       0.781745        150.0434
2014    27      6       0.9234752       166.6818
2014    27      7       0.8347294       157.0087
2014    28      0       0.7163898       143.1717
2014    28      1       0.7129953       142.5541
2014    28      2       0.7912818       150.3762
2014    28      3       0.9856331       169.8346
2014    28      4       1.012715        173.4593
2014    28      5       0.8817047       161.9043
2014    28      6       0.8026588       153.5866
2014    28      7       0.8249709       156.1416
2014    29      0       0.6631755       135.381
2014    29      1       0.5592045       119.6084
2014    29      2       0.5802638       121.2493
2014    29      3       0.5873441       122.0876
2014    29      4       0.4845805       106.6602
2014    29      5       0.4697959       104.3073
2014    29      6       0.5339829       114.6123
2014    29      7       0.5820338       121.5699
2014    30      0       0.5609469       118.0573
2014    30      1       0.5382553       114.3564
2014    30      2       0.3986637       90.73774
2014    30      3       0.305826        73.07067
2014    30      4       0.2532576       63.19056
2014    30      5       0.2762147       67.5669
2014    30      6       0.4839394       104.3495
2014    30      7       0.5007011       108.1297
2014    31      0       0.4335569       97.51234
2014    31      1       0.3301199       79.5706
2014    31      2       0.2807558       70.53973
2014    31      3       0.2648497       67.36229
2014    31      4       0.2335829       60.62148
2014    31      5       0.2759248       69.46361
2014    31      6       0.3955952       92.52484
2014    31      7       0.4330176       99.00261
2015    1       0       1.744945        222.8346
2015    1       1       1.933453        230.4896
2015    1       2       2.001203        233.0382
2015    1       3       2.071781        235.7697
2015    1       4       2.173602        238.8145
2015    1       5       1.955245        230.713
2015    1       6       1.837063        225.9022
2015    1       7       1.680758        218.8318
2015    2       0       1.240853        191.7144
2015    2       1       0.9296135       163.8985
2015    2       2       0.7187623       140.5918
2015    2       3       0.5650167       120.0887
2015    2       4       0.4191148       96.25026
2015    2       5       0.3389498       81.32468
2015    2       6       0.5872789       122.5301
2015    2       7       0.88483         159.7332
2015    3       0       0.8293617       153.8486
2015    3       1       0.9701819       170.5251
2015    3       2       0.9635578       169.6875
2015    3       3       1.166305        186.9614
2015    3       4       1.462958        208.4914
2015    3       5       1.56496         215.3391
2015    3       6       1.72873         224.8577
2015    3       7       2.051973        237.4813
2015    4       0       2.372041        247.1988
2015    4       1       2.068125        237.3643
2015    4       2       1.866846        229.6544
2015    4       3       1.638357        218.5163
2015    4       4       1.466528        208.2108
2015    4       5       1.47579         208.1813
2015    4       6       1.506316        210.3407
2015    4       7       1.633553        217.3524
2015    5       0       1.781896        224.9227
2015    5       1       1.929481        231.766
2015    5       2       1.580216        214.6569
2015    5       3       1.483217        206.7166
2015    5       4       1.051567        174.3422
2015    5       5       1.066174        173.7387
2015    5       6       1.383389        198.5155
2015    5       7       1.45143         203.039
2015    6       0       1.298687        192.3961
2015    6       1       1.122542        179.1631
2015    6       2       0.9530145       164.5204
2015    6       3       1.052537        172.6151
2015    6       4       1.189242        184.5689
2015    6       5       0.8338838       152.8613
2015    6       6       0.934013        162.8481
2015    6       7       0.9123155       160.6797
2015    7       0       0.733735        140.9455
2015    7       1       0.6145079       125.4016
2015    7       2       0.3705435       86.72823
2015    7       3       0.2349243       60.43586
2015    7       4       0.177029        48.57633
2015    7       5       0.2845971       70.72772
2015    7       6       0.3936369       91.01747
2015    7       7       0.3367837       80.71269
2015    8       0       0.2158304       56.70176
2015    8       1       0.1379486       39.41749
2015    8       2       0.1453345       40.70144
2015    8       3       0.2151952       54.98878
2015    8       4       0.3613326       81.34381
2015    8       5       0.4949992       103.4343
2015    8       6       0.5383185       110.5992
2015    8       7       0.5503247       113.5148
2015    9       0       0.4227632       93.90915
2015    9       1       0.3246152       77.33415
2015    9       2       0.2340722       60.4129
2015    9       3       0.1360736       39.48348
2015    9       4       0.1226325       36.26719
2015    9       5       0.1416597       40.57485
2015    9       6       0.266535        67.62928
2015    9       7       0.3539145       84.3447
2015    10      0       0.3146317       77.02395
2015    10      1       0.3256111       79.41079
2015    10      2       0.4249256       97.4742
2015    10      3       0.4601722       103.2281
2015    10      4       0.3883316       90.8393
2015    10      5       0.3021911       74.79181
2015    10      6       0.3447201       83.14291
2015    10      7       0.3447118       83.48454
2015    11      0       0.1870023       51.12448
2015    11      1       0.113177        34.0418
2015    11      2       0.1063686       32.45838
2015    11      3       0.1081995       32.79676
2015    11      4       0.1067754       32.45958
2015    11      5       0.1355621       39.05946
2015    11      6       0.1899351       51.04605
2015    11      7       0.264771        66.6327
2015    12      0       0.3147048       74.86046
2015    12      1       0.4944456       104.5921
2015    12      2       0.7440459       138.0659
2015    12      3       0.8468185       150.7076
2015    12      4       0.7504146       140.682
2015    12      5       0.5908571       120.4718
2015    12      6       0.6522385       129.444
2015    12      7       0.6899328       134.4928
2015    13      0       0.70201         135.4312
2015    13      1       1.047251        172.9061
2015    13      2       1.400339        200.856
2015    13      3       1.414819        203.0043
2015    13      4       1.324615        197.5283
2015    13      5       1.321381        197.8776
2015    13      6       1.575219        213.4532
2015    13      7       1.688316        219.2167
2015    14      0       1.689028        218.7606
2015    14      1       1.769944        221.6242
2015    14      2       1.52887         208.3686
2015    14      3       1.571034        209.6887
2015    14      4       1.587903        211.1531
2015    14      5       1.153215        180.3744
2015    14      6       1.289057        188.6517
2015    14      7       1.407537        197.0771
2015    15      0       1.276374        189.7669
2015    15      1       1.119703        177.8032
2015    15      2       0.9877535       166.2511
2015    15      3       0.7557726       141.6068
2015    15      4       0.4427515       97.70837
2015    15      5       0.3319331       78.88912
2015    15      6       0.4106033       93.00339
2015    15      7       0.4884185       105.6875
2015    16      0       0.4026398       90.76102
2015    16      1       0.4176028       92.6252
2015    16      2       0.5062404       106.5812
2015    16      3       0.5655922       115.6114
2015    16      4       0.6108685       122.0914
2015    16      5       0.7340591       138.2054
2015    16      6       0.9051895       158.1162
2015    16      7       0.9271193       161.2934
2015    17      0       0.7566849       142.8714
2015    17      1       0.6026452       123.6099
2015    17      2       0.57164         119.4418
2015    17      3       0.587828        121.7752
2015    17      4       0.6879856       135.2255
2015    17      5       0.8394535       153.1249
2015    17      6       0.7252543       140.4803
2015    17      7       0.7040816       137.8283
2015    18      0       0.5105067       110.7702
2015    18      1       0.4576796       101.8521
2015    18      2       0.5505783       115.0793
2015    18      3       0.5606724       116.6377
2015    18      4       0.5134096       110.0279
2015    18      5       0.6408214       128.9542
2015    18      6       0.9086675       161.3653
2015    18      7       1.624135        217.8158
2015    19      0       1.672732        220.4578
2015    19      1       1.511695        213.3038
2015    19      2       2.596583        252.1129
2015    19      3       2.505109        248.1669
2015    19      4       1.844066        225.3746
2015    19      5       1.550069        211.1062
2015    19      6       1.51246         207.4314
2015    19      7       1.35965         198.6525
2015    20      0       0.9173366       161.4778
2015    20      1       0.5685638       117.6059
2015    20      2       0.329036        78.30731
2015    20      3       0.2942314       72.30031
2015    20      4       0.3517675       82.52188
2015    20      5       0.481306        104.8669
2015    20      6       0.6463569       131.6847
2015    20      7       0.7117104       140.7587
2015    21      0       0.5885533       123.5475
2015    21      1       0.5576416       118.2803
2015    21      2       0.4975229       108.943
2015    21      3       0.3912466       90.37023
2015    21      4       0.3944916       90.32275
2015    21      5       0.4131196       93.62139
2015    21      6       0.5858065       121.448
2015    21      7       0.5937111       122.9995
2015    22      0       0.4898508       107.3794
2015    22      1       0.4397807       99.52057
2015    22      2       0.3863212       90.07323
2015    22      3       0.3838311       89.07982
2015    22      4       0.4160316       94.57857
2015    22      5       0.486493        106.9773
2015    22      6       0.6618993       133.5318
2015    22      7       0.6756701       135.3278
2015    23      0       0.5552762       118.253
2015    23      1       0.5973346       124.5686
2015    23      2       0.6831313       136.7324
2015    23      3       0.7115158       140.5662
2015    23      4       0.7146823       140.4804
2015    23      5       0.682133        136.1421
2015    23      6       0.7287167       142.6512
2015    23      7       0.8160907       153.3007
2015    24      0       0.8641266       158.7235
2015    24      1       0.8631326       158.6704
2015    24      2       0.8879308       161.5841
2015    24      3       0.861937        157.7749
2015    24      4       0.8017385       149.9878
2015    24      5       0.7460711       143.7527
2015    24      6       0.80155         150.6886
2015    24      7       0.7362103       142.4754
2015    25      0       0.783967        148.0854
2015    25      1       0.6891842       136.5463
2015    25      2       0.5824392       122.0285
2015    25      3       0.4441391       100.3416
2015    25      4       0.3942314       91.21
2015    25      5       0.4042542       92.98439
2015    25      6       0.4707022       105.0001
2015    25      7       0.425098        97.44185
2015    26      0       0.3856811       90.01679
2015    26      1       0.4642446       103.8127
2015    26      2       0.5297767       114.5892
2015    26      3       0.3978882       92.09865
2015    26      4       0.2907288       72.49065
2015    26      5       0.2518757       65.0425
2015    26      6       0.2620706       67.31909
2015    26      7       0.2985707       74.58906
2015    27      0       0.2337827       61.15122
2015    27      1       0.4296249       97.14001
2015    27      2       0.7061247       136.7769
2015    27      3       0.7797223       145.2035
2015    27      4       0.8427735       151.5793
2015    27      5       0.7539789       142.7507
2015    27      6       0.715981        136.8285
2015    27      7       1.021241        172.6899
2015    28      0       0.8786536       154.8798
2015    28      1       0.8311275       152.8734
2015    28      2       0.8133121       151.7987
2015    28      3       0.775561        147.2199
2015    28      4       0.7137147       139.8928
2015    28      5       0.7581114       146.1912
2015    28      6       0.8775163       160.9199
2015    28      7       0.8651372       159.6258
2015    29      0       0.6093818       127.0072
2015    29      1       0.4920752       109.2718
2015    29      2       0.4928207       109.1897
2015    29      3       0.6271495       129.3416
2015    29      4       0.7249461       142.029
2015    29      5       0.8174014       153.5991
2015    29      6       0.9869298       172.168
2015    29      7       0.877496        161.0576
2015    30      0       0.7113235       140.2919
2015    30      1       0.7152049       140.1354
2015    30      2       0.7326905       141.2124
2015    30      3       0.6895505       135.9861
2015    30      4       0.6612126       131.7104
2015    30      5       0.6880324       134.4672
2015    30      6       0.7223462       139.4902
2015    30      7       0.7347149       142.7791
2015    31      0       0.5525151       117.1355
2015    31      1       0.5208547       112.3885
2015    31      2       0.537523        114.9818
2015    31      3       0.5926278       122.9742
2015    31      4       0.701861        137.4189
2015    31      5       0.7148647       139.6015
2015    31      6       0.7352783       142.3674
2015    31      7       0.7496779       144.4244
2016    1       0       0.5045898       107.6599
2016    1       1       0.4178517       93.68608
2016    1       2       0.4216722       94.59461
2016    1       3       0.5050247       108.0236
2016    1       4       0.6171708       125.1898
2016    1       5       0.672278        133.8806
2016    1       6       0.8641078       158.2303
2016    1       7       0.8576152       157.8472
2016    2       0       0.6101906       126.9946
2016    2       1       0.5340923       115.7884
2016    2       2       0.5358501       115.6323
2016    2       3       0.5042029       110.9444
2016    2       4       0.436987        99.70727
2016    2       5       0.3790949       89.41874
2016    2       6       0.4276011       99.11983
2016    2       7       0.5031326       112.1409
2016    3       0       0.5297468       116.0293
2016    3       1       0.4118865       96.411
2016    3       2       0.3966696       93.53177
2016    3       3       0.4385626       100.6552
2016    3       4       0.4441241       101.5635
2016    3       5       0.4744699       106.4574
2016    3       6       0.5470845       117.6788
2016    3       7       0.7265585       141.3773
2016    4       0       0.8563095       155.0412
2016    4       1       1.384879        199.5865
2016    4       2       1.660405        217.9545
2016    4       3       1.273896        196.1394
2016    4       4       0.7351549       144.0504
2016    4       5       0.3991572       92.40862
2016    4       6       0.4391714       98.79344
2016    4       7       0.4865013       105.6008
2016    5       0       0.6424992       128.1253
2016    5       1       0.8551267       155.1621
2016    5       2       1.074232        177.574
2016    5       3       1.102844        181.0505
2016    5       4       1.088635        181.7731
2016    5       5       1.286844        199.012
2016    5       6       1.429241        209.2085
2016    5       7       1.472566        212.5395
2016    6       0       1.392753        207.7841
2016    6       1       1.25483         197.8435
2016    6       2       1.200123        193.1905
2016    6       3       1.352954        203.8406
2016    6       4       1.975858        235.8631
2016    6       5       2.445167        252.125
2016    6       6       1.960508        236.0618
2016    6       7       1.995365        236.261
2016    7       0       1.846908        229.1337
2016    7       1       1.337367        201.8102
2016    7       2       0.8550541       158.6652
2016    7       3       0.6103765       127.2101
2016    7       4       0.3402917       82.34645
2016    7       5       0.2785699       70.50327
2016    7       6       0.4536284       103.3399
2016    7       7       0.4525672       103.1514
2016    8       0       0.2443239       63.32105
2016    8       1       0.1971194       51.79051
2016    8       2       0.2492084       62.38768
2016    8       3       0.3490768       80.55722
2016    8       4       0.432251        94.80418
2016    8       5       0.4574802       99.06774
2016    8       6       0.5188786       109.8016
2016    8       7       0.6425385       128.272
2016    9       0       0.7516251       142.4671
2016    9       1       0.8118905       150.6904
2016    9       2       0.90721         161.9505
2016    9       3       0.9615278       168.6233
2016    9       4       0.9371621       167.3403
2016    9       5       0.8362304       156.7976
2016    9       6       1.033693        178.1814
2016    9       7       0.9017114       163.3568
2016    10      0       0.8276019       154.3092
2016    10      1       0.8931064       161.8162
2016    10      2       0.8826868       160.1795
2016    10      3       0.8237512       152.6571
2016    10      4       0.8827464       159.0262
2016    10      5       0.8967826       161.4233
2016    10      6       0.8441367       156.2292
2016    10      7       0.7846219       148.9699
2016    11      0       0.8679871       157.9187
2016    11      1       0.9158678       162.8013
2016    11      2       0.8974659       160.3032
2016    11      3       0.9598779       165.7174
2016    11      4       1.085976        177.432
2016    11      5       0.9790256       168.3218
2016    11      6       0.9623089       167.7816
2016    11      7       1.055802        176.7271
2016    12      0       1.131276        182.9435
2016    12      1       1.140349        183.2153
2016    12      2       1.048235        174.4497
2016    12      3       1.088472        178.0142
2016    12      4       1.399081        200.9761
2016    12      5       1.496484        207.259
2016    12      6       1.644512        215.2697
2016    12      7       1.878249        225.9643
2016    13      0       1.591051        213.3913
2016    13      1       1.354142        200.0707
2016    13      2       1.145061        184.5739
2016    13      3       1.047011        176.1112
2016    13      4       1.125846        183.2875
2016    13      5       1.074435        179.8266
2016    13      6       1.111717        183.6275
2016    13      7       1.184378        189.3941
2016    14      0       1.027647        174.8871
2016    14      1       0.9361074       165.5401
2016    14      2       0.9894558       170.5857
2016    14      3       1.23701         191.1415
2016    14      4       1.483634        207.3273
2016    14      5       1.57198         213.335
2016    14      6       1.690586        220.1095
2016    14      7       1.965109        232.6295
2016    15      0       1.757359        224.9414
2016    15      1       2.132835        240.2189
2016    15      2       1.646248        219.4784
2016    15      3       1.999842        233.9785
2016    15      4       2.082141        236.3392
2016    15      5       1.888746        228.7576
2016    15      6       1.91908         230.2499
2016    15      7       2.088976        236.7191
2016    16      0       1.995272        232.7391
2016    16      1       1.266411        193.448
2016    16      2       1.239108        190.8956
2016    16      3       1.295805        194.5025
2016    16      4       1.312081        195.2936
2016    16      5       1.181633        185.4948
2016    16      6       0.7656394       145.5582
2016    16      7       0.5371324       114.9774
2016    17      0       0.3020715       73.72202
2016    17      1       0.2409551       60.87785
2016    17      2       0.3464478       80.42119
2016    17      3       0.5477211       113.5337
2016    17      4       0.9707397       166.337
2016    17      5       1.250684        190.2954
2016    17      6       1.344           197.7321
2016    17      7       1.214095        188.6695
2016    18      0       0.9649597       167.3653
2016    18      1       0.8230096       152.7771
2016    18      2       0.7651515       145.7465
2016    18      3       0.729294        140.372
2016    18      4       0.6637326       131.4688
2016    18      5       0.7615754       143.5603
2016    18      6       0.3832712       88.21384
2016    18      7       0.2829526       70.09278
2016    19      0       0.2567351       64.96908
2016    19      1       0.284285        70.32239
2016    19      2       0.2632867       66.03198
2016    19      3       0.208376        54.72235
2016    19      4       0.1703576       46.55788
2016    19      5       0.2276576       58.83167
2016    19      6       0.3472804       82.33014
2016    19      7       0.4706432       103.6775
2016    20      0       0.5315387       113.4522
2016    20      1       0.4724158       104.433
2016    20      2       0.2589283       65.98617
2016    20      3       0.2021607       54.00549
2016    20      4       0.2068759       54.55737
2016    20      5       0.2652754       66.24551
2016    20      6       0.3177421       77.48523
2016    20      7       0.2807612       71.11449
2016    21      0       0.2207583       58.76364
2016    21      1       0.1783609       49.40017
2016    21      2       0.2236158       58.83045
2016    21      3       0.2608461       66.11691
2016    21      4       0.3342402       80.19098
2016    21      5       0.4069726       93.41211
2016    21      6       0.5221221       112.4085
2016    21      7       0.5809953       121.1516
2016    22      0       0.385507        90.55916
2016    22      1       0.4090199       95.60367
2016    22      2       0.7188796       143.1886
2016    22      3       0.5225872       113.7368
2016    22      4       0.4719813       104.3698
2016    22      5       0.5580014       117.2615
2016    22      6       0.7390405       142.0438
2016    22      7       0.8364341       153.4566
2016    23      0       0.7316114       140.4707
2016    23      1       0.5740985       119.4766
2016    23      2       0.525671        112.7443
2016    23      3       0.4261022       96.79668
2016    23      4       0.3577261       84.39843
2016    23      5       0.4590313       102.3462
2016    23      6       0.7798854       148.1165
2016    23      7       0.8415873       155.2985
2016    24      0       0.5720058       119.5424
2016    24      1       0.434344        97.64284
2016    24      2       0.5309601       113.8826
2016    24      3       0.5171073       111.4547
2016    24      4       0.4372088       97.6565
2016    24      5       0.5787765       119.4668
2016    24      6       0.7179641       138.9359
2016    24      7       0.6363067       128.4294
2016    25      0       0.5029284       108.6033
2016    25      1       0.4303947       96.25556
2016    25      2       0.519868        110.0654
2016    25      3       0.4878752       105.391
2016    25      4       0.4941747       106.0607
2016    25      5       0.5529943       115.7042
2016    25      6       0.7760926       146.7673
2016    25      7       0.9163663       164.0377
2016    26      0       0.8724311       160.445
2016    26      1       0.8403388       157.498
2016    26      2       0.7704203       149.7836
2016    26      3       0.6692679       136.5667
2016    26      4       0.7451192       147.1299
2016    26      5       0.7112518       143.7768
2016    26      6       0.7052497       143.6399
2016    26      7       0.7545127       150.6377
2016    27      0       0.7394186       148.806
2016    27      1       0.6047243       130.2081
2016    27      2       0.5714155       125.2842
2016    27      3       0.5920174       128.1384
2016    27      4       0.6194981       131.3883
2016    27      5       0.6920576       141.0914
2016    27      6       0.6790037       139.78
2016    27      7       0.6451025       135.428
2016    28      0       0.6381362       134.3694
2016    28      1       0.7553845       151.0146
2016    28      2       0.8092558       157.8655
2016    28      3       0.7477553       149.6969
2016    28      4       0.5899428       127.205
2016    28      5       0.5504412       121.1218
2016    28      6       0.5202126       116.5257
2016    28      7       0.5010705       113.4104
2016    29      0       0.5037463       113.4415
2016    29      1       0.5690141       123.9831
2016    29      2       0.5269088       117.1417
2016    29      3       0.4368762       101.5823
2016    29      4       0.5169108       114.4004
2016    29      5       0.6543361       135.1141
2016    29      6       0.8276108       157.5688
2016    29      7       0.9622132       172.347
2016    30      0       0.9168848       167.1963
2016    30      1       0.7916206       152.5644
2016    30      2       0.7570427       147.2875
2016    30      3       0.9102931       164.2744
2016    30      4       1.080163        181.2593
2016    30      5       1.354657        203.2723
2016    30      6       1.560011        215.7406
2016    30      7       1.411208        206.3857
2016    31      0       1.099415        182.603
2016    31      1       0.9259742       165.5893
2016    31      2       0.9256938       163.6011
2016    31      3       0.6957112       135.7629
2016    31      4       0.8502414       153.0651
2016    31      5       0.7141677       138.2212
2016    31      6       1.044199        174.1055
2016    31      7       0.9675773       165.8394
2017    1       0       0.572088        119.0803
2017    1       1       0.4869508       106.6198
2017    1       2       0.5269207       112.2884
2017    1       3       0.6036479       122.978
2017    1       4       0.5112587       109.4141
2017    1       5       0.4919261       106.5002
2017    1       6       0.5954554       121.9705
2017    1       7       0.6075687       123.8593
2017    2       0       0.4165185       93.90443
2017    2       1       0.3515901       82.39392
2017    2       2       0.3793819       87.63456
2017    2       3       0.5123701       108.4891
2017    2       4       0.6118202       122.5091
2017    2       5       0.7943815       145.5048
2017    2       6       1.175841        183.9335
2017    2       7       1.322443        196.2231
2017    3       0       1.334488        197.331
2017    3       1       1.008499        171.681
2017    3       2       0.839755        155.0436
2017    3       3       0.9280285       164.6944
2017    3       4       0.9234014       164.6392
2017    3       5       0.9294289       166.0439
2017    3       6       0.974072        171.3123
2017    3       7       1.096205        182.5826
2017    4       0       0.9731732       170.2018
2017    4       1       0.8211569       153.5091
2017    4       2       0.7099577       139.7876
2017    4       3       0.5947139       123.1313
2017    4       4       0.5588908       117.3076
2017    4       5       0.6640216       131.7032
2017    4       6       1.10142         181.5987
2017    4       7       1.300178        196.7294
2017    5       0       2.028759        234.2721
2017    5       1       2.04558         234.4242
2017    5       2       1.614195        215.3228
2017    5       3       1.419425        203.701
2017    5       4       1.094994        179.5223
2017    5       5       1.225902        190.617
2017    5       6       1.335187        199.3998
2017    5       7       0.8034343       151.2434
2017    6       0       0.5463552       116.4356
2017    6       1       0.4803604       106.2937
2017    6       2       0.4909625       108.2624
2017    6       3       0.496159        109.1489
2017    6       4       0.4543476       102.9837
2017    6       5       0.4460186       101.9106
2017    6       6       0.4591486       104.3378
2017    6       7       0.476142        106.9096
2017    7       0       0.418639        96.12392
2017    7       1       0.5228101       113.5119
2017    7       2       0.5655031       119.9296
2017    7       3       0.5354788       115.5272
2017    7       4       0.4738697       106.0189
2017    7       5       0.5539613       118.595
2017    7       6       0.7568242       146.001
2017    7       7       0.778948        148.4127
2017    8       0       0.6680139       133.1006
2017    8       1       0.6474176       129.755
2017    8       2       0.7662058       144.8015
2017    8       3       0.6575761       131.965
2017    8       4       0.6174791       126.8494
2017    8       5       0.5176665       112.2215
2017    8       6       0.4735026       105.249
2017    8       7       0.4657658       104.1033
2017    9       0       0.3870064       90.65427
2017    9       1       0.3243863       79.02501
2017    9       2       0.3153939       77.05902
2017    9       3       0.3457429       81.8382
2017    9       4       0.341006        80.45039
2017    9       5       0.3583411       83.48454
2017    9       6       0.4029222       91.71646
2017    9       7       0.4778385       104.2882
2017    10      0       0.4168725       93.62648
2017    10      1       0.3870485       88.25503
2017    10      2       0.3900551       88.74409
2017    10      3       0.3813432       86.63496
2017    10      4       0.3405745       80.41818
2017    10      5       0.438573        97.98092
2017    10      6       0.5009565       108.0628
2017    10      7       0.4465          99.78218
2017    11      0       0.3060617       74.57438
2017    11      1       0.2673844       67.33354
2017    11      2       0.2840663       70.76033
2017    11      3       0.2955641       72.91724
2017    11      4       0.2806211       69.98994
2017    11      5       0.323046        78.22268
2017    11      6       0.4732711       104.3234
2017    11      7       0.6306734       127.3481
2017    12      0       0.464672        102.7226
2017    12      1       0.4004624       92.06029
2017    12      2       0.4403973       98.51862
2017    12      3       0.3399229       80.90933
2017    12      4       0.2033474       54.03516
2017    12      5       0.360298        84.37994
2017    12      6       0.3883654       89.77389
2017    12      7       0.4345171       97.67471
2017    13      0       0.2651807       66.70847
2017    13      1       0.2203769       57.6274
2017    13      2       0.2582628       65.45422
2017    13      3       0.3034277       74.4643
2017    13      4       0.2898925       72.1162
2017    13      5       0.2492196       64.31479
2017    13      6       0.3239708       79.45376
2017    13      7       0.4633375       104.8468
2017    14      0       0.4861873       108.8139
2017    14      1       0.4053781       95.26194
2017    14      2       0.2714565       69.8617
2017    14      3       0.1948267       53.64869
2017    14      4       0.1537582       44.29781
2017    14      5       0.1666784       47.40157
2017    14      6       0.2916794       73.98057
2017    14      7       0.4569302       104.2118
2017    15      0       0.5352453       116.3758
2017    15      1       0.5801093       123.6725
2017    15      2       0.5578399       120.9379
2017    15      3       0.4362373       101.2502
2017    15      4       0.3605825       87.39577
2017    15      5       0.255013        66.23782
2017    15      6       0.3492137       84.00123
2017    15      7       0.3488822       83.81648
2017    16      0       0.2350632       61.93725
2017    16      1       0.3199096       76.88721
2017    16      2       0.431214        96.22454
2017    16      3       0.4705682       103.826
2017    16      4       0.3872087       90.1167
2017    16      5       0.4839094       107.7627
2017    16      6       0.6120243       127.6164
2017    16      7       0.5883486       123.9567
2017    17      0       0.4153991       96.12058
2017    17      1       0.356444        85.50568
2017    17      2       0.3611624       85.58666
2017    17      3       0.379147        87.74031
2017    17      4       0.3753332       86.10407
2017    17      5       0.4114372       91.89436
2017    17      6       0.6559562       128.7486
2017    17      7       0.6827463       132.7105
2017    18      0       0.6485635       127.6869
2017    18      1       0.7963688       146.6556
2017    18      2       0.9016575       158.8994
2017    18      3       0.9827261       167.3858
2017    18      4       0.9607889       165.8925
2017    18      5       0.4976956       109.604
2017    18      6       0.3682897       88.60447
2017    18      7       0.3135424       77.85006
2017    19      0       0.2521709       64.89556
2017    19      1       0.300705        73.62963
2017    19      2       0.3721403       86.12881
2017    19      3       0.3201378       77.10156
2017    19      4       0.3574448       84.44811
2017    19      5       0.3714182       87.16136
2017    19      6       0.4451621       101.0213
2017    19      7       0.5210512       112.5361
2017    20      0       0.533618        113.7014
2017    20      1       0.6019292       122.7244
2017    20      2       0.8516187       152.4046
2017    20      3       0.9412715       162.1884
2017    20      4       1.040608        172.1315
2017    20      5       1.239783        190.078
2017    20      6       1.222032        189.1936
2017    20      7       1.181451        186.8338
2017    21      0       1.059479        176.9783
2017    21      1       0.7507664       144.398
2017    21      2       0.5687879       120.2724
2017    21      3       0.2891489       72.44284
2017    21      4       0.1539608       42.96967
2017    21      5       0.15614         43.55464
2017    21      6       0.2402052       61.12245
2017    21      7       0.2260842       58.86454
2017    22      0       0.2399954       60.5472
2017    22      1       0.3188299       76.011
2017    22      2       0.4542554       100.395
2017    22      3       0.4886674       106.3447
2017    22      4       0.62197         125.3658
2017    22      5       0.7228809       139.1979
2017    22      6       0.9715102       169.1713
2017    22      7       1.063841        177.808
2017    23      0       1.031425        174.4396
2017    23      1       0.9036381       162.2078
2017    23      2       0.9255722       164.6241
2017    23      3       1.182333        188.6454
2017    23      4       1.285964        197.2947
2017    23      5       1.220661        193.3666
2017    23      6       1.138025        186.6114
2017    23      7       0.985977        171.9084
2017    24      0       0.8472332       156.5545
2017    24      1       0.6932033       139.0801
2017    24      2       0.6412621       131.8832
2017    24      3       0.588434        123.9405
2017    24      4       0.5229322       113.4026
2017    24      5       0.5232282       113.2396
2017    24      6       0.600059        125.0909
2017    24      7       0.5662386       120.4103
2017    25      0       0.4460015       101.4165
2017    25      1       0.4640835       104.3091
2017    25      2       0.3547905       84.72083
2017    25      3       0.3316643       79.65324
2017    25      4       0.3593725       84.39798
2017    25      5       0.4222959       95.4603
2017    25      6       0.5253197       112.6984
2017    25      7       0.5714833       120.7807
2017    26      0       0.3851191       89.86756
2017    26      1       0.4176223       96.38022
2017    26      2       0.4376175       99.70469
2017    26      3       0.3253475       79.67331
2017    26      4       0.3380688       82.0756
2017    26      5       0.427788        98.16789
2017    26      6       0.5671128       120.5067
2017    26      7       0.5041165       110.6679
2017    27      0       0.3552477       85.15246
2017    27      1       0.3114397       76.60932
2017    27      2       0.3166943       77.35959
2017    27      3       0.2820073       70.5633
2017    27      4       0.2984953       74.87862
2017    27      5       0.2669506       67.78131
2017    27      6       0.3049033       75.73827
2017    27      7       0.3618238       86.90915
2017    28      0       0.4064053       94.28386
2017    28      1       0.4258992       97.39979
2017    28      2       0.4482864       100.9767
2017    28      3       0.5609569       118.2513
2017    28      4       0.8040782       149.6696
2017    28      5       1.04872         175.1232
2017    28      6       1.025218        174.3199
2017    28      7       0.8549131       157.7154
2017    29      0       0.6582017       132.948
2017    29      1       0.606164        125.5381
2017    29      2       0.5839687       121.8227
2017    29      3       0.5899544       122.0492
2017    29      4       0.548153        115.3049
2017    29      5       0.6149556       124.0042
2017    29      6       0.7461441       141.16
2017    29      7       0.7971001       147.6929
2017    30      0       0.6494958       129.3373
2017    30      1       0.5768599       119.6674
2017    30      2       0.5728093       119.2481
2017    30      3       0.5520001       116.5551
2017    30      4       0.6600759       130.8963
2017    30      5       0.7130526       137.5198
2017    30      6       0.7550615       143.3705
2017    30      7       0.7615373       144.7837
2017    31      0       0.6687297       133.0737
2017    31      1       0.5855876       121.8988
2017    31      2       0.5345589       114.5419
2017    31      3       0.5602825       118.5059
2017    31      4       0.6291496       128.076
2017    31      5       0.6582042       131.8426
2017    31      6       0.6609414       132.4831
2017    31      7       0.6969153       136.7787
2018    1       0       0.9608545       164.3083
2018    1       1       1.08529         175.1566
2018    1       2       0.9011265       157.5421
2018    1       3       0.4859241       103.7521
2018    1       4       0.2162678       55.53225
2018    1       5       0.1567871       43.17619
2018    1       6       0.1520987       42.63035
2018    1       7       0.1778701       48.3208
2018    2       0       0.1568261       43.50708
2018    2       1       0.1543514       42.7828
2018    2       2       0.2168229       55.42924
2018    2       3       0.2606806       64.25244
2018    2       4       0.2384908       59.83658
2018    2       5       0.2137862       55.50199
2018    2       6       0.2469267       63.3506
2018    2       7       0.2291168       59.67266
2018    3       0       0.1673879       46.17335
2018    3       1       0.1237329       36.28273
2018    3       2       0.1194577       35.62984
2018    3       3       0.1243294       36.68682
2018    3       4       0.1381965       40.03723
2018    3       5       0.1365775       39.55225
2018    3       6       0.1481523       42.0724
2018    3       7       0.1587038       44.62024
2018    4       0       0.1740913       47.38084
2018    4       1       0.195674        51.69053
2018    4       2       0.236209        59.56417
2018    4       3       0.2818973       68.30364
2018    4       4       0.3080947       74.0926
2018    4       5       0.4319022       96.43015
2018    4       6       0.5626966       117.4887
2018    4       7       0.6295114       127.6515
2018    5       0       0.7167332       139.4388
2018    5       1       0.7807652       149.0934
2018    5       2       0.7940306       150.7716
2018    5       3       0.750233        144.8921
2018    5       4       0.6347465       129.4031
2018    5       5       0.5571185       118.3205
2018    5       6       0.7204723       140.9687
2018    5       7       0.6983721       138.4524
2018    6       0       0.5359637       115.5156
2018    6       1       0.4723552       105.7525
2018    6       2       0.4565473       103.1675
2018    6       3       0.4354567       99.51661
2018    6       4       0.416165        96.5933
2018    6       5       0.5195893       113.7457
2018    6       6       0.6829173       137.2858
2018    6       7       0.8402369       156.4958
2018    7       0       0.8660015       158.1938
2018    7       1       0.8569171       156.9347
2018    7       2       0.9338199       165.2887
2018    7       3       0.8787066       158.9572
2018    7       4       0.7588314       145.2534
2018    7       5       0.7726824       146.9236
2018    7       6       1.006989        172.3543
2018    7       7       1.280569        194.9667
2018    8       0       1.35243         199.1648
2018    8       1       1.661237        217.3406
2018    8       2       1.820237        224.8037
2018    8       3       1.853677        225.9131
2018    8       4       1.645555        217.0553
2018    8       5       1.710823        220.7066
2018    8       6       1.539451        212.4925
2018    8       7       1.207827        190.6203
2018    9       0       0.6769751       135.7569
2018    9       1       0.5275389       113.8706
2018    9       2       0.5571887       118.0473
2018    9       3       0.5608617       118.2028
2018    9       4       0.599586        123.5452
2018    9       5       0.6727252       133.2844
2018    9       6       0.6650539       132.4255
2018    9       7       0.7672372       146.3168
2018    10      0       0.5449727       117.6372
2018    10      1       0.5972296       125.2739
2018    10      2       0.6998893       139.2994
2018    10      3       0.8242165       153.2777
2018    10      4       1.061089        176.706
2018    10      5       1.302322        196.1275
2018    10      6       1.387765        202.265
2018    10      7       1.623513        215.7115
2018    11      0       1.831421        225.556
2018    11      1       1.603305        215.3811
2018    11      2       1.595419        215.1257
2018    11      3       1.722979        220.801
2018    11      4       1.446677        205.2601
2018    11      5       1.094691        179.4769
2018    11      6       1.181545        186.5418
2018    11      7       0.9589375       167.0383
2018    12      0       0.7536441       144.734
2018    12      1       0.697178        137.8421
2018    12      2       0.756986        145.1029
2018    12      3       0.7223662       140.4666
2018    12      4       0.5842637       121.8149
2018    12      5       0.5303613       114.0265
2018    12      6       0.6406104       130.4599
2018    12      7       0.6013159       124.5099
2018    13      0       0.5157072       110.8168
2018    13      1       0.4687627       103.069
2018    13      2       0.4722542       103.3957
2018    13      3       0.6045746       123.7085
2018    13      4       0.6818843       135.1671
2018    13      5       0.7734575       147.3403
2018    13      6       1.045487        175.8394
2018    13      7       1.361056        200.7593
2018    14      0       1.44942         206.452
2018    14      1       1.350241        198.101
2018    14      2       1.108086        180.1574
2018    14      3       0.6655265       133.2271
2018    14      4       0.3985666       92.44419
2018    14      5       0.3609583       86.21238
2018    14      6       0.4144405       96.12657
2018    14      7       0.492955        108.6856
2018    15      0       0.5227749       112.9346
2018    15      1       0.6128168       127.1178
2018    15      2       0.7177797       141.9843
2018    15      3       0.8812968       161.7964
2018    15      4       0.9733994       171.3907
2018    15      5       0.9772205       170.9545
2018    15      6       0.9468664       167.0039
2018    15      7       0.9576479       167.8482
2018    16      0       1.072101        178.6598
2018    16      1       1.142112        185.4789
2018    16      2       1.088595        180.7261
2018    16      3       1.095119        180.5717
2018    16      4       1.34742         199.0049
2018    16      5       1.656593        216.8612
2018    16      6       1.678071        217.8663
2018    16      7       1.550105        210.9545
2018    17      0       1.398986        201.7832
2018    17      1       0.9043067       161.8417
2018    17      2       0.7520185       145.0531
2018    17      3       0.8030834       150.8543
2018    17      4       0.7715373       147.1205
2018    17      5       0.8040045       151.1638
2018    17      6       0.8852394       160.4813
2018    17      7       0.8392321       155.7615
2018    18      0       0.6682682       134.7501
2018    18      1       0.4747174       106.422
2018    18      2       0.350047        84.75856
2018    18      3       0.3342368       81.69203
2018    18      4       0.2947983       74.16687
2018    18      5       0.2770863       70.70986
2018    18      6       0.3093585       77.12127
2018    18      7       0.4173607       96.70013
2018    19      0       0.4122026       94.88918
2018    19      1       0.3814188       89.30772
2018    19      2       0.363837        86.03459
2018    19      3       0.3425126       82.0308
2018    19      4       0.3127247       76.17004
2018    19      5       0.3257573       79.06351
2018    19      6       0.353905        84.80618
2018    19      7       0.3931905       92.27485
2018    20      0       0.3400785       82.24248
2018    20      1       0.3185738       78.01522
2018    20      2       0.3499222       83.9717
2018    20      3       0.3894195       91.16706
2018    20      4       0.3990555       92.86673
2018    20      5       0.3916072       91.88939
2018    20      6       0.3780594       89.92524
2018    20      7       0.3657426       87.93206
2018    21      0       0.3273932       80.14241
2018    21      1       0.3747945       88.29528
2018    21      2       0.4212034       95.90045
2018    21      3       0.4340713       97.28863
2018    21      4       0.4252868       95.79221
2018    21      5       0.4033352       92.63237
2018    21      6       0.3883328       90.74984
2018    21      7       0.4188625       96.05141
2018    22      0       0.3844969       89.65262
2018    22      1       0.3722977       87.52694
2018    22      2       0.4706587       103.5191
2018    22      3       0.4808633       105.0015
2018    22      4       0.4859191       105.7777
2018    22      5       0.5117548       110.181
2018    22      6       0.6095412       125.3214
2018    22      7       0.6457417       130.5615
2018    23      0       0.5828921       121.7755
2018    23      1       0.5647577       119.1993
2018    23      2       0.5544895       117.7398
2018    23      3       0.5697122       119.5151
2018    23      4       0.6264733       126.9295
2018    23      5       0.8329096       152.2821
2018    23      6       0.8752727       156.5872
2018    23      7       1.052311        174.2502
2018    24      0       1.06277         175.3658
2018    24      1       0.923462        162.734
2018    24      2       0.8976545       160.3307
2018    24      3       0.8741223       159.2974
2018    24      4       0.7646875       146.6349
2018    24      5       0.7401325       142.7727
2018    24      6       0.9329207       163.3808
2018    24      7       1.044892        175.0753
2018    25      0       0.9593767       167.265
2018    25      1       1.072669        176.9401
2018    25      2       1.234203        189.9463
2018    25      3       1.098883        180.0902
2018    25      4       0.9971298       171.2611
2018    25      5       0.9823001       170.276
2018    25      6       1.109822        183.2887
2018    25      7       1.275124        196.2773
2018    26      0       1.092852        180.9063
2018    26      1       0.9153776       164.5151
2018    26      2       1.387091        206.8553
2018    26      3       0.7162019       140.4943
2018    26      4       0.7215638       141.1112
2018    26      5       0.6750326       136.1753
2018    26      6       0.6054824       125.9635
2018    26      7       0.584763        122.8692
2018    27      0       0.6401661       129.5463
2018    27      1       0.7847853       149.098
2018    27      2       1.222882        189.8377
2018    27      3       1.291651        193.8046
2018    27      4       1.475407        207.109
2018    27      5       1.20816         190.4421
2018    27      6       1.577914        215.1051
2018    27      7       1.62325         219.3367
2018    28      0       1.8762          232.9927
2018    28      1       1.43872         209.5226
2018    28      2       1.489037        212.2395
2018    28      3       1.582141        217.2344
2018    28      4       1.621072        219.2519
2018    28      5       1.784745        226.705
2018    28      6       1.730791        225.0644
2018    28      7       1.861529        230.5366
2018    29      0       1.661365        220.586
2018    29      1       1.983575        233.9956
2018    29      2       1.789913        227.4161
2018    29      3       1.677766        222.2007
2018    29      4       1.955366        234.0849
2018    29      5       1.64741         219.6667
2018    29      6       1.654072        219.1408
2018    29      7       1.89604         230.6103
2018    30      0       2.066981        236.9331
2018    30      1       1.993698        234.4521
2018    30      2       1.538886        213.5549
2018    30      3       1.363092        201.6771
2018    30      4       1.082573        180.1765
2018    30      5       0.946574        167.0177
2018    30      6       0.8877884       161.2947
2018    30      7       0.826774        153.9746
2018    31      0       0.6522669       131.7928
2018    31      1       0.7077382       138.651
2018    31      2       0.6661075       133.5121
2018    31      3       0.5527411       117.1143
2018    31      4       0.4497152       100.6498
2018    31      5       0.402201        93.34931
2018    31      6       0.530779        114.9623
2018    31      7       0.543028        114.9228
