####################################################################################################
# Month: 03Mar                                                                                     #
# Station: YAN                                                                                     #
# Frequency: 345 GHz                                                                               #
# Columns are: year    day     tau     Tb (K)                                                      #
####################################################################################################
2009    1       1.19147671      184.7298375
2009    2       1.230175        188.7286125
2009    3       1.305012        193.5645
2009    4       1.257024        190.274375
2009    5       1.2359893       188.788575
2009    6       1.20162411      185.872675
2009    7       1.2870645       193.450825
2009    8       1.20841925      185.5572375
2009    9       1.23990372      188.1034625
2009    10      1.1458475       182.1892375
2009    11      0.63760708      126.40657375
2009    12      0.18727644      48.6569975
2009    13      0.68923419      132.1339
2009    14      1.167944        183.3067625
2009    15      1.20252463      185.8854875
2009    16      0.92251594      160.436175
2009    17      0.74428028      139.399
2009    18      0.72137464      137.517575
2009    19      0.94883804      164.593875
2009    20      1.02123715      170.8332125
2009    21      1.15467536      181.7561125
2009    22      1.25658362      191.24865
2009    23      1.3840475       200.521325
2009    24      1.22902875      189.0896375
2009    25      0.91475651      159.400325
2009    26      0.86666491      154.5435125
2009    27      1.12761779      177.8640375
2009    28      1.17328411      183.8444
2009    29      1.210206        188.105875
2009    30      1.16117275      184.2495
2009    31      1.03718854      173.7051625
2010    1       1.40741038      202.401225
2010    2       1.49938288      208.2791875
2010    3       1.30303213      194.8444
2010    4       1.50317588      207.7889625
2010    5       1.398727        201.7245875
2010    6       1.39888575      201.3572125
2010    7       1.304458        194.72125
2010    8       1.17764         184.517375
2010    9       1.37394225      198.9052375
2010    10      1.346043        198.4237875
2010    11      1.33080325      196.972775
2010    12      0.90307146      159.3144625
2010    13      1.12326444      180.108775
2010    14      0.85034932      154.4044625
2010    15      0.57294252      113.38440625
2010    16      1.39328888      200.52935
2010    17      1.47380775      206.834925
2010    18      1.47328712      206.8216125
2010    19      1.43471238      204.0407625
2010    20      1.10675935      178.655625
2010    21      1.12052345      178.9874125
2010    22      1.0088302       169.7687
2010    23      0.73918658      137.023425
2010    24      1.05192809      173.8324625
2010    25      1.33652588      195.9863375
2010    26      1.278777        192.57325
2010    27      1.36349975      199.6095625
2010    28      1.21220538      188.45355
2010    29      0.54489585      114.3250975
2010    30      0.45509559      94.89705625
2010    31      0.97146561      164.282525
2011    1       0.52112554      110.4646875
2011    2       0.5978489       120.99398875
2011    3       1.11270475      176.1362125
2011    4       1.25767088      190.2467
2011    5       1.1552507       181.366375
2011    6       1.28228625      192.279075
2011    7       0.80652028      148.0840625
2011    8       1.20515675      185.5976625
2011    9       1.21677762      187.507175
2011    10      1.10104239      177.844925
2011    11      0.85982035      152.3711125
2011    12      1.02592229      171.1108125
2011    13      1.06900699      175.434625
2011    14      1.11717412      179.52585
2011    15      1.172518        183.759
2011    16      1.11178521      179.3360875
2011    17      1.17527446      184.53055
2011    18      1.19817638      186.214775
2011    19      1.28209538      191.5018125
2011    20      1.35988338      198.5597
2011    21      1.2343075       190.1583375
2011    22      1.26839512      191.451925
2011    23      1.35798988      198.8639375
2011    24      1.37205462      199.49745
2011    25      1.43526412      203.5175375
2011    26      1.37092838      199.0634125
2011    27      1.46887888      205.920625
2011    28      1.1722978       183.954625
2011    29      1.29743075      194.116775
2011    30      1.28014775      193.5221375
2011    31      1.378791        200.2586875
2012    1       1.27864487      192.0342375
2012    2       1.30693625      194.5317
2012    3       1.30621575      193.9245
2012    4       1.37233962      198.768125
2012    5       1.29070288      193.2925875
2012    6       1.1258796       178.6219625
2012    7       1.39976475      201.3363125
2012    8       1.17035631      183.8725
2012    9       1.32799787      196.023725
2012    10      1.33100738      195.5507875
2012    11      1.28136562      191.5663875
2012    12      1.350277        196.98635
2012    13      0.81404464      146.4752375
2012    14      0.85232925      149.9013375
2012    15      1.03276441      171.3275625
2012    16      1.09112812      176.6016875
2012    17      1.05767986      174.378475
2012    18      1.05754344      173.5108625
2012    19      1.09748611      178.5775875
2012    20      1.02249132      169.783375
2012    21      1.2805145       190.910725
2012    22      1.12417144      178.9829875
2012    23      1.02049981      168.16725
2012    24      0.67387355      124.76307875
2012    25      1.25442175      189.8473375
2012    26      1.17234213      184.0210125
2012    27      1.14813956      181.27185
2012    28      1.16918687      182.8491625
2012    29      1.14105422      181.36725
2012    30      1.06337278      173.78315
2012    31      1.0761859       174.7214875
2013    1       1.46153225      205.1642875
2013    2       1.3118945       195.3917875
2013    3       1.2405186       188.7532375
2013    4       1.37094588      198.9820625
2013    5       1.31192675      194.0165375
2013    6       1.36319438      197.907625
2013    7       1.42205438      202.4721125
2013    8       1.478759        206.204775
2013    9       1.22207638      188.4326
2013    10      1.42626975      202.4386875
2013    11      1.1716027       183.40075
2013    12      0.8006762       145.83610875
2013    13      0.80637637      147.9525
2013    14      1.2118366       187.21695
2013    15      1.23944913      189.03395
2013    16      1.34735788      197.647225
2013    17      1.36775838      199.4871125
2013    18      0.98410476      167.85315
2013    19      0.82607511      151.1575125
2013    20      0.4206697       92.04469375
2013    21      0.47712572      99.51624
2013    22      1.18201062      184.80545
2013    23      0.59091313      116.6807575
2013    24      0.13046526      37.612575
2013    25      0.133575        38.13498625
2013    26      0.27376745      66.004665
2013    27      0.60052368      115.7405175
2013    28      0.9046007       160.3210875
2013    29      1.08041309      176.91925
2013    30      0.80288695      149.1126375
2013    31      0.66042185      130.6611625
2014    1       0.99387897      167.5486625
2014    2       0.68679282      131.27727375
2014    3       0.61968555      121.7048075
2014    4       1.09567145      176.8988125
2014    5       1.24732612      190.1805375
2014    6       1.16460575      184.073175
2014    7       1.27734988      192.29895
2014    8       1.19022025      184.6562625
2014    9       0.98849449      166.5500125
2014    10      1.00609702      168.7707625
2014    11      1.06818734      175.1932875
2014    12      1.11256852      179.55085
2014    13      1.06455739      171.9221375
2014    14      1.35462038      197.8164625
2014    15      1.42017563      202.64975
2014    16      1.19893805      185.852825
2014    17      1.357087        198.75925
2014    18      1.31558325      195.028475
2014    19      1.27711825      191.6948375
2014    20      0.82720162      150.1946875
2014    21      0.73494262      136.476075
2014    22      0.76879778      141.8678875
2014    23      0.94113876      163.3433125
2014    24      1.08942795      177.668475
2014    25      1.170884        184.1511875
2014    26      1.13375287      182.0448875
2014    27      0.95089539      163.1982
2014    28      0.32461218      76.7780875
2014    29      0.13161815      38.2690325
2014    30      0.15851172      43.77395125
2014    31      0.36596236      78.95565
2015    1       1.03616645      173.8624375
2015    2       0.97220858      159.3094425
2015    3       1.35449625      198.099875
2015    4       1.33462675      196.6653875
2015    5       1.3758125       199.4892875
2015    6       1.32742062      195.7373
2015    7       1.37618137      200.138
2015    8       1.26094419      190.615275
2015    9       1.366367        199.648275
2015    10      1.32130762      195.9974375
2015    11      1.24420313      189.0258125
2015    12      1.2632205       191.7519875
2015    13      1.3165845       194.9384
2015    14      1.24357675      189.2585625
2015    15      1.11306535      177.7463
2015    16      1.24759488      189.77485
2015    17      1.3917625       200.711225
2015    18      1.31578162      195.796725
2015    19      1.23793095      189.088125
2015    20      1.39449225      200.645275
2015    21      1.35151912      197.866575
2015    22      1.14654277      181.34555
2015    23      1.12619038      179.433925
2015    24      0.93949415      160.8190375
2015    25      0.94947926      163.9120125
2015    26      0.63651269      126.2252625
2015    27      0.38593214      88.0568025
2015    28      0.51127519      107.005065
2015    29      0.6724148       131.6748125
2015    30      0.5339554       112.3513775
2015    31      0.42408959      91.5132025
2016    1       1.19696728      183.7813875
2016    2       1.41621025      202.0501625
2016    3       1.17137394      184.0032875
2016    4       1.25104275      190.6787375
2016    5       0.88875298      148.18352
2016    6       0.58198125      114.54731
2016    7       0.88679586      153.9025125
2016    8       1.26087234      189.6988125
2016    9       1.35589588      198.25365
2016    10      1.2167001       185.9375
2016    11      0.76263201      143.9747875
2016    12      0.95861314      161.8261375
2016    13      1.22695738      188.1997
2016    14      1.12600914      179.47145
2016    15      1.26567587      191.586975
2016    16      0.71532339      137.6451875
2016    17      0.67165976      132.4052625
2016    18      0.76079601      143.5483875
2016    19      1.09774224      178.513275
2016    20      0.96013729      162.1358625
2016    21      1.33029337      195.8142625
2016    22      1.22483388      189.3660375
2016    23      1.2318905       189.9214875
2016    24      0.7512452       140.02355
2016    25      0.3870259       89.0435
2016    26      0.38134605      87.40923875
2016    27      0.51708423      109.57810375
2016    28      0.53554215      111.33620875
2016    29      0.78834788      143.414375
2016    30      1.14556909      180.8935375
2016    31      0.9341639       160.7400625
2017    1       1.1333585       179.349225
2017    2       1.34320038      196.7047375
2017    3       1.56429225      211.64405
2017    4       1.64234937      215.2019875
2017    5       1.56148738      211.471325
2017    6       1.53162225      209.6641125
2017    7       1.5030635       208.1022125
2017    8       1.51517312      208.28315
2017    9       1.4207885       202.942475
2017    10      1.41411875      202.0235875
2017    11      0.98839688      162.44925
2017    12      1.25728712      191.366175
2017    13      1.198762        186.640925
2017    14      1.456812        204.4961375
2017    15      1.33391462      196.5981625
2017    16      1.02270354      171.019325
2017    17      0.98368686      167.5740125
2017    18      1.10638415      180.117025
2017    19      1.2160235       188.1340375
2017    20      1.33945137      197.4475625
2017    21      1.36470425      198.0509375
2017    22      1.28629422      190.2339875
2017    23      1.39124788      200.9173
2017    24      1.37838625      199.67825
2017    25      1.31815375      195.286025
2017    26      1.19723021      185.68105
2017    27      1.27877912      193.17575
2017    28      1.23945662      189.2763625
2017    29      1.28636262      193.062725
2017    30      1.0685665       174.9351125
2017    31      1.1760315       184.1573875
2018    1       1.27561912      193.002525
2018    2       1.247521        190.3083875
2018    3       1.433917        203.826725
2018    4       1.35216         197.846775
2018    5       1.43256875      203.2064625
2018    6       1.02034095      165.92255
2018    7       1.23370558      187.732525
2018    8       1.27642439      191.1389625
2018    9       1.22472888      188.2270875
2018    10      1.38596562      200.226925
2018    11      1.57983062      212.5129
2018    12      1.48968         207.623675
2018    13      1.43694325      203.2386875
2018    14      1.33216525      195.9879875
2018    15      1.29993125      193.7530875
2018    16      1.36081425      198.436275
2018    17      1.35727462      197.4151375
2018    18      1.34545475      197.5651625
2018    19      1.43001         202.9548875
2018    20      1.46526288      205.3292375
2018    21      1.45311562      204.3763625
2018    22      1.29329262      192.8427625
2018    23      1.58887875      212.9263
2018    24      1.42964138      204.0398375
2018    25      1.25590298      190.6528125
2018    26      1.22150412      188.9643625
2018    27      0.97729671      164.6919125
2018    28      0.96819478      168.1612625
2018    29      0.61415116      123.8799175
2018    30      0.63742549      127.903975
2018    31      0.12038441      35.6475825
