####################################################################################################
# Month: 03Mar                                                                                     #
# Station: YAN                                                                                     #
# Frequency: 230 GHz                                                                               #
# Columns are: year    day     segment         tau     Tb (K)                                      #
####################################################################################################
2009    1       0       0.4632528       101.3785
2009    1       1       0.4762325       102.8503
2009    1       2       0.4222467       93.99008
2009    1       3       0.3497442       81.50895
2009    1       4       0.2788579       68.06495
2009    1       5       0.270179        66.47088
2009    1       6       0.4213183       94.21315
2009    1       7       0.456241        100.2403
2009    2       0       0.4291725       95.75905
2009    2       1       0.4049421       91.58139
2009    2       2       0.3607414       83.31731
2009    2       3       0.3298905       77.74692
2009    2       4       0.3406274       79.72531
2009    2       5       0.415275        92.61965
2009    2       6       0.4245112       94.29279
2009    2       7       0.4852299       104.1013
2009    3       0       0.4695466       101.4334
2009    3       1       0.4344096       96.19425
2009    3       2       0.4299669       95.34216
2009    3       3       0.3777631       86.07094
2009    3       4       0.3334472       77.92114
2009    3       5       0.4342307       95.31004
2009    3       6       0.5214781       109.1246
2009    3       7       0.5584799       114.8173
2009    4       0       0.4696568       101.6421
2009    4       1       0.4152313       92.78945
2009    4       2       0.3525186       81.8293
2009    4       3       0.3381583       78.98795
2009    4       4       0.2985481       71.63644
2009    4       5       0.3125459       74.47888
2009    4       6       0.4753939       103.4836
2009    4       7       0.5614484       117.0152
2009    5       0       0.5230993       110.8263
2009    5       1       0.4568476       99.45588
2009    5       2       0.3861112       87.83591
2009    5       3       0.3668462       84.51717
2009    5       4       0.3047369       73.09701
2009    5       5       0.3263034       77.324
2009    5       6       0.4229435       94.24931
2009    5       7       0.4779733       103.774
2009    6       0       0.4762927       103.4466
2009    6       1       0.4293684       95.71149
2009    6       2       0.3805562       86.67692
2009    6       3       0.2875983       69.67927
2009    6       4       0.2767133       67.55689
2009    6       5       0.3049485       73.08077
2009    6       6       0.4646246       100.6406
2009    6       7       0.5390703       112.8542
2009    7       0       0.5036023       107.3928
2009    7       1       0.4470089       98.61177
2009    7       2       0.4399459       96.83598
2009    7       3       0.3944766       88.89595
2009    7       4       0.3568696       82.42939
2009    7       5       0.394303        89.35375
2009    7       6       0.4755978       102.4351
2009    7       7       0.439716        96.76462
2009    8       0       0.2871007       70.07107
2009    8       1       0.2378923       60.35003
2009    8       2       0.3067234       73.90694
2009    8       3       0.3733697       86.05254
2009    8       4       0.4128808       92.71201
2009    8       5       0.4616037       100.5768
2009    8       6       0.4600066       100.8827
2009    8       7       0.5957934       121.8108
2009    9       0       0.484415        104.2645
2009    9       1       0.4425184       97.1204
2009    9       2       0.4663165       100.7571
2009    9       3       0.4082846       91.02428
2009    9       4       0.2608579       64.24227
2009    9       5       0.3094101       73.74039
2009    9       6       0.3983792       89.69652
2009    9       7       0.4084443       91.56945
2009    10      0       0.3955597       89.60471
2009    10      1       0.3951989       89.3359
2009    10      2       0.4113679       91.65345
2009    10      3       0.4000619       89.64569
2009    10      4       0.3249439       76.38649
2009    10      5       0.3133632       74.50459
2009    10      6       0.350373        81.31865
2009    10      7       0.3478097       81.32736
2009    11      0       0.3369194       79.1304
2009    11      1       0.2582571       63.85851
2009    11      2       0.2002744       52.01799
2009    11      3       0.1437472       39.84368
2009    11      4       0.1099934       32.14779
2009    11      5       0.1580947       43.16349
2009    11      6       0.234017        59.01331
2009    11      7       0.1901966       50.23728
2009    12      0       0.09534098      28.58072
2009    12      1       0.04276512      15.43081
2009    12      2       0.02694885      11.28369
2009    12      3       0.02440846      10.54256
2009    12      4       0.02668252      11.13601
2009    12      5       0.03177666      12.51878
2009    12      6       0.06506043      21.17341
2009    12      7       0.1655948       44.75132
2009    13      0       0.1581508       43.18381
2009    13      1       0.1382508       38.76772
2009    13      2       0.1492463       41.16114
2009    13      3       0.163137        44.18803
2009    13      4       0.1779532       47.37354
2009    13      5       0.2604571       64.27517
2009    13      6       0.2999802       72.228
2009    13      7       0.3818933       87.21176
2009    14      0       0.4179193       93.21665
2009    14      1       0.4182787       92.51542
2009    14      2       0.3701644       84.29588
2009    14      3       0.3515431       80.96727
2009    14      4       0.3059868       72.66903
2009    14      5       0.3097959       73.6612
2009    14      6       0.3669104       84.27598
2009    14      7       0.4186843       93.44828
2009    15      0       0.4552301       99.18379
2009    15      1       0.4456432       97.33553
2009    15      2       0.3930012       88.46393
2009    15      3       0.3791292       86.34299
2009    15      4       0.3557474       82.17482
2009    15      5       0.406737        91.03934
2009    15      6       0.3935433       88.20844
2009    15      7       0.4023529       89.78131
2009    16      0       0.362754        83.1072
2009    16      1       0.3025089       72.13779
2009    16      2       0.2655223       64.82861
2009    16      3       0.2530133       62.49432
2009    16      4       0.2168245       55.07091
2009    16      5       0.2432265       60.58816
2009    16      6       0.3032967       72.31019
2009    16      7       0.3365069       78.61453
2009    17      0       0.263981        64.90077
2009    17      1       0.1999681       51.55688
2009    17      2       0.1362109       37.60563
2009    17      3       0.1331694       36.91847
2009    17      4       0.2097533       53.81377
2009    17      5       0.2606129       64.33961
2009    17      6       0.3196818       75.3159
2009    17      7       0.3377412       78.72475
2009    18      0       0.2104046       54.0549
2009    18      1       0.1614296       43.78486
2009    18      2       0.168545        45.17726
2009    18      3       0.16181         43.61817
2009    18      4       0.1733018       46.28068
2009    18      5       0.2408215       60.5376
2009    18      6       0.3191665       75.94157
2009    18      7       0.3421591       80.44203
2009    19      0       0.2937489       71.31954
2009    19      1       0.2954766       71.76813
2009    19      2       0.2756503       67.84605
2009    19      3       0.2526594       63.22528
2009    19      4       0.2255149       57.5989
2009    19      5       0.2779569       68.1264
2009    19      6       0.3595373       83.25927
2009    19      7       0.4115217       93.00079
2009    20      0       0.4162144       93.97139
2009    20      1       0.4050577       91.99393
2009    20      2       0.355688        83.08233
2009    20      3       0.2808134       68.73292
2009    20      4       0.2071638       53.78758
2009    20      5       0.2177234       56.02551
2009    20      6       0.3318001       78.29309
2009    20      7       0.4166943       93.28459
2009    21      0       0.4035188       91.13394
2009    21      1       0.3459685       80.98414
2009    21      2       0.3480785       81.29516
2009    21      3       0.28271         68.79882
2009    21      4       0.2517037       62.5523
2009    21      5       0.3297743       77.74022
2009    21      6       0.5094213       108.7134
2009    21      7       0.5631115       117.2352
2009    22      0       0.5286152       111.6351
2009    22      1       0.3994024       90.7632
2009    22      2       0.3748306       86.06234
2009    22      3       0.3490144       81.1968
2009    22      4       0.3341419       78.43337
2009    22      5       0.3433863       80.36712
2009    22      6       0.4130975       92.96369
2009    22      7       0.4652765       102.1035
2009    23      0       0.4186942       93.86083
2009    23      1       0.3956258       89.50889
2009    23      2       0.4797963       103.0524
2009    23      3       0.415418        92.98278
2009    23      4       0.4066702       91.81257
2009    23      5       0.4185365       93.54072
2009    23      6       0.4279769       95.55791
2009    23      7       0.5420704       114.1352
2009    24      0       0.4883892       105.3336
2009    24      1       0.396614        89.85152
2009    24      2       0.3584079       82.92759
2009    24      3       0.3485043       81.19375
2009    24      4       0.2909211       70.70087
2009    24      5       0.3311172       78.34671
2009    24      6       0.4161465       93.84179
2009    24      7       0.4834397       104.8035
2009    25      0       0.4153853       92.87821
2009    25      1       0.3416715       79.53679
2009    25      2       0.2517034       62.37407
2009    25      3       0.1999683       52.02234
2009    25      4       0.1740059       46.63723
2009    25      5       0.2491011       62.32321
2009    25      6       0.3136252       75.46384
2009    25      7       0.2991055       72.8671
2009    26      0       0.2364454       60.01983
2009    26      1       0.1634765       44.04731
2009    26      2       0.2286559       57.74681
2009    26      3       0.2537449       63.18628
2009    26      4       0.2435606       61.24781
2009    26      5       0.3105581       74.24725
2009    26      6       0.3451002       80.97284
2009    26      7       0.3821827       87.20309
2009    27      0       0.2856566       68.71582
2009    27      1       0.2442175       60.15041
2009    27      2       0.2528037       61.8804
2009    27      3       0.2984262       71.16856
2009    27      4       0.3805268       86.25726
2009    27      5       0.4580948       99.58822
2009    27      6       0.4642593       100.8642
2009    27      7       0.4918972       106.1994
2009    28      0       0.4980611       106.7861
2009    28      1       0.4211061       93.82887
2009    28      2       0.3745445       85.51058
2009    28      3       0.3033372       72.58487
2009    28      4       0.2642598       65.11431
2009    28      5       0.290103        70.16368
2009    28      6       0.351186        81.76847
2009    28      7       0.4261546       95.30733
2009    29      0       0.3959784       89.63721
2009    29      1       0.3732196       85.33852
2009    29      2       0.3434972       80.08928
2009    29      3       0.3779404       86.35637
2009    29      4       0.3792739       86.83492
2009    29      5       0.3755562       86.15105
2009    29      6       0.4123076       92.34436
2009    29      7       0.3870264       88.52759
2009    30      0       0.3196984       76.27398
2009    30      1       0.3350549       78.91098
2009    30      2       0.3465194       80.82027
2009    30      3       0.3612247       83.44761
2009    30      4       0.3938767       89.16448
2009    30      5       0.4067844       91.42604
2009    30      6       0.381497        87.33732
2009    30      7       0.4086897       92.5127
2009    31      0       0.3671762       85.173
2009    31      1       0.3450458       80.70768
2009    31      2       0.3097305       74.12555
2009    31      3       0.2788037       68.3544
2009    31      4       0.272771        67.22629
2009    31      5       0.3427895       80.16698
2009    31      6       0.3606866       83.54376
2009    31      7       0.3401429       80.13311
2010    1       0       0.3691617       84.60598
2010    1       1       0.4292124       94.8017
2010    1       2       0.4487693       98.49058
2010    1       3       0.451723        99.41398
2010    1       4       0.3639322       84.65306
2010    1       5       0.3933103       90.10306
2010    1       6       0.4979797       107.3035
2010    1       7       0.5795811       120.3009
2010    2       0       0.5150932       109.6442
2010    2       1       0.5271569       110.6527
2010    2       2       0.5486879       113.9708
2010    2       3       0.4918308       105.5312
2010    2       4       0.4286154       95.34007
2010    2       5       0.4459926       98.63225
2010    2       6       0.4245937       95.43865
2010    2       7       0.4558049       101.2668
2010    3       0       0.4005064       91.01508
2010    3       1       0.3772208       86.37969
2010    3       2       0.4209299       93.42056
2010    3       3       0.4139921       92.50405
2010    3       4       0.3379642       79.01286
2010    3       5       0.3503091       81.47994
2010    3       6       0.446083        97.90825
2010    3       7       0.4767613       103.1678
2010    4       0       0.4847211       104.406
2010    4       1       0.5423254       112.9432
2010    4       2       0.5223574       109.6469
2010    4       3       0.5149002       108.9488
2010    4       4       0.4511648       99.01301
2010    4       5       0.4205125       93.68302
2010    4       6       0.463913        101.2143
2010    4       7       0.5158638       109.4064
2010    5       0       0.4983026       107.1632
2010    5       1       0.4712355       102.9008
2010    5       2       0.4342744       96.45208
2010    5       3       0.3945164       89.59913
2010    5       4       0.3465556       81.05726
2010    5       5       0.3931749       89.52033
2010    5       6       0.4616722       100.9517
2010    5       7       0.5525728       115.9293
2010    6       0       0.5628225       117.1886
2010    6       1       0.4919726       106.3643
2010    6       2       0.4507928       99.44166
2010    6       3       0.3744111       86.13727
2010    6       4       0.3410315       79.82265
2010    6       5       0.4214796       94.0014
2010    6       6       0.5227156       110.3404
2010    6       7       0.5024956       107.6396
2010    7       0       0.4764241       103.693
2010    7       1       0.3849072       88.45465
2010    7       2       0.3652936       84.68089
2010    7       3       0.3624114       83.7098
2010    7       4       0.4580541       99.81572
2010    7       5       0.4693196       101.2874
2010    7       6       0.4797768       102.688
2010    7       7       0.4871335       103.8077
2010    8       0       0.3538773       82.09338
2010    8       1       0.3538828       82.34858
2010    8       2       0.358446        82.69644
2010    8       3       0.310352        73.9373
2010    8       4       0.294745        71.23706
2010    8       5       0.3129837       74.75642
2010    8       6       0.4398957       97.04996
2010    8       7       0.5433128       114.3986
2010    9       0       0.5333541       112.7808
2010    9       1       0.4782531       103.9849
2010    9       2       0.4607142       100.3634
2010    9       3       0.3785366       86.30527
2010    9       4       0.33464         78.13968
2010    9       5       0.3344038       78.60277
2010    9       6       0.4828312       104.2924
2010    9       7       0.5783404       119.586
2010    10      0       0.5150614       110.3555
2010    10      1       0.4329746       96.71794
2010    10      2       0.3881475       88.1526
2010    10      3       0.4234712       93.91203
2010    10      4       0.4109234       92.00323
2010    10      5       0.3845532       87.81321
2010    10      6       0.4108812       92.70201
2010    10      7       0.4651041       101.9939
2010    11      0       0.491387        106.2303
2010    11      1       0.4705294       102.7869
2010    11      2       0.4593759       100.3605
2010    11      3       0.3805913       86.77805
2010    11      4       0.3538047       82.01072
2010    11      5       0.3823731       87.40623
2010    11      6       0.3980366       90.43148
2010    11      7       0.4247734       95.04094
2010    12      0       0.3592022       82.95214
2010    12      1       0.2519305       62.46168
2010    12      2       0.2218431       56.49759
2010    12      3       0.2100546       54.17693
2010    12      4       0.209046        53.98145
2010    12      5       0.2557342       63.63569
2010    12      6       0.3249603       77.00883
2010    12      7       0.3890273       88.95386
2010    13      0       0.3242275       77.09713
2010    13      1       0.29702         71.01024
2010    13      2       0.3118423       73.70536
2010    13      3       0.3596962       82.37926
2010    13      4       0.3124913       74.15679
2010    13      5       0.345469        80.37225
2010    13      6       0.3793655       86.84698
2010    13      7       0.4443615       98.12055
2010    14      0       0.3193037       76.10097
2010    14      1       0.2767997       67.91776
2010    14      2       0.2567068       63.96545
2010    14      3       0.2455629       61.70133
2010    14      4       0.2204764       56.43064
2010    14      5       0.2123162       54.60937
2010    14      6       0.2249748       57.37644
2010    14      7       0.2308486       58.60019
2010    15      0       0.1460947       40.54648
2010    15      1       0.1000527       29.82684
2010    15      2       0.09265789      27.93283
2010    15      3       0.09333002      27.95616
2010    15      4       0.1009565       29.70195
2010    15      5       0.1684361       45.07091
2010    15      6       0.291794        70.73022
2010    15      7       0.3565539       83.08076
2010    16      0       0.3325447       78.83917
2010    16      1       0.3591001       83.64907
2010    16      2       0.4115801       92.49645
2010    16      3       0.4452712       97.95834
2010    16      4       0.4153905       92.89317
2010    16      5       0.3953144       89.82678
2010    16      6       0.519717        109.7432
2010    16      7       0.6151789       123.9735
2010    17      0       0.5036371       107.5257
2010    17      1       0.4669337       102.2189
2010    17      2       0.4340591       96.47031
2010    17      3       0.4063415       91.71637
2010    17      4       0.4029711       91.35837
2010    17      5       0.5027128       108.1242
2010    17      6       0.5341341       112.5334
2010    17      7       0.581242        119.6703
2010    18      0       0.4582111       100.6688
2010    18      1       0.5186532       111.2597
2010    18      2       0.4630829       101.7571
2010    18      3       0.4108852       92.24788
2010    18      4       0.4061607       91.23302
2010    18      5       0.5086128       107.9764
2010    18      6       0.5123414       108.4392
2010    18      7       0.5422271       112.8058
2010    19      0       0.4498271       99.05302
2010    19      1       0.4252545       95.21118
2010    19      2       0.4486758       98.73098
2010    19      3       0.3864499       88.04158
2010    19      4       0.407519        91.78954
2010    19      5       0.4822914       104.4349
2010    19      6       0.561264        116.9591
2010    19      7       0.5702246       117.4962
2010    20      0       0.4850619       105.1156
2010    20      1       0.4207668       94.05602
2010    20      2       0.3423379       80.10466
2010    20      3       0.2876539       69.65925
2010    20      4       0.2485304       61.91627
2010    20      5       0.2833148       69.09767
2010    20      6       0.3885531       88.53222
2010    20      7       0.3987239       90.34465
2010    21      0       0.4460999       98.71147
2010    21      1       0.4306777       94.73963
2010    21      2       0.3178739       74.89313
2010    21      3       0.3140619       73.89642
2010    21      4       0.2616031       64.37946
2010    21      5       0.2490836       62.19669
2010    21      6       0.3484297       80.78251
2010    21      7       0.4279119       95.03724
2010    22      0       0.3893915       88.41961
2010    22      1       0.3474138       80.8043
2010    22      2       0.2501112       62.04204
2010    22      3       0.2442472       61.00597
2010    22      4       0.2318          58.53601
2010    22      5       0.2912691       70.3903
2010    22      6       0.3697343       85.00754
2010    22      7       0.3572568       83.41408
2010    23      0       0.3316807       78.324
2010    23      1       0.2546636       63.14012
2010    23      2       0.1807553       47.66342
2010    23      3       0.1231782       34.88646
2010    23      4       0.109273        31.65729
2010    23      5       0.1485396       40.72462
2010    23      6       0.2951662       71.17251
2010    23      7       0.3606538       83.69893
2010    24      0       0.3597375       82.75262
2010    24      1       0.3467963       79.98148
2010    24      2       0.3076641       72.99373
2010    24      3       0.2739592       66.61009
2010    24      4       0.2581685       63.58063
2010    24      5       0.3079413       73.43454
2010    24      6       0.3256155       77.13188
2010    24      7       0.3695993       85.68989
2010    25      0       0.3726915       85.59534
2010    25      1       0.3716042       84.58967
2010    25      2       0.3875665       87.14136
2010    25      3       0.4024309       89.92591
2010    25      4       0.4112967       91.55904
2010    25      5       0.4389703       96.65218
2010    25      6       0.5270504       110.9186
2010    25      7       0.522826        110.3748
2010    26      0       0.4963593       106.2842
2010    26      1       0.4603934       100.4378
2010    26      2       0.4052529       91.31093
2010    26      3       0.3599266       83.51
2010    26      4       0.302152        72.75391
2010    26      5       0.3165116       75.56413
2010    26      6       0.4145158       93.03604
2010    26      7       0.4673991       102.35
2010    27      0       0.4793972       104.6194
2010    27      1       0.5183061       110.3816
2010    27      2       0.4754497       103.1053
2010    27      3       0.4356792       96.36912
2010    27      4       0.390648        88.7001
2010    27      5       0.3925593       89.12223
2010    27      6       0.4130887       93.06277
2010    27      7       0.4418015       98.45948
2010    28      0       0.4902787       106.506
2010    28      1       0.4411285       98.27775
2010    28      2       0.4231802       94.89363
2010    28      3       0.3876391       88.50209
2010    28      4       0.3337491       78.79312
2010    28      5       0.32593         77.37939
2010    28      6       0.3445587       80.89505
2010    28      7       0.3515292       82.49384
2010    29      0       0.2504366       62.73289
2010    29      1       0.1981308       51.66012
2010    29      2       0.1449049       40.11021
2010    29      3       0.1358702       38.15361
2010    29      4       0.1233834       35.24771
2010    29      5       0.1352276       37.945
2010    29      6       0.1648109       44.54657
2010    29      7       0.126343        36.02666
2010    30      0       0.0623312       20.68984
2010    30      1       0.04844419      17.12861
2010    30      2       0.0609839       20.33153
2010    30      3       0.08509354      26.31517
2010    30      4       0.09930051      29.73322
2010    30      5       0.1908289       50.30814
2010    30      6       0.281243        68.91157
2010    30      7       0.3059043       73.5819
2010    31      0       0.2431123       61.04778
2010    31      1       0.206959        53.41514
2010    31      2       0.2379549       59.74621
2010    31      3       0.2385174       59.95943
2010    31      4       0.2620414       64.82266
2010    31      5       0.3732366       85.64415
2010    31      6       0.4155574       93.19349
2010    31      7       0.4623167       101.1589
2011    1       0       0.1495779       40.68898
2011    1       1       0.1509285       40.95713
2011    1       2       0.153569        41.49276
2011    1       3       0.1491252       40.44054
2011    1       4       0.1356814       37.40915
2011    1       5       0.1344821       37.19657
2011    1       6       0.1535903       41.76586
2011    1       7       0.1730695       46.15699
2011    2       0       0.1132646       32.71425
2011    2       1       0.115782        33.20185
2011    2       2       0.1483183       40.61369
2011    2       3       0.1709945       45.64857
2011    2       4       0.1714928       45.87045
2011    2       5       0.1763835       46.92202
2011    2       6       0.2338897       59.11277
2011    2       7       0.2945831       71.44617
2011    3       0       0.2195718       56.07212
2011    3       1       0.2259887       57.06505
2011    3       2       0.2708057       66.01979
2011    3       3       0.3257356       76.73627
2011    3       4       0.4262406       94.18316
2011    3       5       0.4202723       93.36709
2011    3       6       0.5132957       107.9535
2011    3       7       0.4815948       103.5845
2011    4       0       0.4450011       96.89442
2011    4       1       0.422547        93.25737
2011    4       2       0.371088        84.73236
2011    4       3       0.3409917       79.47987
2011    4       4       0.3116663       74.05729
2011    4       5       0.4550401       99.15275
2011    4       6       0.4617299       100.107
2011    4       7       0.4607609       100.5018
2011    5       0       0.466461        101.5289
2011    5       1       0.4147004       93.26807
2011    5       2       0.3465167       81.13107
2011    5       3       0.2631447       65.05611
2011    5       4       0.2477334       61.83743
2011    5       5       0.3273051       77.24741
2011    5       6       0.5335786       111.9813
2011    5       7       0.5359266       112.6451
2011    6       0       0.4817983       103.9221
2011    6       1       0.4472775       97.56448
2011    6       2       0.4319914       94.7779
2011    6       3       0.3902105       88.07844
2011    6       4       0.3875052       87.8031
2011    6       5       0.3974744       89.35811
2011    6       6       0.4157734       92.54229
2011    6       7       0.3773299       86.02119
2011    7       0       0.2644907       64.88234
2011    7       1       0.2147949       54.56744
2011    7       2       0.2046626       52.53369
2011    7       3       0.2091892       53.56948
2011    7       4       0.1801282       47.35728
2011    7       5       0.2325986       58.59028
2011    7       6       0.3198527       75.7225
2011    7       7       0.3167675       75.30647
2011    8       0       0.2507098       62.47028
2011    8       1       0.2849831       68.92774
2011    8       2       0.3434472       79.8505
2011    8       3       0.4372819       96.07889
2011    8       4       0.4577342       99.60507
2011    8       5       0.4526805       98.69975
2011    8       6       0.4326751       95.63705
2011    8       7       0.4845968       104.5517
2011    9       0       0.488302        104.7836
2011    9       1       0.3919672       88.72515
2011    9       2       0.3275108       77.35736
2011    9       3       0.3068462       73.44006
2011    9       4       0.3074979       73.5871
2011    9       5       0.3805109       86.71337
2011    9       6       0.4463901       97.84197
2011    9       7       0.435086        96.28468
2011    10      0       0.4445975       97.77485
2011    10      1       0.382611        87.19751
2011    10      2       0.359901        83.03409
2011    10      3       0.3494338       81.05015
2011    10      4       0.3175787       75.22341
2011    10      5       0.2907814       70.33131
2011    10      6       0.3141118       74.83011
2011    10      7       0.2998124       72.13
2011    11      0       0.2168317       55.1879
2011    11      1       0.1981167       51.097
2011    11      2       0.2195179       55.33153
2011    11      3       0.2056477       52.50649
2011    11      4       0.2146604       54.46537
2011    11      5       0.2655366       64.91656
2011    11      6       0.3565177       82.18921
2011    11      7       0.4318264       95.23111
2011    12      0       0.3557484       82.16273
2011    12      1       0.2904329       69.93711
2011    12      2       0.2943112       70.32709
2011    12      3       0.2822784       68.15975
2011    12      4       0.2562003       63.08893
2011    12      5       0.2971469       71.31694
2011    12      6       0.4008525       90.12622
2011    12      7       0.3662835       84.51398
2011    13      0       0.31755         75.61188
2011    13      1       0.338059        79.30422
2011    13      2       0.3031707       72.6255
2011    13      3       0.3031817       72.39914
2011    13      4       0.318929        75.3036
2011    13      5       0.3786649       85.98582
2011    13      6       0.3816854       86.42136
2011    13      7       0.3474254       80.62571
2011    14      0       0.3524878       81.68986
2011    14      1       0.369081        84.80192
2011    14      2       0.3586075       82.75031
2011    14      3       0.3480542       80.70556
2011    14      4       0.3505975       81.2271
2011    14      5       0.3484406       80.63013
2011    14      6       0.3701482       84.33323
2011    14      7       0.3742042       85.41968
2011    15      0       0.3534457       81.67398
2011    15      1       0.3431478       79.86648
2011    15      2       0.4000062       89.87687
2011    15      3       0.3412005       79.40648
2011    15      4       0.3228185       76.04426
2011    15      5       0.3653853       83.66311
2011    15      6       0.4760978       101.9096
2011    15      7       0.4280547       94.34719
2011    16      0       0.3666284       84.10685
2011    16      1       0.3278786       77.2311
2011    16      2       0.3152365       75.00601
2011    16      3       0.30296         72.76182
2011    16      4       0.2766631       67.61285
2011    16      5       0.3154836       75.06113
2011    16      6       0.3784193       86.82476
2011    16      7       0.454169        99.88908
2011    17      0       0.4820633       104.2575
2011    17      1       0.3636131       84.23203
2011    17      2       0.323532        76.8712
2011    17      3       0.3130506       74.88693
2011    17      4       0.3186278       75.74396
2011    17      5       0.454363        99.63451
2011    17      6       0.4166472       93.28475
2011    17      7       0.372741        85.87115
2011    18      0       0.3547399       82.56603
2011    18      1       0.3889837       88.36936
2011    18      2       0.349014        81.36261
2011    18      3       0.3530235       81.81628
2011    18      4       0.3137967       74.32644
2011    18      5       0.3425003       79.67004
2011    18      6       0.4014206       90.37009
2011    18      7       0.5137152       109.0572
2011    19      0       0.4543931       99.23539
2011    19      1       0.3995068       89.40977
2011    19      2       0.3549711       81.61429
2011    19      3       0.3163736       74.65531
2011    19      4       0.3086482       73.38265
2011    19      5       0.3934413       88.74329
2011    19      6       0.5270447       111.2197
2011    19      7       0.5421254       113.3365
2011    20      0       0.4866171       104.6302
2011    20      1       0.4485987       98.47061
2011    20      2       0.4199556       93.86859
2011    20      3       0.382373        87.12009
2011    20      4       0.3788061       86.38152
2011    20      5       0.4184792       93.21618
2011    20      6       0.4733241       102.1342
2011    20      7       0.4271511       95.52529
2011    21      0       0.3977246       90.71736
2011    21      1       0.374687        86.59892
2011    21      2       0.3734814       85.99883
2011    21      3       0.3481809       81.37278
2011    21      4       0.3382936       79.6425
2011    21      5       0.3780022       86.62662
2011    21      6       0.4323939       95.96695
2011    21      7       0.4579212       100.3451
2011    22      0       0.4710266       102.6049
2011    22      1       0.4723328       102.4407
2011    22      2       0.3626204       83.80114
2011    22      3       0.3055125       73.24583
2011    22      4       0.2965146       71.46415
2011    22      5       0.377794        86.34556
2011    22      6       0.4158965       93.32359
2011    22      7       0.4919171       105.8566
2011    23      0       0.4849167       103.8743
2011    23      1       0.4517251       98.84573
2011    23      2       0.4170746       93.35089
2011    23      3       0.3817509       87.35262
2011    23      4       0.3608406       83.65718
2011    23      5       0.4057199       91.43987
2011    23      6       0.4196553       93.97087
2011    23      7       0.4478503       98.5376
2011    24      0       0.3630603       84.18499
2011    24      1       0.3747321       86.57425
2011    24      2       0.4028795       91.01024
2011    24      3       0.4006654       90.37796
2011    24      4       0.4779273       103.1265
2011    24      5       0.4758012       102.8311
2011    24      6       0.5512846       115.1986
2011    24      7       0.4996981       106.7373
2011    25      0       0.4859214       104.8452
2011    25      1       0.4864475       105.3035
2011    25      2       0.4872751       105.0404
2011    25      3       0.4500786       98.51993
2011    25      4       0.3834452       87.25345
2011    25      5       0.4083519       91.80243
2011    25      6       0.5655912       117.4921
2011    25      7       0.6246314       126.1762
2011    26      0       0.5344466       112.3827
2011    26      1       0.5278469       110.8712
2011    26      2       0.4616707       100.6534
2011    26      3       0.3919947       89.1583
2011    26      4       0.3387911       79.71375
2011    26      5       0.3701623       85.22625
2011    26      6       0.4196678       94.09318
2011    26      7       0.4690056       102.2223
2011    27      0       0.5313557       112.1826
2011    27      1       0.4679117       101.6417
2011    27      2       0.4702642       101.8974
2011    27      3       0.4976765       106.4719
2011    27      4       0.4230356       94.11342
2011    27      5       0.4132588       92.55177
2011    27      6       0.450339        99.33994
2011    27      7       0.5022401       107.8158
2011    28      0       0.4252914       94.30701
2011    28      1       0.3649219       83.67164
2011    28      2       0.3516182       81.30859
2011    28      3       0.3223864       75.97109
2011    28      4       0.2634464       64.99096
2011    28      5       0.339471        79.72122
2011    28      6       0.3876366       88.92973
2011    28      7       0.4681918       102.5284
2011    29      0       0.4288624       95.00923
2011    29      1       0.426306        94.02288
2011    29      2       0.4496143       98.03699
2011    29      3       0.3644102       83.9683
2011    29      4       0.3421907       80.09711
2011    29      5       0.420263        93.61935
2011    29      6       0.4627993       101.2935
2011    29      7       0.4437788       98.61809
2011    30      0       0.4373218       97.5251
2011    30      1       0.4701412       103.1352
2011    30      2       0.4374601       97.24724
2011    30      3       0.3532046       82.31778
2011    30      4       0.3072626       73.67198
2011    30      5       0.332097        78.45559
2011    30      6       0.4234553       94.69674
2011    30      7       0.4949686       106.8344
2011    31      0       0.4672045       101.9793
2011    31      1       0.4850337       104.0162
2011    31      2       0.4191327       93.31574
2011    31      3       0.4111486       92.15657
2011    31      4       0.3900066       88.59553
2011    31      5       0.4465784       98.46749
2011    31      6       0.4265795       94.99306
2011    31      7       0.456333        100.4202
2012    1       0       0.4125021       91.9126
2012    1       1       0.4135955       91.71715
2012    1       2       0.4378131       95.80489
2012    1       3       0.3963311       88.99711
2012    1       4       0.3192978       75.65246
2012    1       5       0.3427449       80.06418
2012    1       6       0.4589758       100.8426
2012    1       7       0.5087231       109.0875
2012    2       0       0.5028451       107.3434
2012    2       1       0.4361478       96.27087
2012    2       2       0.4030724       91.1552
2012    2       3       0.426292        94.82071
2012    2       4       0.3575618       82.73861
2012    2       5       0.3668618       84.12411
2012    2       6       0.4627046       101.1397
2012    2       7       0.5165849       110.028
2012    3       0       0.5385158       113.2293
2012    3       1       0.4253579       94.91253
2012    3       2       0.4004888       90.11295
2012    3       3       0.3550621       81.80517
2012    3       4       0.3177929       74.92072
2012    3       5       0.3557173       82.32415
2012    3       6       0.4896861       105.0543
2012    3       7       0.497582        106.7376
2012    4       0       0.4845171       104.5295
2012    4       1       0.4591143       100.0192
2012    4       2       0.4190649       93.14559
2012    4       3       0.3877524       87.74865
2012    4       4       0.3578642       82.58027
2012    4       5       0.4018648       90.59958
2012    4       6       0.5107192       109.1481
2012    4       7       0.6172007       124.256
2012    5       0       0.4604551       99.96789
2012    5       1       0.4517527       98.30206
2012    5       2       0.4130832       91.91094
2012    5       3       0.3708876       84.90167
2012    5       4       0.3288507       77.46164
2012    5       5       0.3766569       86.24298
2012    5       6       0.3950905       90.10033
2012    5       7       0.4968493       107.1551
2012    6       0       0.3584403       82.69529
2012    6       1       0.3087776       73.06483
2012    6       2       0.2771898       67.04997
2012    6       3       0.2800919       67.64096
2012    6       4       0.2578147       63.44931
2012    6       5       0.3520064       81.60371
2012    6       6       0.4528164       99.58742
2012    6       7       0.517011        110.2592
2012    7       0       0.5015057       107.7963
2012    7       1       0.4838887       104.6711
2012    7       2       0.4065013       91.46787
2012    7       3       0.4455067       98.18502
2012    7       4       0.4628043       100.5293
2012    7       5       0.459971        99.82709
2012    7       6       0.5397667       112.3019
2012    7       7       0.4317126       95.55775
2012    8       0       0.3771322       86.07928
2012    8       1       0.3624378       83.85735
2012    8       2       0.3506731       81.80154
2012    8       3       0.3162398       75.20488
2012    8       4       0.2876533       69.6537
2012    8       5       0.372076        85.3819
2012    8       6       0.4522101       99.0836
2012    8       7       0.4668006       101.8178
2012    9       0       0.4875043       105.4295
2012    9       1       0.4390587       97.385
2012    9       2       0.4609644       100.6461
2012    9       3       0.4603964       99.92883
2012    9       4       0.3804918       86.67651
2012    9       5       0.3613211       83.51303
2012    9       6       0.3971941       89.56114
2012    9       7       0.5499498       114.9079
2012    10      0       0.5842065       120.3026
2012    10      1       0.5617832       116.3721
2012    10      2       0.452203        98.56593
2012    10      3       0.3732916       85.12755
2012    10      4       0.3766118       85.7889
2012    10      5       0.3696593       84.55678
2012    10      6       0.4305693       95.38533
2012    10      7       0.5052795       107.8751
2012    11      0       0.5304009       111.2456
2012    11      1       0.4530699       98.84829
2012    11      2       0.4311051       94.99692
2012    11      3       0.3801256       86.23566
2012    11      4       0.3254927       76.31711
2012    11      5       0.3702188       84.46582
2012    11      6       0.4603362       99.7737
2012    11      7       0.5251972       110.9188
2012    12      0       0.527728        111.0084
2012    12      1       0.4225087       93.38382
2012    12      2       0.4163485       92.14989
2012    12      3       0.429308        94.39318
2012    12      4       0.4092747       91.20352
2012    12      5       0.4154308       92.1258
2012    12      6       0.5277461       110.9622
2012    12      7       0.4640595       100.7534
2012    13      0       0.4658858       100.9812
2012    13      1       0.3115118       73.61578
2012    13      2       0.220057        55.82318
2012    13      3       0.1896428       49.53762
2012    13      4       0.159572        43.06227
2012    13      5       0.1858352       48.90371
2012    13      6       0.2154589       55.12923
2012    13      7       0.3065712       73.25994
2012    14      0       0.29329         70.25934
2012    14      1       0.1921604       49.98103
2012    14      2       0.1549665       42.03606
2012    14      3       0.1796726       47.27313
2012    14      4       0.2269526       57.18418
2012    14      5       0.3223642       75.88732
2012    14      6       0.4326142       96.16592
2012    14      7       0.4445608       98.03679
2012    15      0       0.3227294       76.02795
2012    15      1       0.2437254       60.72599
2012    15      2       0.2506029       62.16035
2012    15      3       0.3264686       76.57934
2012    15      4       0.28003         67.84478
2012    15      5       0.3776929       86.05851
2012    15      6       0.370148        84.83781
2012    15      7       0.373908        85.33595
2012    16      0       0.3392444       79.1669
2012    16      1       0.3905109       88.34267
2012    16      2       0.3687815       84.10348
2012    16      3       0.3290109       76.80293
2012    16      4       0.2719263       66.02921
2012    16      5       0.2973353       71.47659
2012    16      6       0.3485397       81.10608
2012    16      7       0.4220005       94.19488
2012    17      0       0.405381        91.01497
2012    17      1       0.3536472       82.02813
2012    17      2       0.3468126       80.76642
2012    17      3       0.3010798       72.31748
2012    17      4       0.2537573       63.06077
2012    17      5       0.2696932       66.48778
2012    17      6       0.3821545       87.15359
2012    17      7       0.3751866       86.1894
2012    18      0       0.3620871       83.80172
2012    18      1       0.4313839       95.97776
2012    18      2       0.3882397       88.53728
2012    18      3       0.3768676       86.08017
2012    18      4       0.2783144       67.3613
2012    18      5       0.2100209       53.73336
2012    18      6       0.2695948       66.33463
2012    18      7       0.3433286       80.7757
2012    19      0       0.3563486       83.15206
2012    19      1       0.3121809       74.97161
2012    19      2       0.3412747       80.21992
2012    19      3       0.311177        74.35946
2012    19      4       0.283818        68.92851
2012    19      5       0.3326315       77.92929
2012    19      6       0.4275408       95.1231
2012    19      7       0.430003        95.41351
2012    20      0       0.2909079       70.37806
2012    20      1       0.244988        60.84819
2012    20      2       0.2709885       66.08307
2012    20      3       0.2749173       66.60276
2012    20      4       0.2544738       62.87427
2012    20      5       0.3343676       78.25516
2012    20      6       0.4832052       103.9935
2012    20      7       0.4840197       104.7308
2012    21      0       0.4949233       106.027
2012    21      1       0.4358242       95.92863
2012    21      2       0.4167774       92.15636
2012    21      3       0.4050593       90.11565
2012    21      4       0.3490066       80.40519
2012    21      5       0.244743        60.91327
2012    21      6       0.4765101       103.0417
2012    21      7       0.5196698       110.2364
2012    22      0       0.4716176       103.0289
2012    22      1       0.4300338       95.14677
2012    22      2       0.3702986       84.67447
2012    22      3       0.3045108       73.20788
2012    22      4       0.2267065       57.85381
2012    22      5       0.2306119       58.43428
2012    22      6       0.3965225       89.76098
2012    22      7       0.4446782       98.83448
2012    23      0       0.5669738       118.2133
2012    23      1       0.4276123       95.39381
2012    23      2       0.3154163       74.94414
2012    23      3       0.2093786       54.14355
2012    23      4       0.2051203       53.41647
2012    23      5       0.2276901       57.99276
2012    23      6       0.302536        73.15817
2012    23      7       0.4187261       94.40885
2012    24      0       0.3321862       78.57684
2012    24      1       0.1877588       49.34289
2012    24      2       0.0959672       28.4973
2012    24      3       0.09290322      27.78745
2012    24      4       0.08889176      26.85101
2012    24      5       0.1597394       43.19432
2012    24      6       0.3453902       81.01954
2012    24      7       0.4989943       106.6796
2012    25      0       0.4411063       97.07309
2012    25      1       0.3966612       89.32255
2012    25      2       0.3548864       82.31938
2012    25      3       0.3360411       78.89267
2012    25      4       0.3184735       75.50421
2012    25      5       0.355323        81.90748
2012    25      6       0.5542159       114.6094
2012    25      7       0.5008408       106.6266
2012    26      0       0.4458054       97.46665
2012    26      1       0.3856427       87.78614
2012    26      2       0.3450043       80.54838
2012    26      3       0.3316587       78.0131
2012    26      4       0.3169384       75.18235
2012    26      5       0.3639479       83.79962
2012    26      6       0.5174629       109.712
2012    26      7       0.4359204       97.00964
2012    27      0       0.4371503       97.12068
2012    27      1       0.3748654       86.26354
2012    27      2       0.3002481       72.35831
2012    27      3       0.2713565       66.52817
2012    27      4       0.276408        67.3833
2012    27      5       0.3491677       80.79075
2012    27      6       0.4978748       106.7419
2012    27      7       0.5362246       112.5474
2012    28      0       0.483683        103.983
2012    28      1       0.3868888       87.80682
2012    28      2       0.317688        75.60688
2012    28      3       0.3561538       82.4657
2012    28      4       0.3143104       74.53347
2012    28      5       0.3374099       78.45963
2012    28      6       0.4499675       98.69662
2012    28      7       0.5184177       109.8161
2012    29      0       0.4349722       96.11422
2012    29      1       0.3439268       79.83649
2012    29      2       0.3150665       74.47168
2012    29      3       0.30777         73.17357
2012    29      4       0.28096         68.16631
2012    29      5       0.3159967       74.92338
2012    29      6       0.3887403       88.40115
2012    29      7       0.4365029       96.79717
2012    30      0       0.3646138       84.40132
2012    30      1       0.4251332       94.50042
2012    30      2       0.3685317       84.52289
2012    30      3       0.29331         70.58197
2012    30      4       0.2489293       61.73989
2012    30      5       0.2196457       55.74473
2012    30      6       0.3457216       80.2227
2012    30      7       0.3987645       89.63896
2012    31      0       0.400307        90.30065
2012    31      1       0.4327289       95.83144
2012    31      2       0.3305353       77.59923
2012    31      3       0.2822063       68.43287
2012    31      4       0.2274505       57.54925
2012    31      5       0.2536557       63.13449
2012    31      6       0.3939819       88.84682
2012    31      7       0.4399115       97.43093
2013    1       0       0.5361206       112.2627
2013    1       1       0.4826194       103.6637
2013    1       2       0.4535249       99.31632
2013    1       3       0.4038241       91.21686
2013    1       4       0.3724212       85.85029
2013    1       5       0.397757        90.25065
2013    1       6       0.5478057       115.0248
2013    1       7       0.5528667       115.2238
2013    2       0       0.4718438       102.6593
2013    2       1       0.4314171       96.31619
2013    2       2       0.4450199       98.09251
2013    2       3       0.38076         87.03029
2013    2       4       0.3485042       81.47589
2013    2       5       0.4217033       94.08863
2013    2       6       0.489859        105.4355
2013    2       7       0.5132462       108.3702
2013    3       0       0.4506043       98.76426
2013    3       1       0.3807798       87.42928
2013    3       2       0.3402058       80.0099
2013    3       3       0.2887389       70.05509
2013    3       4       0.2809993       68.66109
2013    3       5       0.4352578       96.81161
2013    3       6       0.5431486       113.0421
2013    3       7       0.6072777       121.9325
2013    4       0       0.4758007       102.7009
2013    4       1       0.4442845       97.95642
2013    4       2       0.4174993       93.19637
2013    4       3       0.3647283       84.1114
2013    4       4       0.3869959       88.33702
2013    4       5       0.5363874       112.3057
2013    4       6       0.5409918       113.1272
2013    4       7       0.5249474       110.0435
2013    5       0       0.4474917       98.74291
2013    5       1       0.4203876       93.45009
2013    5       2       0.4476457       97.61837
2013    5       3       0.4353885       95.45434
2013    5       4       0.3432748       79.66858
2013    5       5       0.3266396       76.88554
2013    5       6       0.483162        104.2786
2013    5       7       0.617598        123.4528
2013    6       0       0.5639617       116.5085
2013    6       1       0.4822507       103.5868
2013    6       2       0.4130212       91.92537
2013    6       3       0.3852472       87.20057
2013    6       4       0.3419977       79.77178
2013    6       5       0.3573484       82.75236
2013    6       6       0.4447113       98.39748
2013    6       7       0.5986283       122.7518
2013    7       0       0.5288142       111.9637
2013    7       1       0.4117173       93.15771
2013    7       2       0.3517459       82.21266
2013    7       3       0.3532268       82.42012
2013    7       4       0.5017472       107.1825
2013    7       5       0.5171252       109.1842
2013    7       6       0.4917781       105.8142
2013    7       7       0.5611208       115.8007
2013    8       0       0.5053777       107.1048
2013    8       1       0.4912349       104.9964
2013    8       2       0.459482        99.79235
2013    8       3       0.4869774       104.3114
2013    8       4       0.4473215       98.27159
2013    8       5       0.4449343       97.92378
2013    8       6       0.4843592       104.406
2013    8       7       0.48276         104.4437
2013    9       0       0.4428602       97.59477
2013    9       1       0.4113214       91.93468
2013    9       2       0.3621242       83.52605
2013    9       3       0.313558        74.65156
2013    9       4       0.2983703       71.69446
2013    9       5       0.3666047       84.25098
2013    9       6       0.4277276       95.10629
2013    9       7       0.4441138       98.47439
2013    10      0       0.4103617       92.24061
2013    10      1       0.3721524       85.25459
2013    10      2       0.3898721       88.4842
2013    10      3       0.4115875       92.39051
2013    10      4       0.4248059       94.85144
2013    10      5       0.4880379       105.0711
2013    10      6       0.6343954       125.994
2013    10      7       0.5676813       117.406
2013    11      0       0.5723976       118.6931
2013    11      1       0.3545927       82.78772
2013    11      2       0.2703179       66.8319
2013    11      3       0.254147        63.61837
2013    11      4       0.2764471       67.98718
2013    11      5       0.3114203       74.90008
2013    11      6       0.3935283       90.46447
2013    11      7       0.5451526       114.9595
2013    12      0       0.3753812       86.30462
2013    12      1       0.2732831       66.89476
2013    12      2       0.2129908       54.74583
2013    12      3       0.1647621       44.37124
2013    12      4       0.1263199       35.82723
2013    12      5       0.1801176       47.9815
2013    12      6       0.2893122       70.20985
2013    12      7       0.3064106       73.89412
2013    13      0       0.2700908       65.75314
2013    13      1       0.2175172       54.92752
2013    13      2       0.2330227       58.10005
2013    13      3       0.2196234       55.41102
2013    13      4       0.1882165       49.0053
2013    13      5       0.1967011       50.95346
2013    13      6       0.2878817       69.70248
2013    13      7       0.333354        78.90749
2013    14      0       0.3142173       74.63774
2013    14      1       0.2869305       69.42688
2013    14      2       0.3793711       86.57498
2013    14      3       0.3986887       89.99438
2013    14      4       0.3530184       81.92208
2013    14      5       0.3624706       83.78482
2013    14      6       0.4706896       102.2078
2013    14      7       0.5052191       108.1711
2013    15      0       0.4050571       90.64461
2013    15      1       0.3522914       81.05297
2013    15      2       0.3517169       80.86694
2013    15      3       0.3494891       80.39924
2013    15      4       0.3722289       84.73682
2013    15      5       0.3441402       80.14101
2013    15      6       0.4125046       92.49577
2013    15      7       0.4806196       103.8219
2013    16      0       0.4784388       103.3224
2013    16      1       0.4670768       101.4538
2013    16      2       0.4108799       91.73126
2013    16      3       0.3957543       89.08721
2013    16      4       0.3824267       86.69023
2013    16      5       0.4536336       99.24447
2013    16      6       0.407377        91.95637
2013    16      7       0.4480401       99.05407
2013    17      0       0.4272832       95.57915
2013    17      1       0.4827807       104.6036
2013    17      2       0.4680822       101.5914
2013    17      3       0.4109458       92.03831
2013    17      4       0.3864638       87.95127
2013    17      5       0.4521806       99.24342
2013    17      6       0.4513396       98.97297
2013    17      7       0.4670415       101.6585
2013    18      0       0.4034763       91.14493
2013    18      1       0.324886        76.79693
2013    18      2       0.2675445       65.77161
2013    18      3       0.2392547       60.28745
2013    18      4       0.2187486       56.27464
2013    18      5       0.29605         71.91386
2013    18      6       0.3433494       80.57586
2013    18      7       0.3389983       80.27184
2013    19      0       0.2790565       68.78573
2013    19      1       0.265037        65.92298
2013    19      2       0.2078587       54.13923
2013    19      3       0.1535417       42.33039
2013    19      4       0.1700783       45.95249
2013    19      5       0.3080353       73.91528
2013    19      6       0.3291625       77.91095
2013    19      7       0.3135488       75.34248
2013    20      0       0.2246125       57.43469
2013    20      1       0.1692917       45.30743
2013    20      2       0.1088227       31.52679
2013    20      3       0.06561798      21.17686
2013    20      4       0.05719636      19.19873
2013    20      5       0.06997842      22.3787
2013    20      6       0.1082551       31.57888
2013    20      7       0.2080127       53.49763
2013    21      0       0.1296534       36.48076
2013    21      1       0.08811021      26.78719
2013    21      2       0.07423862      23.44052
2013    21      3       0.0715351       22.80571
2013    21      4       0.08329397      25.71077
2013    21      5       0.1359758       38.10361
2013    21      6       0.2557762       63.5179
2013    21      7       0.3319278       78.69599
2013    22      0       0.3837295       88.23816
2013    22      1       0.4680319       102.0999
2013    22      2       0.4074696       91.18653
2013    22      3       0.4363133       95.67209
2013    22      4       0.2902178       70.1661
2013    22      5       0.3335001       78.36972
2013    22      6       0.332681        78.30174
2013    22      7       0.3680037       84.53472
2013    23      0       0.3449948       80.46172
2013    23      1       0.2779624       67.93181
2013    23      2       0.2292781       57.91936
2013    23      3       0.1292706       36.29221
2013    23      4       0.07821442      24.34925
2013    23      5       0.09988596      29.62943
2013    23      6       0.1623268       43.82552
2013    23      7       0.1744223       46.47958
2013    24      0       0.05689332      19.16957
2013    24      1       0.03498543      13.46858
2013    24      2       0.03182147      12.56447
2013    24      3       0.03243031      12.67614
2013    24      4       0.03322609      12.89209
2013    24      5       0.03124363      12.40501
2013    24      6       0.04867119      17.01509
2013    24      7       0.04215395      15.27846
2013    25      0       0.03224417      12.58852
2013    25      1       0.0314603       12.3795
2013    25      2       0.0324113       12.67154
2013    25      3       0.03369331      12.99385
2013    25      4       0.03241441      12.66998
2013    25      5       0.03676649      13.87963
2013    25      6       0.05139097      17.74611
2013    25      7       0.06540691      21.3496
2013    26      0       0.04028898      14.8672
2013    26      1       0.04284357      15.50063
2013    26      2       0.06154275      20.30811
2013    26      3       0.0531736       18.15585
2013    26      4       0.04089331      15.02518
2013    26      5       0.09054035      27.47467
2013    26      6       0.1814094       48.18826
2013    26      7       0.1512579       41.59499
2013    27      0       0.0836744       25.80976
2013    27      1       0.08054194      24.97237
2013    27      2       0.1048879       30.73074
2013    27      3       0.1164423       33.35905
2013    27      4       0.1478467       40.48101
2013    27      5       0.2429717       60.6519
2013    27      6       0.361163        83.05596
2013    27      7       0.3527107       81.57492
2013    28      0       0.2924568       70.58219
2013    28      1       0.2504951       62.49391
2013    28      2       0.2457661       61.539
2013    28      3       0.2508391       62.4536
2013    28      4       0.2518003       62.63955
2013    28      5       0.2741325       67.22489
2013    28      6       0.3053738       73.3606
2013    28      7       0.2890193       70.41882
2013    29      0       0.2733565       67.22005
2013    29      1       0.2960323       71.4546
2013    29      2       0.3263561       76.81128
2013    29      3       0.3328894       77.88946
2013    29      4       0.3351114       78.49261
2013    29      5       0.3699448       84.84007
2013    29      6       0.3819664       87.09634
2013    29      7       0.3546396       82.74156
2013    30      0       0.3003123       72.44743
2013    30      1       0.2569682       63.86226
2013    30      2       0.2261603       57.63667
2013    30      3       0.2064023       53.5037
2013    30      4       0.2003166       52.19928
2013    30      5       0.2277181       57.9726
2013    30      6       0.2358036       59.72708
2013    30      7       0.2414127       60.90819
2013    31      0       0.1975495       51.6039
2013    31      1       0.1727252       46.08478
2013    31      2       0.1705185       45.61437
2013    31      3       0.1604173       43.48774
2013    31      4       0.1508068       41.23727
2013    31      5       0.1884055       49.47219
2013    31      6       0.2446015       61.18925
2013    31      7       0.2667991       65.76356
2014    1       0       0.4635147       100.4192
2014    1       1       0.3408104       79.25935
2014    1       2       0.3250684       76.64532
2014    1       3       0.2779543       67.87246
2014    1       4       0.2303651       58.35763
2014    1       5       0.2634577       65.0777
2014    1       6       0.2891113       69.93463
2014    1       7       0.3432272       79.84588
2014    2       0       0.2069251       53.42284
2014    2       1       0.1614817       43.80472
2014    2       2       0.1311652       36.8293
2014    2       3       0.1396882       38.64899
2014    2       4       0.1568929       42.39352
2014    2       5       0.1963634       51.01871
2014    2       6       0.2807351       68.30294
2014    2       7       0.3889495       88.658
2014    3       0       0.3329485       78.00728
2014    3       1       0.2139106       54.41135
2014    3       2       0.1645378       43.91164
2014    3       3       0.1412514       38.68134
2014    3       4       0.1140878       32.48723
2014    3       5       0.101802        29.7175
2014    3       6       0.1398283       38.65369
2014    3       7       0.296303        70.98735
2014    4       0       0.3006284       71.97245
2014    4       1       0.3421129       79.81391
2014    4       2       0.2794165       67.51298
2014    4       3       0.2848137       68.53786
2014    4       4       0.3741707       85.01776
2014    4       5       0.4122626       91.72369
2014    4       6       0.3837174       87.14329
2014    4       7       0.3831083       87.11038
2014    5       0       0.384094        87.1614
2014    5       1       0.3814945       87.14192
2014    5       2       0.3470426       80.93671
2014    5       3       0.318941        75.63973
2014    5       4       0.3399815       79.44576
2014    5       5       0.4253829       94.55985
2014    5       6       0.5043145       107.5239
2014    5       7       0.4877089       105.3263
2014    6       0       0.3997073       90.72884
2014    6       1       0.4183536       94.332
2014    6       2       0.391069        89.30869
2014    6       3       0.3110311       74.1899
2014    6       4       0.2944474       70.84239
2014    6       5       0.3632359       83.29357
2014    6       6       0.4345752       95.49359
2014    6       7       0.4367159       96.75802
2014    7       0       0.4656776       101.7395
2014    7       1       0.4242565       94.96608
2014    7       2       0.3871846       88.19015
2014    7       3       0.4015213       90.35257
2014    7       4       0.4060597       90.40723
2014    7       5       0.3928751       88.03088
2014    7       6       0.4043281       90.06831
2014    7       7       0.4518932       97.9626
2014    8       0       0.3909798       88.25256
2014    8       1       0.3279189       77.22944
2014    8       2       0.3480018       80.65734
2014    8       3       0.3219625       75.82158
2014    8       4       0.304809        72.72913
2014    8       5       0.4828899       103.4557
2014    8       6       0.5344458       111.3287
2014    8       7       0.53409         110.8425
2014    9       0       0.3913733       87.99603
2014    9       1       0.3174183       75.01293
2014    9       2       0.2438079       61.04803
2014    9       3       0.2091713       53.76743
2014    9       4       0.2154339       55.00271
2014    9       5       0.3307162       77.8484
2014    9       6       0.4227879       93.78965
2014    9       7       0.441805        96.73276
2014    10      0       0.284865        68.92284
2014    10      1       0.2252058       57.1295
2014    10      2       0.2446013       60.91202
2014    10      3       0.2896096       69.64208
2014    10      4       0.2853263       68.93007
2014    10      5       0.3269265       76.95841
2014    10      6       0.3779406       86.40625
2014    10      7       0.4224401       94.33976
2014    11      0       0.3665829       84.38806
2014    11      1       0.3345519       79.03562
2014    11      2       0.3158999       75.12175
2014    11      3       0.2675033       65.38822
2014    11      4       0.2608549       64.05089
2014    11      5       0.3531837       81.54446
2014    11      6       0.3870504       88.00065
2014    11      7       0.4324991       96.15494
2014    12      0       0.3819923       87.43264
2014    12      1       0.3512942       82.07709
2014    12      2       0.3092525       73.91438
2014    12      3       0.2790722       67.83923
2014    12      4       0.2877036       69.55959
2014    12      5       0.3672243       83.94743
2014    12      6       0.3708611       85.03201
2014    12      7       0.4085271       92.21657
2014    13      0       0.3775796       86.80003
2014    13      1       0.4343189       96.11983
2014    13      2       0.3735746       84.90295
2014    13      3       0.298707        71.05419
2014    13      4       0.212068        53.90283
2014    13      5       0.1788662       47.15203
2014    13      6       0.3267797       76.65865
2014    13      7       0.5071171       108.0253
2014    14      0       0.5271359       111.2157
2014    14      1       0.446416        98.56441
2014    14      2       0.4453836       98.1574
2014    14      3       0.3992493       89.99629
2014    14      4       0.3557431       82.08454
2014    14      5       0.3811205       86.63852
2014    14      6       0.5737282       117.9769
2014    14      7       0.4907218       105.8878
2014    15      0       0.4623092       101.3953
2014    15      1       0.487001        104.8117
2014    15      2       0.4471837       98.1703
2014    15      3       0.4236183       94.04903
2014    15      4       0.4068984       91.22324
2014    15      5       0.4057023       91.33221
2014    15      6       0.529721        111.9565
2014    15      7       0.4985448       106.7448
2014    16      0       0.4655026       100.9198
2014    16      1       0.4273567       94.52701
2014    16      2       0.3707846       84.95853
2014    16      3       0.3260202       76.79778
2014    16      4       0.270549        66.10526
2014    16      5       0.310876        74.14339
2014    16      6       0.3932903       89.44258
2014    16      7       0.4522182       99.88836
2014    17      0       0.4725392       103.2721
2014    17      1       0.4652742       102.1491
2014    17      2       0.4378265       97.42865
2014    17      3       0.392728        89.35878
2014    17      4       0.3424561       80.05721
2014    17      5       0.3896634       88.48371
2014    17      6       0.4726368       102.7675
2014    17      7       0.5281196       111.7598
2014    18      0       0.4840781       103.8464
2014    18      1       0.45961         99.80296
2014    18      2       0.3772681       86.3352
2014    18      3       0.386249        87.94361
2014    18      4       0.3417593       79.87431
2014    18      5       0.3571185       82.80977
2014    18      6       0.4167671       93.5038
2014    18      7       0.5182193       110.242
2014    19      0       0.4569237       99.51669
2014    19      1       0.4402604       96.43002
2014    19      2       0.4592871       99.53872
2014    19      3       0.3885495       87.62862
2014    19      4       0.3341466       78.03628
2014    19      5       0.3624017       83.31907
2014    19      6       0.421598        93.55352
2014    19      7       0.3917618       88.78339
2014    20      0       0.277464        67.18571
2014    20      1       0.2407312       59.68269
2014    20      2       0.2250262       56.47536
2014    20      3       0.2253463       56.47208
2014    20      4       0.2514644       61.49401
2014    20      5       0.2483733       61.17728
2014    20      6       0.2317046       58.2584
2014    20      7       0.2325781       58.45874
2014    21      0       0.1696292       44.97806
2014    21      1       0.1514627       40.93917
2014    21      2       0.1489284       40.32706
2014    21      3       0.1510639       40.76093
2014    21      4       0.1879053       48.66883
2014    21      5       0.2614675       63.92442
2014    21      6       0.3293044       77.13949
2014    21      7       0.3652285       83.40226
2014    22      0       0.3049231       71.75684
2014    22      1       0.2741827       65.74508
2014    22      2       0.2542263       61.76378
2014    22      3       0.2169005       54.37968
2014    22      4       0.1753168       45.84929
2014    22      5       0.1562101       41.99032
2014    22      6       0.2191731       55.2819
2014    22      7       0.3126061       73.62606
2014    23      0       0.2865589       68.9663
2014    23      1       0.2883425       69.49075
2014    23      2       0.2895578       69.9775
2014    23      3       0.2793367       67.98002
2014    23      4       0.2429329       60.85311
2014    23      5       0.2947506       71.15362
2014    23      6       0.3219019       76.14761
2014    23      7       0.35932         82.67935
2014    24      0       0.3082585       73.4845
2014    24      1       0.3827012       87.56921
2014    24      2       0.3831594       87.44424
2014    24      3       0.3245564       76.75599
2014    24      4       0.2874168       69.61341
2014    24      5       0.3644587       83.96364
2014    24      6       0.3554527       82.4106
2014    24      7       0.3745093       85.62567
2014    25      0       0.321023        75.72393
2014    25      1       0.3894993       87.57576
2014    25      2       0.3822111       86.59556
2014    25      3       0.388316        87.83884
2014    25      4       0.360016        83.00051
2014    25      5       0.3613738       83.49061
2014    25      6       0.3553159       82.51834
2014    25      7       0.4310758       95.83818
2014    26      0       0.3801951       87.02179
2014    26      1       0.3343017       78.87791
2014    26      2       0.3199112       76.45898
2014    26      3       0.3624713       83.93258
2014    26      4       0.4023377       90.80433
2014    26      5       0.3756891       86.13414
2014    26      6       0.3299592       78.04069
2014    26      7       0.3879042       88.29701
2014    27      0       0.4191544       93.68487
2014    27      1       0.3952239       89.36908
2014    27      2       0.3187732       75.32753
2014    27      3       0.305155        72.75103
2014    27      4       0.2216337       56.43313
2014    27      5       0.2260303       57.51346
2014    27      6       0.2527356       63.06798
2014    27      7       0.2540585       63.4723
2014    28      0       0.1698167       45.60783
2014    28      1       0.135624        37.88833
2014    28      2       0.101585        30.1145
2014    28      3       0.08941186      27.23377
2014    28      4       0.07604045      23.97504
2014    28      5       0.06456534      21.11568
2014    28      6       0.06504984      21.2466
2014    28      7       0.04584118      16.39637
2014    29      0       0.04202659      15.40109
2014    29      1       0.04065014      15.04383
2014    29      2       0.03740293      14.17838
2014    29      3       0.03767328      14.24322
2014    29      4       0.03220978      12.74999
2014    29      5       0.03585153      13.69757
2014    29      6       0.04827543      16.91631
2014    29      7       0.0378235       14.22954
2014    30      0       0.03283977      12.89792
2014    30      1       0.03127215      12.51761
2014    30      2       0.03177582      12.63581
2014    30      3       0.03594301      13.74552
2014    30      4       0.04141258      15.15851
2014    30      5       0.05003789      17.34148
2014    30      6       0.06716621      21.65052
2014    30      7       0.08756801      26.64141
2014    31      0       0.05926978      19.64031
2014    31      1       0.05408295      18.41906
2014    31      2       0.04702161      16.42521
2014    31      3       0.04953525      16.92495
2014    31      4       0.05709749      18.91015
2014    31      5       0.1066031       30.91825
2014    31      6       0.2381144       59.46835
2014    31      7       0.2923074       70.45284
2015    1       0       0.353654        82.562
2015    1       1       0.30566         73.28901
2015    1       2       0.2897147       70.22613
2015    1       3       0.3062639       73.5788
2015    1       4       0.2923993       71.04297
2015    1       5       0.3199138       76.12742
2015    1       6       0.3423529       80.70286
2015    1       7       0.3358313       79.57611
2015    2       0       0.2638118       65.36502
2015    2       1       0.1486695       40.73056
2015    2       2       0.1155822       33.08207
2015    2       3       0.2422921       60.07781
2015    2       4       0.2606759       64.35591
2015    2       5       0.3738314       85.76995
2015    2       6       0.5426871       113.9495
2015    2       7       0.546843        114.333
2015    3       0       0.4304695       95.03822
2015    3       1       0.4303671       94.82733
2015    3       2       0.3779389       85.92887
2015    3       3       0.4049974       90.80699
2015    3       4       0.3847021       87.6696
2015    3       5       0.4815988       103.8396
2015    3       6       0.4034872       91.09707
2015    3       7       0.4942785       106.5319
2015    4       0       0.4772621       103.5902
2015    4       1       0.4287012       94.71061
2015    4       2       0.4029013       90.44103
2015    4       3       0.4138066       92.23605
2015    4       4       0.3475518       80.86189
2015    4       5       0.3848303       87.45646
2015    4       6       0.443385        97.47898
2015    4       7       0.4684175       102.041
2015    5       0       0.4212983       93.70322
2015    5       1       0.4609877       99.96402
2015    5       2       0.445681        97.49859
2015    5       3       0.4392032       96.34557
2015    5       4       0.3949534       89.02163
2015    5       5       0.4056978       91.10228
2015    5       6       0.4603264       99.87688
2015    5       7       0.453596        99.8224
2015    6       0       0.5039748       107.0281
2015    6       1       0.4455086       97.37286
2015    6       2       0.3708064       85.03235
2015    6       3       0.3160172       75.32759
2015    6       4       0.32094         76.2839
2015    6       5       0.4378337       96.7623
2015    6       6       0.4705544       102.6725
2015    6       7       0.5159879       110.3531
2015    7       0       0.5219274       111.3224
2015    7       1       0.4788276       103.9386
2015    7       2       0.4067092       91.56908
2015    7       3       0.4291188       95.41992
2015    7       4       0.4293231       95.19447
2015    7       5       0.3939905       89.09286
2015    7       6       0.4015951       90.56693
2015    7       7       0.4219817       94.28841
2015    8       0       0.4026011       91.23538
2015    8       1       0.420846        94.82955
2015    8       2       0.3987858       90.74559
2015    8       3       0.2932133       71.13574
2015    8       4       0.2771306       67.9028
2015    8       5       0.3966017       89.9419
2015    8       6       0.5566318       114.9726
2015    8       7       0.5265715       110.6021
2015    9       0       0.4238938       94.73182
2015    9       1       0.4951545       106.1731
2015    9       2       0.4549137       99.50698
2015    9       3       0.3854462       88.35626
2015    9       4       0.3827415       87.8219
2015    9       5       0.4353393       96.80302
2015    9       6       0.4630537       101.6293
2015    9       7       0.5108268       108.5665
2015    10      0       0.4005749       90.60973
2015    10      1       0.3469309       81.41715
2015    10      2       0.4225683       93.93203
2015    10      3       0.3738929       85.65944
2015    10      4       0.4667428       100.4967
2015    10      5       0.3891852       87.98536
2015    10      6       0.4799845       103.7583
2015    10      7       0.5004946       106.5608
2015    11      0       0.5087961       107.9556
2015    11      1       0.4000684       90.26368
2015    11      2       0.4054952       90.09421
2015    11      3       0.3650955       83.42527
2015    11      4       0.2536921       63.05697
2015    11      5       0.3015376       72.48706
2015    11      6       0.4873688       105.1937
2015    11      7       0.5014171       106.0929
2015    12      0       0.410777        92.15713
2015    12      1       0.4152266       92.87216
2015    12      2       0.4153398       92.96386
2015    12      3       0.3845807       87.21112
2015    12      4       0.3577053       82.65072
2015    12      5       0.3536935       81.7228
2015    12      6       0.4557329       100.0822
2015    12      7       0.4903805       104.5754
2015    13      0       0.5052502       107.4055
2015    13      1       0.4864864       104.723
2015    13      2       0.4021714       90.35378
2015    13      3       0.4178334       92.68045
2015    13      4       0.355753        81.74893
2015    13      5       0.3863839       87.08778
2015    13      6       0.4554719       99.42951
2015    13      7       0.5607603       115.7601
2015    14      0       0.4360245       96.05215
2015    14      1       0.3711359       84.82427
2015    14      2       0.4109208       91.09947
2015    14      3       0.3809744       86.00034
2015    14      4       0.3716628       84.58831
2015    14      5       0.4214531       93.10479
2015    14      6       0.4963308       105.6954
2015    14      7       0.4699898       101.6532
2015    15      0       0.3308944       77.43489
2015    15      1       0.3014452       71.94818
2015    15      2       0.3308983       77.50544
2015    15      3       0.3217065       75.85983
2015    15      4       0.2557386       63.03925
2015    15      5       0.2863071       69.20035
2015    15      6       0.4851038       103.9518
2015    15      7       0.5424044       112.2636
2015    16      0       0.386796        87.65868
2015    16      1       0.4404276       96.73786
2015    16      2       0.3754705       85.53046
2015    16      3       0.3458985       80.25237
2015    16      4       0.3205617       75.71177
2015    16      5       0.355369        82.44178
2015    16      6       0.4935843       105.9717
2015    16      7       0.4985727       107.0328
2015    17      0       0.5245043       111.4984
2015    17      1       0.4828253       104.7126
2015    17      2       0.4544877       99.34512
2015    17      3       0.4562871       99.14873
2015    17      4       0.4566256       99.08032
2015    17      5       0.3988594       89.70001
2015    17      6       0.4253387       94.63228
2015    17      7       0.5351999       112.731
2015    18      0       0.5451379       114.2486
2015    18      1       0.4179093       94.03199
2015    18      2       0.4175711       93.54967
2015    18      3       0.4003378       90.55515
2015    18      4       0.3575851       82.98166
2015    18      5       0.3901447       88.4639
2015    18      6       0.4789915       103.8448
2015    18      7       0.5016396       107.8975
2015    19      0       0.451799        99.95806
2015    19      1       0.3949436       90.33094
2015    19      2       0.4290145       96.12566
2015    19      3       0.3969146       90.29658
2015    19      4       0.2964698       71.80595
2015    19      5       0.2898551       70.56317
2015    19      6       0.5469775       114.0146
2015    19      7       0.557243        116.3219
2015    20      0       0.5153652       109.6969
2015    20      1       0.4797608       103.1282
2015    20      2       0.4446544       97.32475
2015    20      3       0.4544396       98.80036
2015    20      4       0.4199524       93.0841
2015    20      5       0.4274346       94.27231
2015    20      6       0.4299382       95.30754
2015    20      7       0.5002537       107.352
2015    21      0       0.4370092       97.16719
2015    21      1       0.4279256       95.69055
2015    21      2       0.4329058       95.84514
2015    21      3       0.4929548       104.9954
2015    21      4       0.4768955       102.4252
2015    21      5       0.4010654       89.77456
2015    21      6       0.5197574       109.784
2015    21      7       0.4339304       96.17833
2015    22      0       0.3664368       84.42371
2015    22      1       0.4361388       96.47548
2015    22      2       0.417214        92.31939
2015    22      3       0.3666822       83.35074
2015    22      4       0.2899299       69.58662
2015    22      5       0.2989786       71.62771
2015    22      6       0.4239581       93.26858
2015    22      7       0.4545386       98.67471
2015    23      0       0.3918871       88.6176
2015    23      1       0.336096        78.81858
2015    23      2       0.3268725       77.0244
2015    23      3       0.3573856       82.21047
2015    23      4       0.3439134       79.49698
2015    23      5       0.3401979       79.0214
2015    23      6       0.4633376       99.86975
2015    23      7       0.5322081       110.1426
2015    24      0       0.4549726       98.13939
2015    24      1       0.308267        72.90319
2015    24      2       0.2412082       60.01388
2015    24      3       0.2172861       55.24329
2015    24      4       0.2056609       52.86054
2015    24      5       0.2389161       59.8931
2015    24      6       0.4340322       95.99833
2015    24      7       0.4037576       91.39387
2015    25      0       0.3731155       85.81189
2015    25      1       0.2728248       66.46323
2015    25      2       0.2666779       65.20172
2015    25      3       0.2915329       70.21413
2015    25      4       0.2856142       69.19817
2015    25      5       0.3166103       74.94184
2015    25      6       0.3383742       79.25121
2015    25      7       0.2781348       67.71066
2015    26      0       0.2290909       57.78502
2015    26      1       0.2074136       53.31225
2015    26      2       0.2268906       57.07033
2015    26      3       0.2061997       52.86919
2015    26      4       0.1587178       42.77423
2015    26      5       0.1441867       39.55799
2015    26      6       0.184181        48.21505
2015    26      7       0.1421762       39.20391
2015    27      0       0.07929611      24.5324
2015    27      1       0.08487227      25.88235
2015    27      2       0.1046104       30.52435
2015    27      3       0.1178868       33.60704
2015    27      4       0.09509453      28.37072
2015    27      5       0.09879019      29.19184
2015    27      6       0.1381625       38.26095
2015    27      7       0.2037269       52.43763
2015    28      0       0.1187459       33.77644
2015    28      1       0.1085688       31.06179
2015    28      2       0.1269264       34.96896
2015    28      3       0.1373243       37.32734
2015    28      4       0.1501988       40.29682
2015    28      5       0.142486        38.93173
2015    28      6       0.1494844       40.73855
2015    28      7       0.2677417       65.108
2015    29      0       0.2506006       61.82477
2015    29      1       0.2242463       56.75937
2015    29      2       0.1849029       48.6854
2015    29      3       0.1671542       44.83732
2015    29      4       0.1519826       41.45422
2015    29      5       0.1455727       39.93627
2015    29      6       0.213073        54.63922
2015    29      7       0.2551232       63.6084
2015    30      0       0.1799013       47.87504
2015    30      1       0.1205317       34.54659
2015    30      2       0.1300945       36.61415
2015    30      3       0.134957        37.6163
2015    30      4       0.1231272       34.92797
2015    30      5       0.1574711       42.70307
2015    30      6       0.2382754       59.56062
2015    30      7       0.2433606       60.48917
2015    31      0       0.1023528       29.91503
2015    31      1       0.06981491      21.87503
2015    31      2       0.06064949      19.60744
2015    31      3       0.06841704      21.78774
2015    31      4       0.1005911       29.73643
2015    31      5       0.1555301       42.29278
2015    31      6       0.2456321       61.264
2015    31      7       0.2701367       66.17121
2016    1       0       0.3739267       84.52352
2016    1       1       0.3042893       71.56287
2016    1       2       0.2848056       67.97585
2016    1       3       0.297225        70.74431
2016    1       4       0.3346113       78.48991
2016    1       5       0.4159107       93.13814
2016    1       6       0.4976286       106.3462
2016    1       7       0.5805356       118.6279
2016    2       0       0.4835831       104.6694
2016    2       1       0.4141762       92.9677
2016    2       2       0.3652158       84.13293
2016    2       3       0.3397548       79.69312
2016    2       4       0.3897543       88.80221
2016    2       5       0.5144939       108.6008
2016    2       6       0.6097355       122.5906
2016    2       7       0.6194907       124.2405
2016    3       0       0.3601365       83.23453
2016    3       1       0.2943018       70.9535
2016    3       2       0.3542955       81.55322
2016    3       3       0.3708037       84.22325
2016    3       4       0.3684278       83.90312
2016    3       5       0.3093084       73.70587
2016    3       6       0.4263781       94.52392
2016    3       7       0.4892614       104.4186
2016    4       0       0.353794        81.98866
2016    4       1       0.3631862       83.68189
2016    4       2       0.4003634       89.91721
2016    4       3       0.4369364       96.10465
2016    4       4       0.3433861       79.77496
2016    4       5       0.3794666       86.3917
2016    4       6       0.4412212       97.36579
2016    4       7       0.4281828       95.83551
2016    5       0       0.4361955       97.29883
2016    5       1       0.349133        81.20124
2016    5       2       0.1454411       39.45776
2016    5       3       0.1002137       29.30885
2016    5       4       0.09855749      29.19537
2016    5       5       0.1960297       51.52055
2016    5       6       0.4001079       91.23658
2016    5       7       0.5474866       115.0606
2016    6       0       0.4174654       94.08892
2016    6       1       0.2505982       62.92421
2016    6       2       0.1648706       44.50519
2016    6       3       0.1128987       32.53214
2016    6       4       0.08640248      26.1879
2016    6       5       0.09562006      28.43455
2016    6       6       0.1147643       33.0972
2016    6       7       0.1580208       43.12023
2016    7       0       0.1391941       38.90017
2016    7       1       0.1488334       41.12058
2016    7       2       0.2072098       53.89379
2016    7       3       0.2591109       64.55048
2016    7       4       0.2517453       63.11231
2016    7       5       0.3369299       79.30058
2016    7       6       0.3936081       89.56951
2016    7       7       0.4944445       106.1956
2016    8       0       0.5019985       106.2942
2016    8       1       0.4385566       96.17352
2016    8       2       0.3838535       87.0297
2016    8       3       0.2902649       69.82769
2016    8       4       0.2799359       67.80299
2016    8       5       0.3495397       81.0044
2016    8       6       0.509878        108.1947
2016    8       7       0.5439347       113.8576
2016    9       0       0.5170944       110.0786
2016    9       1       0.5345353       112.9118
2016    9       2       0.4271693       95.449
2016    9       3       0.4133526       93.16006
2016    9       4       0.3291003       77.92001
2016    9       5       0.355729        82.58681
2016    9       6       0.4979887       106.4642
2016    9       7       0.50091         107.688
2016    10      0       0.4733163       102.4059
2016    10      1       0.501776        106.5018
2016    10      2       0.4880276       104.0214
2016    10      3       0.3295667       77.195
2016    10      4       0.290229        69.79319
2016    10      5       0.2740182       66.92235
2016    10      6       0.3253298       77.08977
2016    10      7       0.344479        80.63142
2016    11      0       0.2786962       68.35421
2016    11      1       0.257588        64.24275
2016    11      2       0.2410459       60.83284
2016    11      3       0.2252706       57.47505
2016    11      4       0.1779836       47.33916
2016    11      5       0.1579383       42.98443
2016    11      6       0.2017631       52.52963
2016    11      7       0.2802452       68.73515
2016    12      0       0.197747        51.77169
2016    12      1       0.187677        49.55169
2016    12      2       0.2190623       56.17006
2016    12      3       0.2403247       60.40556
2016    12      4       0.2520358       62.71767
2016    12      5       0.3443032       80.26103
2016    12      6       0.4074986       91.74909
2016    12      7       0.5468453       114.2003
2016    13      0       0.4696312       101.696
2016    13      1       0.4065109       91.01712
2016    13      2       0.4168027       93.02846
2016    13      3       0.3856473       87.44207
2016    13      4       0.3014531       72.22978
2016    13      5       0.3310354       77.55082
2016    13      6       0.3738762       85.24973
2016    13      7       0.4130512       92.38603
2016    14      0       0.380919        86.66993
2016    14      1       0.3957844       89.82401
2016    14      2       0.3411573       79.7482
2016    14      3       0.2801636       68.32738
2016    14      4       0.2379127       59.99212
2016    14      5       0.2784153       67.98323
2016    14      6       0.3824822       87.58636
2016    14      7       0.5508258       115.6313
2016    15      0       0.5249209       111.0366
2016    15      1       0.5187406       109.0876
2016    15      2       0.4106633       92.03405
2016    15      3       0.3273389       77.60878
2016    15      4       0.3348299       79.07348
2016    15      5       0.3996536       90.83505
2016    15      6       0.4758392       103.4788
2016    15      7       0.4368476       97.13624
2016    16      0       0.3377691       80.08882
2016    16      1       0.2015414       52.70399
2016    16      2       0.165018        44.55986
2016    16      3       0.1794076       47.64057
2016    16      4       0.1642995       44.39233
2016    16      5       0.160809        43.75619
2016    16      6       0.248095        62.16675
2016    16      7       0.297188        71.73565
2016    17      0       0.2228168       57.25374
2016    17      1       0.1739646       46.81607
2016    17      2       0.1679189       45.41381
2016    17      3       0.1628669       44.25593
2016    17      4       0.1469842       40.67519
2016    17      5       0.1650787       44.82651
2016    17      6       0.2699061       66.69103
2016    17      7       0.3278627       78.24789
2016    18      0       0.3308158       78.74954
2016    18      1       0.238632        60.68552
2016    18      2       0.1993627       52.3117
2016    18      3       0.1828005       48.74125
2016    18      4       0.1621929       44.2361
2016    18      5       0.1600334       43.70576
2016    18      6       0.2364489       60.21837
2016    18      7       0.34698         81.45523
2016    19      0       0.3701013       86.1623
2016    19      1       0.4072074       92.90576
2016    19      2       0.3327126       79.17597
2016    19      3       0.2442517       61.87388
2016    19      4       0.2386382       60.45778
2016    19      5       0.3085622       74.30845
2016    19      6       0.4962644       106.4866
2016    19      7       0.4505964       99.3349
2016    20      0       0.3562358       83.04625
2016    20      1       0.2682491       66.25343
2016    20      2       0.2288333       58.06187
2016    20      3       0.1937821       50.6656
2016    20      4       0.1823271       48.20805
2016    20      5       0.2174089       55.60145
2016    20      6       0.4039867       90.79976
2016    20      7       0.5504256       114.8378
2016    21      0       0.4202419       93.41321
2016    21      1       0.4292551       94.5083
2016    21      2       0.4135435       92.04023
2016    21      3       0.361131        83.12718
2016    21      4       0.3564187       82.47701
2016    21      5       0.3828459       87.09766
2016    21      6       0.495873        105.6195
2016    21      7       0.5693418       116.7745
2016    22      0       0.4617312       100.4172
2016    22      1       0.3628306       84.32581
2016    22      2       0.3412362       80.20369
2016    22      3       0.3456141       80.99788
2016    22      4       0.326269        77.47011
2016    22      5       0.349302        81.8567
2016    22      6       0.4362922       96.907
2016    22      7       0.468143        102.0712
2016    23      0       0.482043        104.57
2016    23      1       0.4558705       100.4237
2016    23      2       0.368335        84.90384
2016    23      3       0.3646132       83.76366
2016    23      4       0.2950083       71.35001
2016    23      5       0.3294431       78.13293
2016    23      6       0.3886536       88.76329
2016    23      7       0.444421        99.28854
2016    24      0       0.4163617       94.60562
2016    24      1       0.3386253       80.6537
2016    24      2       0.2375989       60.63658
2016    24      3       0.15801         43.33046
2016    24      4       0.1177067       33.99804
2016    24      5       0.1367867       38.51064
2016    24      6       0.2122587       54.92469
2016    24      7       0.2670352       66.1359
2016    25      0       0.1349892       38.08764
2016    25      1       0.0727032       23.14537
2016    25      2       0.07845661      24.44974
2016    25      3       0.08968928      27.1616
2016    25      4       0.095042        28.44902
2016    25      5       0.1198307       34.45262
2016    25      6       0.1507824       41.6036
2016    25      7       0.1611206       43.84362
2016    26      0       0.09185713      27.84353
2016    26      1       0.08479251      26.05286
2016    26      2       0.09979729      29.39873
2016    26      3       0.1294127       35.81151
2016    26      4       0.1151221       32.63854
2016    26      5       0.1017013       29.57447
2016    26      6       0.1041819       30.33198
2016    26      7       0.1495596       40.96216
2016    27      0       0.1189515       34.19536
2016    27      1       0.1018093       30.23498
2016    27      2       0.1109939       32.44108
2016    27      3       0.1317104       37.30722
2016    27      4       0.1304439       36.97348
2016    27      5       0.1800467       47.97582
2016    27      6       0.2095707       54.36071
2016    27      7       0.2839314       69.26467
2016    28      0       0.1835523       48.08841
2016    28      1       0.1130851       32.34591
2016    28      2       0.1199669       34.04877
2016    28      3       0.1148954       33.15575
2016    28      4       0.1054008       31.0939
2016    28      5       0.1248301       35.68152
2016    28      6       0.2085049       54.10965
2016    28      7       0.3154555       75.7817
2016    29      0       0.2185714       55.82719
2016    29      1       0.1330263       37.51626
2016    29      2       0.1469041       40.72332
2016    29      3       0.1931596       50.8831
2016    29      4       0.1879968       49.76813
2016    29      5       0.2817878       68.644
2016    29      6       0.3618594       83.66131
2016    29      7       0.4739416       103.2313
2016    30      0       0.379401        86.23478
2016    30      1       0.284145        68.52483
2016    30      2       0.2837622       68.83358
2016    30      3       0.2786647       67.61714
2016    30      4       0.3867444       87.67029
2016    30      5       0.4195425       93.45316
2016    30      6       0.4523404       98.79115
2016    30      7       0.4519548       99.30882
2016    31      0       0.4397752       97.25069
2016    31      1       0.3536584       82.22431
2016    31      2       0.2920912       70.3945
2016    31      3       0.2307541       57.99917
2016    31      4       0.1831451       48.23714
2016    31      5       0.1790848       47.61413
2016    31      6       0.2836769       69.14252
2016    31      7       0.36026         83.95621
2017    1       0       0.3208          76.57715
2017    1       1       0.2677861       66.00559
2017    1       2       0.2524715       62.61058
2017    1       3       0.2820782       68.35396
2017    1       4       0.3120051       74.35315
2017    1       5       0.3384069       79.57033
2017    1       6       0.4504853       99.32325
2017    1       7       0.6611386       130.8798
2017    2       0       0.4475209       98.13556
2017    2       1       0.3814897       86.69668
2017    2       2       0.4084773       91.0542
2017    2       3       0.4360022       95.54172
2017    2       4       0.31921         75.73937
2017    2       5       0.3475428       81.42865
2017    2       6       0.5323489       112.3553
2017    2       7       0.5664376       118.029
2017    3       0       0.5462345       114.1916
2017    3       1       0.5482442       113.7351
2017    3       2       0.5346019       111.7106
2017    3       3       0.4304549       95.94266
2017    3       4       0.3975103       90.67581
2017    3       5       0.4517182       99.49571
2017    3       6       0.5074828       109.0436
2017    3       7       0.6295027       127.2408
2017    4       0       0.6008086       122.4972
2017    4       1       0.5558889       115.2448
2017    4       2       0.512751        109.1647
2017    4       3       0.4378273       97.72325
2017    4       4       0.3800217       87.89591
2017    4       5       0.4635922       102.0375
2017    4       6       0.661684        132.0919
2017    4       7       0.7617483       145.1723
2017    5       0       0.5513509       115.069
2017    5       1       0.5239183       110.8152
2017    5       2       0.4573483       100.4924
2017    5       3       0.4150226       93.64092
2017    5       4       0.3944577       90.06087
2017    5       5       0.4450637       98.20639
2017    5       6       0.5637785       117.9231
2017    5       7       0.6769771       134.1391
2017    6       0       0.5593199       115.9559
2017    6       1       0.5169914       109.2195
2017    6       2       0.4696964       101.8067
2017    6       3       0.4475779       98.48005
2017    6       4       0.4290463       95.33993
2017    6       5       0.4561572       99.82241
2017    6       6       0.5050759       108.137
2017    6       7       0.5449482       114.6215
2017    7       0       0.4693014       102.4013
2017    7       1       0.4955744       105.8836
2017    7       2       0.4622591       100.582
2017    7       3       0.4409425       97.34945
2017    7       4       0.4535694       99.43861
2017    7       5       0.4460854       98.52561
2017    7       6       0.5033573       108.1309
2017    7       7       0.6102918       124.0531
2017    8       0       0.50297         107.0225
2017    8       1       0.5212071       109.3575
2017    8       2       0.5182207       109.2517
2017    8       3       0.4624224       100.3802
2017    8       4       0.419669        93.46894
2017    8       5       0.4702266       101.9839
2017    8       6       0.5515786       114.2523
2017    8       7       0.5773564       119.4755
2017    9       0       0.4941324       106.8927
2017    9       1       0.4993804       107.6562
2017    9       2       0.4499548       99.2492
2017    9       3       0.4123653       92.84241
2017    9       4       0.3786589       86.86761
2017    9       5       0.4303996       95.4362
2017    9       6       0.5263273       110.7057
2017    9       7       0.5603616       116.9121
2017    10      0       0.4976048       106.3619
2017    10      1       0.5021059       107.0254
2017    10      2       0.4170267       93.11591
2017    10      3       0.4044139       91.35149
2017    10      4       0.4124862       92.43244
2017    10      5       0.3976922       89.69292
2017    10      6       0.5046894       108.0705
2017    10      7       0.5462196       114.065
2017    11      0       0.4276479       95.02671
2017    11      1       0.3144045       75.11313
2017    11      2       0.2320937       58.69947
2017    11      3       0.1504766       40.93752
2017    11      4       0.1536657       41.59497
2017    11      5       0.2986047       71.67254
2017    11      6       0.5500735       114.0095
2017    11      7       0.4921422       105.4316
2017    12      0       0.4149603       92.49539
2017    12      1       0.3679636       85.12887
2017    12      2       0.3944928       89.09913
2017    12      3       0.3930124       88.78955
2017    12      4       0.3540577       82.25188
2017    12      5       0.4203913       93.62955
2017    12      6       0.5167853       109.9588
2017    12      7       0.4740876       103.063
2017    13      0       0.4171577       93.12448
2017    13      1       0.3612052       83.69452
2017    13      2       0.3503407       81.58147
2017    13      3       0.3372944       79.05666
2017    13      4       0.3239296       76.42481
2017    13      5       0.3553596       82.29008
2017    13      6       0.3946299       89.24155
2017    13      7       0.5030233       107.8179
2017    14      0       0.5456051       114.5564
2017    14      1       0.4654934       101.0277
2017    14      2       0.4767024       102.4703
2017    14      3       0.48873         104.4119
2017    14      4       0.4134075       92.21709
2017    14      5       0.4100827       91.77041
2017    14      6       0.4752276       102.6631
2017    14      7       0.5546376       115.7722
2017    15      0       0.5387712       113.2119
2017    15      1       0.4859522       104.8494
2017    15      2       0.4417083       97.21278
2017    15      3       0.4211705       93.7257
2017    15      4       0.344439        80.25371
2017    15      5       0.4027228       90.82529
2017    15      6       0.3911938       89.00805
2017    15      7       0.4452346       98.57678
2017    16      0       0.3170766       75.28292
2017    16      1       0.2795473       68.05232
2017    16      2       0.2643229       65.10384
2017    16      3       0.2559163       63.42555
2017    16      4       0.2508973       62.44812
2017    16      5       0.2890467       69.76487
2017    16      6       0.3773292       86.0777
2017    16      7       0.4601714       100.8255
2017    17      0       0.3215351       76.34078
2017    17      1       0.2403847       60.33738
2017    17      2       0.2523608       62.57462
2017    17      3       0.255039        63.23107
2017    17      4       0.2506149       62.44354
2017    17      5       0.300437        72.40505
2017    17      6       0.3504081       81.89938
2017    17      7       0.4067627       91.85734
2017    18      0       0.3480602       81.14966
2017    18      1       0.3556983       82.50982
2017    18      2       0.3299049       78.21323
2017    18      3       0.3278567       77.84743
2017    18      4       0.3011453       72.87899
2017    18      5       0.3250928       77.50054
2017    18      6       0.3963183       90.2073
2017    18      7       0.4357214       96.68754
2017    19      0       0.3725349       85.87065
2017    19      1       0.4034781       91.58375
2017    19      2       0.3912098       89.10138
2017    19      3       0.3170972       75.43046
2017    19      4       0.3033838       72.75028
2017    19      5       0.384598        87.63644
2017    19      6       0.4739471       103.1332
2017    19      7       0.5448879       114.4846
2017    20      0       0.4403722       97.81294
2017    20      1       0.4288958       95.71498
2017    20      2       0.4447525       98.06223
2017    20      3       0.4464073       97.81717
2017    20      4       0.3896867       88.30481
2017    20      5       0.3674835       84.54628
2017    20      6       0.4049034       91.36121
2017    20      7       0.5502185       115.2146
2017    21      0       0.5022057       107.3196
2017    21      1       0.474011        102.4127
2017    21      2       0.4213432       93.50594
2017    21      3       0.3486269       81.04769
2017    21      4       0.3331086       78.36133
2017    21      5       0.3640531       83.99777
2017    21      6       0.5297407       111.5959
2017    21      7       0.5992704       122.4062
2017    22      0       0.5480495       114.4991
2017    22      1       0.4796626       103.5183
2017    22      2       0.3961179       89.45647
2017    22      3       0.2982429       71.81924
2017    22      4       0.2293104       58.23828
2017    22      5       0.3040584       73.16898
2017    22      6       0.6073229       123.1574
2017    22      7       0.5991241       122.0851
2017    23      0       0.5342277       112.5213
2017    23      1       0.4749668       103.6024
2017    23      2       0.4591674       101.197
2017    23      3       0.4239758       94.90154
2017    23      4       0.3856133       87.8113
2017    23      5       0.4512514       99.07645
2017    23      6       0.4545004       100.0178
2017    23      7       0.5943402       121.6939
2017    24      0       0.4748896       102.2967
2017    24      1       0.4347955       95.75552
2017    24      2       0.4642512       100.7109
2017    24      3       0.4730579       102.289
2017    24      4       0.44865         98.28836
2017    24      5       0.4042044       91.01469
2017    24      6       0.4032702       90.99496
2017    24      7       0.430638        95.79686
2017    25      0       0.4495464       98.53436
2017    25      1       0.4256542       93.89387
2017    25      2       0.4219903       93.40633
2017    25      3       0.3887246       87.98708
2017    25      4       0.3858751       87.27766
2017    25      5       0.4112036       91.9261
2017    25      6       0.4042588       90.94705
2017    25      7       0.469034        102.2211
2017    26      0       0.4717434       101.8812
2017    26      1       0.4322536       94.88367
2017    26      2       0.4327939       94.98102
2017    26      3       0.3451433       80.20477
2017    26      4       0.2806152       68.37693
2017    26      5       0.341355        79.83505
2017    26      6       0.3847296       87.58594
2017    26      7       0.3656873       84.84618
2017    27      0       0.3733097       86.02577
2017    27      1       0.3884496       88.18207
2017    27      2       0.4371995       96.39895
2017    27      3       0.3699824       85.09101
2017    27      4       0.3511735       81.92757
2017    27      5       0.4182514       93.2508
2017    27      6       0.4359166       96.90661
2017    27      7       0.4500744       99.39399
2017    28      0       0.4580811       100.7202
2017    28      1       0.4590433       100.9552
2017    28      2       0.4292938       95.39058
2017    28      3       0.3704126       84.94176
2017    28      4       0.2738478       67.22818
2017    28      5       0.3371825       79.27763
2017    28      6       0.3893897       88.78717
2017    28      7       0.4868294       105.2575
2017    29      0       0.4989713       106.6225
2017    29      1       0.4515673       98.55461
2017    29      2       0.3600369       83.22937
2017    29      3       0.326724        77.22852
2017    29      4       0.3577061       82.86789
2017    29      5       0.383576        87.41387
2017    29      6       0.4079379       91.7083
2017    29      7       0.4178546       93.04289
2017    30      0       0.3358178       78.12759
2017    30      1       0.2835267       68.47735
2017    30      2       0.2817877       68.12799
2017    30      3       0.2867875       68.98951
2017    30      4       0.3148538       74.26569
2017    30      5       0.3015447       72.12798
2017    30      6       0.3686386       84.65965
2017    30      7       0.4116372       92.19361
2017    31      0       0.3870461       87.83144
2017    31      1       0.3869204       87.08039
2017    31      2       0.4164561       92.08348
2017    31      3       0.3748017       84.94101
2017    31      4       0.296781        71.20388
2017    31      5       0.3343849       78.50784
2017    31      6       0.3788769       86.37038
2017    31      7       0.4107086       92.44728
2018    1       0       0.4676661       102.4301
2018    1       1       0.4275288       95.19037
2018    1       2       0.4093534       91.91984
2018    1       3       0.3718589       85.37004
2018    1       4       0.3311592       78.09088
2018    1       5       0.3729695       85.4539
2018    1       6       0.40766         92.00761
2018    1       7       0.4555316       100.523
2018    2       0       0.4606213       101.2369
2018    2       1       0.44202         97.0326
2018    2       2       0.3996942       89.53974
2018    2       3       0.3394739       79.0778
2018    2       4       0.3079225       73.41805
2018    2       5       0.3376616       79.22908
2018    2       6       0.3958685       89.97561
2018    2       7       0.4232993       94.82071
2018    3       0       0.4390645       97.51134
2018    3       1       0.5023844       108.027
2018    3       2       0.4812824       104.1206
2018    3       3       0.4621587       100.6943
2018    3       4       0.4197112       93.7877
2018    3       5       0.4108424       92.24435
2018    3       6       0.5119402       109.113
2018    3       7       0.5270662       111.5963
2018    4       0       0.4684585       101.4729
2018    4       1       0.4591193       100.3371
2018    4       2       0.4332293       96.03317
2018    4       3       0.3907697       88.59467
2018    4       4       0.3696219       84.60091
2018    4       5       0.3841122       87.34626
2018    4       6       0.4155017       93.29594
2018    4       7       0.5513891       115.4291
2018    5       0       0.4996263       106.9907
2018    5       1       0.4392412       96.72257
2018    5       2       0.471965        101.8488
2018    5       3       0.4848585       103.8918
2018    5       4       0.4599838       100.3403
2018    5       5       0.4212312       93.91841
2018    5       6       0.4700803       102.1954
2018    5       7       0.4768029       103.1034
2018    6       0       0.3574637       82.02956
2018    6       1       0.3162997       74.37564
2018    6       2       0.2177677       55.25196
2018    6       3       0.1784956       47.04666
2018    6       4       0.1796432       47.36285
2018    6       5       0.3110263       73.78687
2018    6       6       0.5384589       113.042
2018    6       7       0.5388154       113.0341
2018    7       0       0.5035239       107.1352
2018    7       1       0.4515939       98.70748
2018    7       2       0.3791741       86.62023
2018    7       3       0.3046163       73.02404
2018    7       4       0.267312        65.97338
2018    7       5       0.3331652       78.45225
2018    7       6       0.4540587       99.45806
2018    7       7       0.5612595       116.5272
2018    8       0       0.4999446       106.8029
2018    8       1       0.4336317       95.53826
2018    8       2       0.4220628       93.70993
2018    8       3       0.3345963       78.69331
2018    8       4       0.2680977       65.89241
2018    8       5       0.3651848       84.16485
2018    8       6       0.5235827       110.9194
2018    8       7       0.5072214       108.4737
2018    9       0       0.4454344       97.51441
2018    9       1       0.3987289       89.11487
2018    9       2       0.3783906       85.6795
2018    9       3       0.3318615       77.80414
2018    9       4       0.3081803       73.62989
2018    9       5       0.3741667       85.91481
2018    9       6       0.3822468       87.41674
2018    9       7       0.4352975       96.5207
2018    10      0       0.4335136       95.14553
2018    10      1       0.4552646       99.08032
2018    10      2       0.4548129       99.38581
2018    10      3       0.4294303       95.3669
2018    10      4       0.4124301       92.60183
2018    10      5       0.4236179       94.43472
2018    10      6       0.4183416       93.88415
2018    10      7       0.5625953       115.8793
2018    11      0       0.5445076       114.1446
2018    11      1       0.5073327       107.4068
2018    11      2       0.4598583       99.99974
2018    11      3       0.4473953       98.36931
2018    11      4       0.4772745       103.7012
2018    11      5       0.4924816       106.2522
2018    11      6       0.5587878       116.9711
2018    11      7       0.6548274       131.097
2018    12      0       0.5635206       117.5538
2018    12      1       0.4235646       95.68079
2018    12      2       0.425335        95.39761
2018    12      3       0.3868648       88.80811
2018    12      4       0.410155        92.60953
2018    12      5       0.5316464       112.084
2018    12      6       0.5306129       112.3444
2018    12      7       0.5498099       115.0878
2018    13      0       0.4725994       101.9914
2018    13      1       0.5395179       112.1087
2018    13      2       0.5145191       108.705
2018    13      3       0.4936009       105.3513
2018    13      4       0.3956387       89.10994
2018    13      5       0.4015251       90.59137
2018    13      6       0.427081        95.10063
2018    13      7       0.4614555       100.875
2018    14      0       0.4542969       99.1514
2018    14      1       0.4759542       102.8016
2018    14      2       0.4514277       98.34688
2018    14      3       0.4181275       92.74351
2018    14      4       0.409454        91.33411
2018    14      5       0.4085632       91.27239
2018    14      6       0.3820458       86.9279
2018    14      7       0.3696118       84.56892
2018    15      0       0.3936541       89.04942
2018    15      1       0.3617205       82.63254
2018    15      2       0.3950251       88.6047
2018    15      3       0.4007121       89.66921
2018    15      4       0.4081843       91.35039
2018    15      5       0.4213061       94.0257
2018    15      6       0.4413222       97.7136
2018    15      7       0.5230217       110.0377
2018    16      0       0.4832744       104.5101
2018    16      1       0.4579321       99.05757
2018    16      2       0.4498955       97.99912
2018    16      3       0.416941        93.03369
2018    16      4       0.4080935       91.58031
2018    16      5       0.4026598       90.68986
2018    16      6       0.3849663       87.96128
2018    16      7       0.4850649       104.1262
2018    17      0       0.4358767       96.40008
2018    17      1       0.4160922       92.4154
2018    17      2       0.440681        96.10199
2018    17      3       0.386617        87.24214
2018    17      4       0.3549143       81.67983
2018    17      5       0.4090353       91.3404
2018    17      6       0.5464743       113.9262
2018    17      7       0.5809115       119.1049
2018    18      0       0.4629092       100.8134
2018    18      1       0.45598         99.15519
2018    18      2       0.4344214       95.5963
2018    18      3       0.3885789       88.07417
2018    18      4       0.3790612       86.81729
2018    18      5       0.4078314       91.81536
2018    18      6       0.411358        92.57214
2018    18      7       0.4775815       103.4967
2018    19      0       0.4848353       103.8631
2018    19      1       0.443863        97.33369
2018    19      2       0.461659        100.2893
2018    19      3       0.4975051       106.0087
2018    19      4       0.4278621       94.58297
2018    19      5       0.459488        99.82169
2018    19      6       0.4849637       103.3862
2018    19      7       0.4664241       101.6746
2018    20      0       0.4624784       100.8098
2018    20      1       0.5080781       107.3421
2018    20      2       0.4922666       105.0165
2018    20      3       0.4700263       101.5545
2018    20      4       0.4866477       104.19
2018    20      5       0.4288953       94.94876
2018    20      6       0.4710199       102.2862
2018    20      7       0.4736554       103.0229
2018    21      0       0.5540182       115.3895
2018    21      1       0.4618408       101.0104
2018    21      2       0.4348886       96.90605
2018    21      3       0.4265466       95.0858
2018    21      4       0.4312582       95.32256
2018    21      5       0.4435624       97.71394
2018    21      6       0.5329285       111.1662
2018    21      7       0.5994154       120.9777
2018    22      0       0.4762336       103.147
2018    22      1       0.3958768       90.06277
2018    22      2       0.3313767       78.41746
2018    22      3       0.2994411       72.2833
2018    22      4       0.3094999       74.05316
2018    22      5       0.3672732       84.86268
2018    22      6       0.5074361       108.6094
2018    22      7       0.6704065       133.0075
2018    23      0       0.5701352       118.7643
2018    23      1       0.5337226       112.3515
2018    23      2       0.4761194       102.9229
2018    23      3       0.5308194       111.4184
2018    23      4       0.5182371       109.1854
2018    23      5       0.5122076       108.209
2018    23      6       0.5230032       109.9968
2018    23      7       0.5159142       109.6682
2018    24      0       0.5236323       110.7655
2018    24      1       0.4616517       101.263
2018    24      2       0.4207402       94.21237
2018    24      3       0.3980928       90.56139
2018    24      4       0.4051846       91.79489
2018    24      5       0.4427981       97.94209
2018    24      6       0.4813497       104.2949
2018    24      7       0.5279157       112.0996
2018    25      0       0.4649069       101.9475
2018    25      1       0.3994396       90.74072
2018    25      2       0.3486431       81.5145
2018    25      3       0.3244641       76.75816
2018    25      4       0.2781702       68.16021
2018    25      5       0.4238362       94.13842
2018    25      6       0.4910285       105.0137
2018    25      7       0.4552318       99.6686
2018    26      0       0.3957337       90.08514
2018    26      1       0.3906857       89.29201
2018    26      2       0.3555749       82.97101
2018    26      3       0.3113367       74.75091
2018    26      4       0.3041668       73.35858
2018    26      5       0.3383949       79.81943
2018    26      6       0.4593838       101.4149
2018    26      7       0.5649027       117.9916
2018    27      0       0.4737817       103.4221
2018    27      1       0.3605631       84.08302
2018    27      2       0.1921057       50.69112
2018    27      3       0.1651497       44.94261
2018    27      4       0.1829458       48.95292
2018    27      5       0.2944673       71.77713
2018    27      6       0.3750395       87.14955
2018    27      7       0.4747736       104.455
2018    28      0       0.4006741       91.68027
2018    28      1       0.3424704       81.24962
2018    28      2       0.285713        70.54716
2018    28      3       0.2617906       65.72299
2018    28      4       0.2306112       59.22719
2018    28      5       0.2800286       69.01563
2018    28      6       0.3145115       75.49019
2018    28      7       0.3304473       78.56379
2018    29      0       0.1859747       49.51384
2018    29      1       0.1419868       39.64302
2018    29      2       0.1256729       35.82566
2018    29      3       0.1276734       36.18108
2018    29      4       0.1322204       37.14702
2018    29      5       0.2619574       64.35677
2018    29      6       0.2582462       64.13523
2018    29      7       0.2883708       70.35931
2018    30      0       0.2022655       52.82771
2018    30      1       0.128669        36.65677
2018    30      2       0.1395676       39.19597
2018    30      3       0.1531018       42.18016
2018    30      4       0.1673707       45.39011
2018    30      5       0.2520218       63.52457
2018    30      6       0.3083918       74.91687
2018    30      7       0.2106037       54.9502
2018    31      0       0.05342293      18.32722
2018    31      1       0.03454328      13.39532
2018    31      2       0.03145265      12.56263
2018    31      3       0.02832653      11.7084
2018    31      4       0.02604299      11.08919
2018    31      5       0.02721604      11.45016
2018    31      6       0.04184748      15.38992
2018    31      7       0.04720891      16.83754
