####################################################################################################
# Month: 05May                                                                                     #
# Station: BAN                                                                                     #
# Frequency: 230 GHz                                                                               #
# Columns are: year    day     segment         tau     Tb (K)                                      #
####################################################################################################
2009    1       0       0.158978        41.92712
2009    1       1       0.1414819       37.90191
2009    1       2       0.1939962       49.33843
2009    1       3       0.3121812       72.97131
2009    1       4       0.3649402       82.79294
2009    1       5       0.3765249       85.2268
2009    1       6       0.3703891       84.46261
2009    1       7       0.3698468       84.80443
2009    2       0       0.3797826       86.80483
2009    2       1       0.3237677       76.8395
2009    2       2       0.2866766       69.67988
2009    2       3       0.2594047       64.21839
2009    2       4       0.23528         59.22438
2009    2       5       0.2267685       57.42864
2009    2       6       0.2217262       56.55671
2009    2       7       0.250197        62.64185
2009    3       0       0.2360545       59.94807
2009    3       1       0.2362369       60.20601
2009    3       2       0.2638536       66.02212
2009    3       3       0.2724134       67.76146
2009    3       4       0.2626975       65.78269
2009    3       5       0.250178        63.15344
2009    3       6       0.2232873       57.45942
2009    3       7       0.2422717       61.33862
2009    4       0       0.4059387       91.64549
2009    4       1       0.4526686       98.78157
2009    4       2       0.3872427       87.2369
2009    4       3       0.3406419       78.26665
2009    4       4       0.1829237       47.45962
2009    4       5       0.1147805       32.75364
2009    4       6       0.1114533       31.98347
2009    4       7       0.2112248       53.77359
2009    5       0       0.2317682       58.25787
2009    5       1       0.2196177       55.58424
2009    5       2       0.26464         64.35129
2009    5       3       0.3173583       74.15756
2009    5       4       0.3030397       71.55233
2009    5       5       0.3117276       73.04634
2009    5       6       0.3078986       72.42987
2009    5       7       0.3858428       86.68597
2009    6       0       0.4978097       104.9307
2009    6       1       0.5778887       117.2877
2009    6       2       0.5931984       119.8833
2009    6       3       0.4656652       100.586
2009    6       4       0.419716        92.79578
2009    6       5       0.4578955       98.75894
2009    6       6       0.5318299       110.464
2009    6       7       0.673921        130.9596
2009    7       0       0.5034997       106.1814
2009    7       1       0.4302451       94.56175
2009    7       2       0.3999552       89.19598
2009    7       3       0.4142526       91.29022
2009    7       4       0.3710115       83.53818
2009    7       5       0.3318146       76.5306
2009    7       6       0.4723645       100.4871
2009    7       7       0.4587514       98.50001
2009    8       0       0.4382187       95.33674
2009    8       1       0.4244469       93.07158
2009    8       2       0.4033496       89.2888
2009    8       3       0.3322585       76.8364
2009    8       4       0.2496187       61.13577
2009    8       5       0.2037066       51.79753
2009    8       6       0.5203132       109.0525
2009    8       7       0.5163737       108.0783
2009    9       0       0.4807539       102.1129
2009    9       1       0.3933151       87.027
2009    9       2       0.4153791       90.74119
2009    9       3       0.3521399       80.09925
2009    9       4       0.3053646       71.72049
2009    9       5       0.2998998       70.88655
2009    9       6       0.4516663       96.6039
2009    9       7       0.5198386       108.1278
2009    10      0       0.4910839       104.2273
2009    10      1       0.3858033       86.82756
2009    10      2       0.3269632       76.40341
2009    10      3       0.2461978       60.83761
2009    10      4       0.2320143       57.88166
2009    10      5       0.232081        57.72958
2009    10      6       0.2470272       60.52297
2009    10      7       0.3963332       87.33017
2009    11      0       0.375297        84.18074
2009    11      1       0.2629014       64.15938
2009    11      2       0.2483756       61.37866
2009    11      3       0.2481416       61.31831
2009    11      4       0.2773894       66.93319
2009    11      5       0.3072568       72.47761
2009    11      6       0.4036796       88.94318
2009    11      7       0.4634339       98.42704
2009    12      0       0.4614292       98.95661
2009    12      1       0.6297908       124.8828
2009    12      2       0.6113669       122.2194
2009    12      3       0.3152687       74.20188
2009    12      4       0.3322672       77.07389
2009    12      5       0.3496423       79.79907
2009    12      6       0.3697493       83.05021
2009    12      7       0.238993        58.28065
2009    13      0       0.1876169       47.91111
2009    13      1       0.1851825       47.22502
2009    13      2       0.1824713       46.44626
2009    13      3       0.1456286       38.53033
2009    13      4       0.1497318       39.36822
2009    13      5       0.1644555       42.49013
2009    13      6       0.2409744       58.18031
2009    13      7       0.3498464       78.67675
2009    14      0       0.3096919       71.55677
2009    14      1       0.3267302       74.68375
2009    14      2       0.2807          66.1086
2009    14      3       0.177226        45.44193
2009    14      4       0.1285121       34.96375
2009    14      5       0.1047216       29.6896
2009    14      6       0.2377281       57.98524
2009    14      7       0.2096231       52.18994
2009    15      0       0.2183331       54.03724
2009    15      1       0.2045413       51.32961
2009    15      2       0.1735867       44.89319
2009    15      3       0.182955        46.99671
2009    15      4       0.2123051       53.16852
2009    15      5       0.1931096       49.11172
2009    15      6       0.2527671       61.19704
2009    15      7       0.231317        57.32839
2009    16      0       0.2603723       63.23004
2009    16      1       0.2739357       66.03135
2009    16      2       0.2968884       70.0775
2009    16      3       0.4613238       98.23449
2009    16      4       0.4932197       103.7552
2009    16      5       0.4367897       95.44518
2009    16      6       0.3967836       89.05706
2009    16      7       0.3495846       80.8444
2009    17      0       0.4043269       90.37909
2009    17      1       0.4668886       100.1514
2009    17      2       0.6981314       133.6884
2009    17      3       0.665854        130.8965
2009    17      4       0.727274        139.2967
2009    17      5       0.4710495       102.6434
2009    17      6       0.3470185       80.52501
2009    17      7       0.2736185       66.3317
2009    18      0       0.2552786       62.26141
2009    18      1       0.2769153       66.34513
2009    18      2       0.3249745       75.20379
2009    18      3       0.242316        59.40208
2009    18      4       0.2270929       56.04098
2009    18      5       0.214941        53.53773
2009    18      6       0.2287511       56.29593
2009    18      7       0.2418744       59.0073
2009    19      0       0.2230246       55.46272
2009    19      1       0.2116586       53.30552
2009    19      2       0.2294888       57.10967
2009    19      3       0.3153261       73.52008
2009    19      4       0.4246249       92.43617
2009    19      5       0.514163        106.099
2009    19      6       0.5205723       106.9442
2009    19      7       0.4697201       99.08748
2009    20      0       0.3968338       86.84596
2009    20      1       0.3142933       72.10546
2009    20      2       0.2227654       54.5492
2009    20      3       0.2066209       51.44319
2009    20      4       0.2529503       60.62712
2009    20      5       0.3119014       71.67919
2009    20      6       0.2752779       64.9947
2009    20      7       0.3800423       83.86957
2009    21      0       0.3975841       87.12727
2009    21      1       0.4765617       100.155
2009    21      2       0.3561865       80.4202
2009    21      3       0.2406458       59.07792
2009    21      4       0.1972725       50.43718
2009    21      5       0.1160668       32.62755
2009    21      6       0.08866151      26.20196
2009    21      7       0.1235674       34.43233
2009    22      0       0.1393489       37.93474
2009    22      1       0.1484527       40.00969
2009    22      2       0.1538091       41.2851
2009    22      3       0.1528162       41.15962
2009    22      4       0.1425998       38.89379
2009    22      5       0.1307017       36.26012
2009    22      6       0.1308772       36.35896
2009    22      7       0.1570522       42.38964
2009    23      0       0.1763647       46.8601
2009    23      1       0.1863454       49.21522
2009    23      2       0.1900429       50.0556
2009    23      3       0.2038385       52.93221
2009    23      4       0.216045        55.43487
2009    23      5       0.2323429       58.7526
2009    23      6       0.2485516       61.95417
2009    23      7       0.2994706       72.09605
2009    24      0       0.4305366       95.53441
2009    24      1       0.4663434       101.7259
2009    24      2       0.4100427       92.56505
2009    24      3       0.342993        80.62149
2009    24      4       0.2157558       55.31223
2009    24      5       0.2360191       59.33932
2009    24      6       0.3812705       86.85543
2009    24      7       0.6426117       126.8531
2009    25      0       0.7711348       142.8461
2009    25      1       0.48664         103.6882
2009    25      2       0.3802302       86.23457
2009    25      3       0.3468778       80.47103
2009    25      4       0.333954        78.29169
2009    25      5       0.3321526       77.9918
2009    25      6       0.4842277       103.7956
2009    25      7       0.6995064       135.1382
2009    26      0       0.5894753       120.0217
2009    26      1       0.4370804       96.66373
2009    26      2       0.4309453       95.61113
2009    26      3       0.4068989       91.43751
2009    26      4       0.4221699       94.03851
2009    26      5       0.4798245       103.2292
2009    26      6       0.6899174       133.432
2009    26      7       0.746079        140.0419
2009    27      0       0.7839602       144.8814
2009    27      1       0.7202455       136.8979
2009    27      2       0.2868861       69.13823
2009    27      3       0.1796112       47.57715
2009    27      4       0.2054078       53.14567
2009    27      5       0.225481        57.11296
2009    27      6       0.3561356       82.1316
2009    27      7       0.5418561       111.4747
2009    28      0       0.4937566       104.021
2009    28      1       0.436168        95.41126
2009    28      2       0.3913223       87.97094
2009    28      3       0.3613055       82.8173
2009    28      4       0.3673453       83.87002
2009    28      5       0.1789335       47.22145
2009    28      6       0.1690288       45.1924
2009    28      7       0.192868        50.31366
2009    29      0       0.2037904       52.57795
2009    29      1       0.2295653       57.88657
2009    29      2       0.2743069       66.55639
2009    29      3       0.3508977       80.93487
2009    29      4       0.4399164       96.32616
2009    29      5       0.4881994       104.8788
2009    29      6       0.3938855       89.71897
2009    29      7       0.3559969       82.843
2009    30      0       0.6320855       127.7938
2009    30      1       1.184235        188.1569
2009    30      2       0.8446035       154.1492
2009    30      3       0.359505        83.60304
2009    30      4       0.09152696      27.41779
2009    30      5       0.07493773      23.20641
2009    30      6       0.1608335       42.83045
2009    30      7       0.2598445       63.46248
2009    31      0       0.2645993       64.65863
2009    31      1       0.305702        72.31306
2009    31      2       0.3759026       85.1771
2009    31      3       0.4443914       96.97956
2009    31      4       0.3544479       81.47614
2009    31      5       0.2745878       65.79148
2009    31      6       0.3329718       76.85767
2009    31      7       0.4621829       98.5087
2010    1       0       0.3104748       72.46218
2010    1       1       0.2885943       68.50752
2010    1       2       0.2457115       60.16979
2010    1       3       0.2963442       70.32192
2010    1       4       0.2312527       57.55148
2010    1       5       0.2234737       55.6865
2010    1       6       0.4459853       96.09854
2010    1       7       0.5109455       106.5804
2010    2       0       0.4864271       102.9546
2010    2       1       0.2875947       68.6637
2010    2       2       0.2387286       58.92692
2010    2       3       0.2607539       63.03002
2010    2       4       0.2358754       57.91183
2010    2       5       0.2370302       57.97164
2010    2       6       0.4019587       87.59413
2010    2       7       0.3648244       81.45888
2010    3       0       0.2826113       66.85887
2010    3       1       0.266419        63.68515
2010    3       2       0.1789414       46.23494
2010    3       3       0.1398053       37.72342
2010    3       4       0.1742112       45.02943
2010    3       5       0.2040959       51.13572
2010    3       6       0.2614803       62.40148
2010    3       7       0.3043526       70.54692
2010    4       0       0.3199788       73.34921
2010    4       1       0.3307459       75.51216
2010    4       2       0.2384837       58.09294
2010    4       3       0.2118941       52.71945
2010    4       4       0.2491782       60.13895
2010    4       5       0.2563012       61.52031
2010    4       6       0.2038777       50.99946
2010    4       7       0.2679332       64.20726
2010    5       0       0.2320144       57.14751
2010    5       1       0.1735669       44.90331
2010    5       2       0.1564848       41.24871
2010    5       3       0.1424174       38.05124
2010    5       4       0.1414893       37.81193
2010    5       5       0.1574264       41.1854
2010    5       6       0.2052702       51.32199
2010    5       7       0.2236327       55.17638
2010    6       0       0.2184096       54.25734
2010    6       1       0.1736315       45.02051
2010    6       2       0.1473408       39.33663
2010    6       3       0.1386503       37.42232
2010    6       4       0.1419126       38.11873
2010    6       5       0.216055        53.69446
2010    6       6       0.2678851       63.91503
2010    6       7       0.2612879       62.58642
2010    7       0       0.2628622       62.7743
2010    7       1       0.2214509       54.50742
2010    7       2       0.2391895       57.99272
2010    7       3       0.2572412       61.50319
2010    7       4       0.1989305       49.77908
2010    7       5       0.1845121       46.67212
2010    7       6       0.3899324       84.79777
2010    7       7       0.3777824       83.12433
2010    8       0       0.3695897       81.55437
2010    8       1       0.2636439       62.58788
2010    8       2       0.1907827       48.19117
2010    8       3       0.1660456       43.06603
2010    8       4       0.1513878       39.91154
2010    8       5       0.1540483       40.43916
2010    8       6       0.3123926       71.57479
2010    8       7       0.4069442       88.30448
2010    9       0       0.369348        82.10116
2010    9       1       0.3172332       73.0245
2010    9       2       0.2722156       64.8808
2010    9       3       0.241983        59.1098
2010    9       4       0.2232914       55.31007
2010    9       5       0.2121462       52.91154
2010    9       6       0.3329284       74.89583
2010    9       7       0.3893955       85.38756
2010    10      0       0.2608239       62.60286
2010    10      1       0.2221775       55.16003
2010    10      2       0.2276419       56.32814
2010    10      3       0.2351494       57.87769
2010    10      4       0.2368881       58.15271
2010    10      5       0.2243763       55.60734
2010    10      6       0.193371        49.35562
2010    10      7       0.1982119       50.55738
2010    11      0       0.2525952       61.36232
2010    11      1       0.2757638       65.7322
2010    11      2       0.269419        64.57424
2010    11      3       0.2491445       60.62617
2010    11      4       0.2233263       55.45553
2010    11      5       0.2384533       58.46031
2010    11      6       0.2693587       64.8906
2010    11      7       0.2686803       65.20433
2010    12      0       0.3251097       75.76761
2010    12      1       0.3088238       73.12017
2010    12      2       0.3063938       72.84156
2010    12      3       0.2643513       64.75556
2010    12      4       0.1878461       48.65451
2010    12      5       0.1261021       34.66312
2010    12      6       0.1334711       36.67062
2010    12      7       0.1567663       41.65846
2010    13      0       0.3595422       82.10123
2010    13      1       0.4780756       102.5781
2010    13      2       0.3318003       77.96236
2010    13      3       0.1882581       49.27803
2010    13      4       0.1284622       35.9707
2010    13      5       0.1608931       42.89753
2010    13      6       0.2269437       56.81958
2010    13      7       0.3232328       75.6931
2010    14      0       0.3353096       77.97301
2010    14      1       0.3327839       77.1206
2010    14      2       0.308631        72.61251
2010    14      3       0.2983918       70.87665
2010    14      4       0.2798091       67.12643
2010    14      5       0.2829902       67.73701
2010    14      6       0.3232932       75.50326
2010    14      7       0.3441161       79.45391
2010    15      0       0.3553566       81.58904
2010    15      1       0.321974        75.66308
2010    15      2       0.2788567       67.55233
2010    15      3       0.2841897       68.55782
2010    15      4       0.3180482       74.88561
2010    15      5       0.3443376       79.82498
2010    15      6       0.3574762       82.45397
2010    15      7       0.5220934       109.2169
2010    16      0       0.4614003       100.0589
2010    16      1       0.3095954       73.73785
2010    16      2       0.4616025       100.0142
2010    16      3       0.5406823       112.8195
2010    16      4       0.4687883       101.1341
2010    16      5       0.5459534       112.9655
2010    16      6       0.47879         102.366
2010    16      7       0.5367558       111.8111
2010    17      0       0.6159402       124.0573
2010    17      1       0.4484197       98.98543
2010    17      2       0.3673565       85.04999
2010    17      3       0.3261064       77.25953
2010    17      4       0.3847684       87.71865
2010    17      5       0.5425854       113.563
2010    17      6       0.5008589       107.2881
2010    17      7       0.5233381       109.8271
2010    18      0       0.5696823       116.7309
2010    18      1       0.53244         111.9193
2010    18      2       0.6442789       128.4726
2010    18      3       0.744667        141.6043
2010    18      4       0.9363109       164.9108
2010    18      5       0.6933023       137.3295
2010    18      6       0.5207502       112.5119
2010    18      7       0.8179102       152.801
2010    19      0       0.7819875       147.1903
2010    19      1       0.6989079       137.7104
2010    19      2       0.7087333       138.726
2010    19      3       0.6145607       126.3211
2010    19      4       0.6662273       133.2884
2010    19      5       0.950346        166.8361
2010    19      6       0.6391992       128.7948
2010    19      7       0.2811982       69.18842
2010    20      0       0.2295242       59.16061
2010    20      1       0.2308587       59.40086
2010    20      2       0.1593139       43.64176
2010    20      3       0.1905904       50.37646
2010    20      4       0.2707191       66.79999
2010    20      5       0.4134331       92.93772
2010    20      6       0.4343321       96.72874
2010    20      7       0.6035011       123.2187
2010    21      0       0.6108406       123.357
2010    21      1       0.5032315       107.298
2010    21      2       0.4723458       102.5307
2010    21      3       0.4752698       102.6595
2010    21      4       0.668651        130.5805
2010    21      5       0.6786241       131.7474
2010    21      6       0.6162125       123.5513
2010    21      7       0.7087661       135.7233
2010    22      0       0.6970545       133.7157
2010    22      1       0.6322473       125.147
2010    22      2       0.4953176       105.7168
2010    22      3       0.4635531       100.5856
2010    22      4       0.4478606       97.7374
2010    22      5       0.3907423       87.90794
2010    22      6       0.3761298       85.24587
2010    22      7       0.3620212       82.67915
2010    23      0       0.3391098       78.51805
2010    23      1       0.306584        72.47602
2010    23      2       0.2849908       68.39974
2010    23      3       0.2299837       57.64187
2010    23      4       0.2065096       52.8271
2010    23      5       0.2260937       56.70885
2010    23      6       0.2595243       63.45734
2010    23      7       0.3633          83.07039
2010    24      0       0.2962078       70.49671
2010    24      1       0.2360871       58.82076
2010    24      2       0.1944766       50.21752
2010    24      3       0.1754981       46.05164
2010    24      4       0.1742376       45.71139
2010    24      5       0.2341022       58.1917
2010    24      6       0.4335006       94.74341
2010    24      7       0.5305423       109.9525
2010    25      0       0.4387318       95.53126
2010    25      1       0.3412568       78.74784
2010    25      2       0.2740678       66.35856
2010    25      3       0.2398576       59.801
2010    25      4       0.2385139       59.5057
2010    25      5       0.2487351       61.54833
2010    25      6       0.2515785       62.00686
2010    25      7       0.3543428       81.35822
2010    26      0       0.3462762       80.26776
2010    26      1       0.3078717       73.59813
2010    26      2       0.3357107       78.75659
2010    26      3       0.3460366       80.59369
2010    26      4       0.3158815       74.92017
2010    26      5       0.3107671       74.02079
2010    26      6       0.5315806       111.1697
2010    26      7       0.6144527       123.67
2010    27      0       0.5056358       107.6413
2010    27      1       0.3612268       83.32743
2010    27      2       0.2584374       63.66138
2010    27      3       0.2303862       58.00519
2010    27      4       0.2538214       62.68378
2010    27      5       0.2367166       59.11933
2010    27      6       0.1604315       42.77319
2010    27      7       0.156496        41.93558
2010    28      0       0.2093334       53.5409
2010    28      1       0.2464876       61.31016
2010    28      2       0.2652781       64.95402
2010    28      3       0.2440303       60.70591
2010    28      4       0.2365755       59.11924
2010    28      5       0.1423458       38.64394
2010    28      6       0.122793        34.13104
2010    28      7       0.1998082       50.97522
2010    29      0       0.2762373       66.02797
2010    29      1       0.3740126       83.55353
2010    29      2       0.34011         77.69457
2010    29      3       0.2623142       63.45472
2010    29      4       0.2353502       58.37925
2010    29      5       0.2836588       67.71331
2010    29      6       0.3967429       88.52358
2010    29      7       0.5205311       108.0658
2010    30      0       0.4407891       95.52326
2010    30      1       0.4512872       96.87047
2010    30      2       0.4377017       94.75077
2010    30      3       0.5033587       105.1679
2010    30      4       0.527272        108.7737
2010    30      5       0.5312323       109.3843
2010    30      6       0.4284869       93.1838
2010    30      7       0.4377771       94.93003
2010    31      0       0.3871289       86.3148
2010    31      1       0.4108372       90.26164
2010    31      2       0.3112665       72.84092
2010    31      3       0.1816029       46.70269
2010    31      4       0.162989        42.88349
2010    31      5       0.1547253       41.50427
2010    31      6       0.2252246       57.13174
2010    31      7       0.3314076       78.32431
2011    1       0       0.305036        71.21013
2011    1       1       0.2300804       56.85623
2011    1       2       0.2362453       58.03833
2011    1       3       0.2310118       56.89702
2011    1       4       0.2518772       60.92188
2011    1       5       0.2456242       59.83108
2011    1       6       0.3688412       82.61078
2011    1       7       0.4079914       89.46607
2011    2       0       0.3018194       71.39324
2011    2       1       0.2371045       58.79544
2011    2       2       0.2971236       69.74179
2011    2       3       0.455943        98.15594
2011    2       4       0.4108078       91.21629
2011    2       5       0.3860828       87.11854
2011    2       6       0.4540042       98.51962
2011    2       7       0.5308149       110.3149
2011    3       0       0.6110301       122.1137
2011    3       1       0.5490092       112.5161
2011    3       2       0.3708325       83.84252
2011    3       3       0.2765548       66.03025
2011    3       4       0.2412539       58.83599
2011    3       5       0.1803633       46.49317
2011    3       6       0.167296        43.78699
2011    3       7       0.3480075       79.12983
2011    4       0       0.3539396       80.05768
2011    4       1       0.2657446       63.81414
2011    4       2       0.1926303       49.15777
2011    4       3       0.1716381       44.69673
2011    4       4       0.184673        47.46348
2011    4       5       0.2074998       52.18526
2011    4       6       0.2481881       60.5313
2011    4       7       0.3677912       83.19852
2011    5       0       0.3711361       83.73662
2011    5       1       0.429597        93.03556
2011    5       2       0.327851        75.45715
2011    5       3       0.3066923       71.87632
2011    5       4       0.3342503       77.12033
2011    5       5       0.2830133       67.4156
2011    5       6       0.3411165       78.5619
2011    5       7       0.4855472       101.7483
2011    6       0       0.4591093       97.37851
2011    6       1       0.3579346       80.94264
2011    6       2       0.2820058       67.16679
2011    6       3       0.264514        63.79363
2011    6       4       0.2639417       63.49827
2011    6       5       0.2712976       64.7762
2011    6       6       0.4459215       95.2664
2011    6       7       0.505738        105.1166
2011    7       0       0.5063303       105.3201
2011    7       1       0.3567177       80.87377
2011    7       2       0.2948692       69.66794
2011    7       3       0.2712143       65.20371
2011    7       4       0.2648486       64.04665
2011    7       5       0.3558514       80.57309
2011    7       6       0.5851454       117.122
2011    7       7       0.6767458       130.4115
2011    8       0       0.5557132       113.9991
2011    8       1       0.4377976       95.53877
2011    8       2       0.3825699       86.12462
2011    8       3       0.3048606       72.03061
2011    8       4       0.2524602       61.77343
2011    8       5       0.2668287       64.38184
2011    8       6       0.4337453       93.56587
2011    8       7       0.4561573       98.08358
2011    9       0       0.3555828       81.1688
2011    9       1       0.2767705       66.7005
2011    9       2       0.2893431       69.11486
2011    9       3       0.3197385       74.87839
2011    9       4       0.3354558       77.6989
2011    9       5       0.3410592       78.84214
2011    9       6       0.3519454       80.72123
2011    9       7       0.4558448       98.39217
2011    10      0       0.473392        101.2436
2011    10      1       0.5170639       108.3402
2011    10      2       0.4677702       100.0464
2011    10      3       0.3617533       82.73724
2011    10      4       0.3059727       72.86166
2011    10      5       0.2447282       60.8909
2011    10      6       0.3827879       86.73117
2011    10      7       0.5539945       115.0287
2011    11      0       0.6176985       124.6791
2011    11      1       0.4844235       104.6188
2011    11      2       0.5666791       117.2593
2011    11      3       0.4950137       106.0366
2011    11      4       0.5424785       113.2493
2011    11      5       0.4820238       104.1476
2011    11      6       0.541851        113.2912
2011    11      7       0.6577315       129.9417
2011    12      0       0.727683        139.3041
2011    12      1       0.588567        120.4564
2011    12      2       0.4989604       107.4965
2011    12      3       0.5009191       108.1341
2011    12      4       0.4505942       99.65305
2011    12      5       0.6807138       133.4699
2011    12      6       0.6400482       126.8298
2011    12      7       0.633734        125.098
2011    13      0       0.4487034       97.89847
2011    13      1       0.4167531       92.39679
2011    13      2       0.499078        104.0611
2011    13      3       0.3679683       82.5849
2011    13      4       0.2083821       52.61789
2011    13      5       0.1465266       39.58852
2011    13      6       0.2791425       66.83518
2011    13      7       0.2456298       60.48572
2011    14      0       0.2927303       69.76502
2011    14      1       0.3585047       81.90065
2011    14      2       0.3746856       84.86068
2011    14      3       0.6428663       127.2015
2011    14      4       0.5517422       115.9689
2011    14      5       0.4022555       92.0257
2011    14      6       0.3569964       83.95403
2011    14      7       0.2748391       68.20902
2011    15      0       0.1957328       51.28022
2011    15      1       0.09836143      29.11722
2011    15      2       0.05685557      19.15229
2011    15      3       0.06958914      22.54356
2011    15      4       0.1029501       30.57024
2011    15      5       0.1149461       33.21692
2011    15      6       0.1738197       46.91707
2011    15      7       0.1410745       39.17962
2011    16      0       0.2514273       63.33705
2011    16      1       0.2912592       71.27534
2011    16      2       0.2374158       60.65679
2011    16      3       0.1902609       50.85895
2011    16      4       0.2028381       53.71533
2011    16      5       0.2056277       53.9221
2011    16      6       0.2327531       59.07674
2011    16      7       0.3295229       78.57952
2011    17      0       0.4208083       95.40755
2011    17      1       0.4888393       107.1376
2011    17      2       0.5340775       114.1869
2011    17      3       0.7129127       139.5106
2011    17      4       0.8149679       151.4351
2011    17      5       0.4803846       104.7958
2011    17      6       0.285806        68.1801
2011    17      7       0.26919         64.87619
2011    18      0       0.2545075       63.34387
2011    18      1       0.244218        61.43425
2011    18      2       0.2666603       65.72517
2011    18      3       0.2445675       61.278
2011    18      4       0.27168         66.4052
2011    18      5       0.2894325       69.8773
2011    18      6       0.2272819       57.63392
2011    18      7       0.2021762       52.47943
2011    19      0       0.2070466       53.65889
2011    19      1       0.132111        36.86789
2011    19      2       0.1313884       36.25166
2011    19      3       0.1821439       47.14379
2011    19      4       0.2280671       56.86432
2011    19      5       0.2756505       67.18534
2011    19      6       0.4908216       104.4598
2011    19      7       0.7267572       137.7299
2011    20      0       0.8246103       149.1301
2011    20      1       0.6265838       124.7461
2011    20      2       0.5284546       111.1074
2011    20      3       0.4534047       99.60706
2011    20      4       0.620081        125.2125
2011    20      5       0.7377449       139.9295
2011    20      6       0.7637582       143.3998
2011    20      7       0.6416259       128.6499
2011    21      0       0.4991853       108.1533
2011    21      1       0.3643224       85.03576
2011    21      2       0.3946088       90.21448
2011    21      3       0.4801262       104.6326
2011    21      4       0.6008387       123.1991
2011    21      5       0.5220378       110.3523
2011    21      6       0.6285475       124.9352
2011    21      7       0.7248484       137.9168
2011    22      0       0.8181035       149.2994
2011    22      1       0.8664622       154.2005
2011    22      2       0.6386335       127.0689
2011    22      3       0.4884311       105.4747
2011    22      4       0.4475225       98.82891
2011    22      5       0.430748        95.81351
2011    22      6       0.7258894       139.4066
2011    22      7       0.681544        132.9127
2011    23      0       0.6008483       121.3404
2011    23      1       0.4822472       104.2256
2011    23      2       0.4230905       94.73012
2011    23      3       0.4135932       93.28148
2011    23      4       0.4224122       94.79679
2011    23      5       0.3679618       85.04893
2011    23      6       0.3227187       76.22992
2011    23      7       0.3842882       86.89379
2011    24      0       0.4747921       101.9082
2011    24      1       0.4679069       100.7775
2011    24      2       0.5366389       111.4921
2011    24      3       0.6244719       124.5753
2011    24      4       0.6013856       121.8817
2011    24      5       0.5127989       108.7619
2011    24      6       0.4613727       100.5288
2011    24      7       0.3698324       84.9239
2011    25      0       0.3653686       83.8797
2011    25      1       0.3473447       80.46127
2011    25      2       0.3347313       77.94049
2011    25      3       0.3472078       79.82618
2011    25      4       0.359713        82.13763
2011    25      5       0.3618727       82.73533
2011    25      6       0.3370979       78.53751
2011    25      7       0.3762256       86.10147
2011    26      0       0.3559366       82.97001
2011    26      1       0.334785        79.21515
2011    26      2       0.3112616       74.67168
2011    26      3       0.3182053       75.89097
2011    26      4       0.3577093       83.21783
2011    26      5       0.4608495       101.0118
2011    26      6       0.5334707       112.3161
2011    26      7       0.6853838       134.0193
2011    27      0       0.5658631       117.2423
2011    27      1       0.4557621       100.1822
2011    27      2       0.4027898       91.26443
2011    27      3       0.3323307       78.74095
2011    27      4       0.2662975       65.96619
2011    27      5       0.2394428       60.41349
2011    27      6       0.2408992       60.61513
2011    27      7       0.263885        65.2452
2011    28      0       0.2804301       68.41085
2011    28      1       0.2848944       69.07231
2011    28      2       0.254621        63.00223
2011    28      3       0.2251594       57.08921
2011    28      4       0.1976031       51.46794
2011    28      5       0.1855665       48.6856
2011    28      6       0.1967379       50.89485
2011    28      7       0.2059485       52.89898
2011    29      0       0.2182112       55.67927
2011    29      1       0.2269626       57.56134
2011    29      2       0.222593        56.52984
2011    29      3       0.2102821       53.83618
2011    29      4       0.1761765       46.53533
2011    29      5       0.1663592       44.28247
2011    29      6       0.2345873       58.63988
2011    29      7       0.4317129       94.14444
2011    30      0       0.4030368       89.70175
2011    30      1       0.3747391       85.16711
2011    30      2       0.3228251       76.00861
2011    30      3       0.2570486       63.55843
2011    30      4       0.2230357       56.60133
2011    30      5       0.2029321       52.41986
2011    30      6       0.2162646       55.14307
2011    30      7       0.247825        61.58392
2011    31      0       0.271385        66.35999
2011    31      1       0.2643138       64.99854
2011    31      2       0.266262        65.38114
2011    31      3       0.2555508       63.2886
2011    31      4       0.2202928       56.1232
2011    31      5       0.2059679       53.11339
2011    31      6       0.2160959       55.27805
2011    31      7       0.2377213       59.82702
2012    1       0       0.4492372       97.74728
2012    1       1       0.3889501       87.61347
2012    1       2       0.3342809       77.64007
2012    1       3       0.3006433       71.20219
2012    1       4       0.3094178       72.56092
2012    1       5       0.3148928       73.35021
2012    1       6       0.4269175       92.7887
2012    1       7       0.5320801       109.4259
2012    2       0       0.455555        97.82857
2012    2       1       0.4170097       91.40034
2012    2       2       0.3853914       86.06869
2012    2       3       0.3524437       80.11438
2012    2       4       0.3220031       74.40874
2012    2       5       0.2686923       64.26293
2012    2       6       0.430727        93.44762
2012    2       7       0.4948364       102.9208
2012    3       0       0.4379388       94.82938
2012    3       1       0.320947        74.66862
2012    3       2       0.3052564       71.76528
2012    3       3       0.3007819       71.01585
2012    3       4       0.2892968       68.78283
2012    3       5       0.2998134       70.60017
2012    3       6       0.4132949       90.18803
2012    3       7       0.4704394       99.43463
2012    4       0       0.4824702       101.8593
2012    4       1       0.5114159       106.8424
2012    4       2       0.484659        102.9555
2012    4       3       0.4744775       100.986
2012    4       4       0.408254        89.91534
2012    4       5       0.3115794       72.81172
2012    4       6       0.4424814       96.1718
2012    4       7       0.2688679       64.98057
2012    5       0       0.280294        67.38612
2012    5       1       0.2224002       56.23919
2012    5       2       0.1634497       43.5351
2012    5       3       0.1407968       38.20463
2012    5       4       0.1496775       39.91093
2012    5       5       0.1531957       40.59337
2012    5       6       0.1738874       45.33623
2012    5       7       0.3149113       73.11203
2012    6       0       0.2710475       64.7718
2012    6       1       0.2082286       52.38675
2012    6       2       0.1554064       41.22088
2012    6       3       0.1379177       37.41528
2012    6       4       0.1244244       34.41172
2012    6       5       0.1174586       32.84906
2012    6       6       0.1177914       32.87908
2012    6       7       0.1714469       44.86476
2012    7       0       0.247078        60.69162
2012    7       1       0.3888854       86.99943
2012    7       2       0.4604548       98.92093
2012    7       3       0.5582382       114.2862
2012    7       4       0.5078484       107.3136
2012    7       5       0.4199037       93.30743
2012    7       6       0.4643514       100.9622
2012    7       7       0.5115733       108.8673
2012    8       0       0.6274509       126.446
2012    8       1       0.6936853       134.7509
2012    8       2       0.532984        112.0264
2012    8       3       0.4303827       95.93669
2012    8       4       0.4351373       96.62133
2012    8       5       0.3957744       89.23859
2012    8       6       0.4691709       101.9054
2012    8       7       0.6535686       129.2626
2012    9       0       0.3104358       73.50922
2012    9       1       0.3439883       78.6302
2012    9       2       0.4706814       99.68947
2012    9       3       0.3490736       78.83909
2012    9       4       0.2401262       58.56121
2012    9       5       0.1145027       31.93478
2012    9       6       0.09630655      27.86225
2012    9       7       0.1576909       41.54609
2012    10      0       0.1727114       44.68835
2012    10      1       0.1524159       40.2299
2012    10      2       0.08505604      25.02601
2012    10      3       0.1179465       32.5334
2012    10      4       0.1378871       37.02566
2012    10      5       0.1347037       36.26085
2012    10      6       0.3177508       72.66091
2012    10      7       0.3773054       83.61768
2012    11      0       0.3061376       70.9251
2012    11      1       0.2824104       66.79914
2012    11      2       0.2271686       56.22182
2012    11      3       0.1999504       50.87963
2012    11      4       0.1834306       47.41738
2012    11      5       0.2049693       51.79142
2012    11      6       0.2546059       61.86578
2012    11      7       0.2845346       67.88247
2012    12      0       0.2916979       69.94959
2012    12      1       0.25696         63.2292
2012    12      2       0.2419646       60.33115
2012    12      3       0.2857036       69.35239
2012    12      4       0.316981        75.02348
2012    12      5       0.410227        90.92231
2012    12      6       0.3304861       76.7451
2012    12      7       0.320325        75.44096
2012    13      0       0.4004802       90.2469
2012    13      1       0.3556312       82.49142
2012    13      2       0.2303051       58.57309
2012    13      3       0.1669632       45.02287
2012    13      4       0.1916051       49.87239
2012    13      5       0.2206504       55.86437
2012    13      6       0.2997639       71.62038
2012    13      7       0.3058692       73.45199
2012    14      0       0.2738126       67.80791
2012    14      1       0.2094347       54.36158
2012    14      2       0.06662871      21.24842
2012    14      3       0.08434498      25.46291
2012    14      4       0.09183159      27.15837
2012    14      5       0.1072383       30.93654
2012    14      6       0.1059321       30.33643
2012    14      7       0.1514656       40.26133
2012    15      0       0.256633        61.68457
2012    15      1       0.4618019       98.88226
2012    15      2       0.6363283       126.0179
2012    15      3       0.6904233       133.7985
2012    15      4       0.616894        123.8753
2012    15      5       0.5842074       119.2253
2012    15      6       0.509467        107.9247
2012    15      7       0.6204029       124.402
2012    16      0       0.8037445       147.5726
2012    16      1       0.578678        117.9315
2012    16      2       0.3360598       78.66204
2012    16      3       0.2649539       64.65359
2012    16      4       0.2481615       60.81666
2012    16      5       0.2842308       68.1145
2012    16      6       0.2812209       67.68259
2012    16      7       0.1318514       36.31674
2012    17      0       0.1429381       38.69584
2012    17      1       0.1384928       37.40866
2012    17      2       0.1327248       36.08089
2012    17      3       0.126075        34.59804
2012    17      4       0.1389945       37.35701
2012    17      5       0.1190866       32.94792
2012    17      6       0.1127609       31.48059
2012    17      7       0.1723471       44.42017
2012    18      0       0.2275215       55.72828
2012    18      1       0.2033307       50.66553
2012    18      2       0.1678935       43.4727
2012    18      3       0.215904        53.42437
2012    18      4       0.2312944       56.51518
2012    18      5       0.2067823       51.45255
2012    18      6       0.2197906       53.79705
2012    18      7       0.273469        64.00761
2012    19      0       0.3066535       70.49611
2012    19      1       0.2607571       62.15184
2012    19      2       0.2857337       66.99623
2012    19      3       0.2782003       65.80283
2012    19      4       0.1538972       40.68867
2012    19      5       0.09711206      27.97095
2012    19      6       0.2393914       58.62145
2012    19      7       0.3156113       73.19404
2012    20      0       0.3435406       78.7494
2012    20      1       0.2837924       67.67187
2012    20      2       0.2452651       59.98256
2012    20      3       0.2669964       64.27219
2012    20      4       0.294933        69.61481
2012    20      5       0.3097663       72.44284
2012    20      6       0.2958441       70.05787
2012    20      7       0.3503656       80.53136
2012    21      0       0.3624116       83.18157
2012    21      1       0.3344476       78.18596
2012    21      2       0.3952343       88.97681
2012    21      3       0.4933521       104.8649
2012    21      4       0.5461399       112.8728
2012    21      5       0.516518        109.0
2012    21      6       0.457121        100.1456
2012    21      7       0.6482577       129.1839
2012    22      0       0.8385016       153.3415
2012    22      1       0.9103107       160.5101
2012    22      2       0.7602053       143.2407
2012    22      3       0.9169978       161.4891
2012    22      4       0.7561933       142.6986
2012    22      5       0.7549977       142.3359
2012    22      6       0.7742444       144.7149
2012    22      7       0.8129752       149.2526
2012    23      0       0.763124        142.8357
2012    23      1       0.7233793       138.015
2012    23      2       0.6384155       126.6721
2012    23      3       0.6800466       131.8067
2012    23      4       0.6569155       128.3774
2012    23      5       0.5660695       115.0525
2012    23      6       0.4421582       95.53243
2012    23      7       0.3536374       80.13607
2012    24      0       0.2639891       63.06908
2012    24      1       0.2870337       67.3731
2012    24      2       0.3165619       73.28546
2012    24      3       0.3635109       81.98612
2012    24      4       0.4003536       88.34263
2012    24      5       0.3692909       83.16751
2012    24      6       0.28313         67.86829
2012    24      7       0.2897799       69.42684
2012    25      0       0.3560723       81.64058
2012    25      1       0.3130823       73.83227
2012    25      2       0.2618186       63.99951
2012    25      3       0.2519066       61.98215
2012    25      4       0.2408228       59.66164
2012    25      5       0.2446941       60.35628
2012    25      6       0.4566272       98.19219
2012    25      7       0.41205         91.57435
2012    26      0       0.2957024       71.11301
2012    26      1       0.1874032       49.25744
2012    26      2       0.1629949       43.82042
2012    26      3       0.1655997       44.31641
2012    26      4       0.1628977       43.71314
2012    26      5       0.1542493       41.83703
2012    26      6       0.1846511       48.41025
2012    26      7       0.1991553       51.67806
2012    27      0       0.216591        55.68566
2012    27      1       0.2449388       61.56201
2012    27      2       0.2556431       63.73085
2012    27      3       0.23328         59.27963
2012    27      4       0.2357088       59.8006
2012    27      5       0.2382785       60.34006
2012    27      6       0.2314458       58.96799
2012    27      7       0.2212894       56.84819
2012    28      0       0.2068224       53.75589
2012    28      1       0.2044023       53.21729
2012    28      2       0.2474675       62.2142
2012    28      3       0.2749808       67.74546
2012    28      4       0.2698069       66.54671
2012    28      5       0.2351866       59.36372
2012    28      6       0.1534001       41.56613
2012    28      7       0.1776062       47.00516
2012    29      0       0.2161509       55.64378
2012    29      1       0.2431268       61.25355
2012    29      2       0.247847        61.85484
2012    29      3       0.2403483       60.18132
2012    29      4       0.2426742       60.60681
2012    29      5       0.2566946       63.51402
2012    29      6       0.2962173       71.40775
2012    29      7       0.4472833       98.86346
2012    30      0       0.5038739       107.8844
2012    30      1       0.507566        108.4895
2012    30      2       0.4978725       107.335
2012    30      3       0.3613237       84.10404
2012    30      4       0.3160083       74.91051
2012    30      5       0.3689578       83.67693
2012    30      6       0.3104811       73.05963
2012    30      7       0.5798651       117.8803
2012    31      0       0.542186        113.0976
2012    31      1       0.3908897       88.40392
2012    31      2       0.2829897       68.18004
2012    31      3       0.2389005       59.19304
2012    31      4       0.21485         54.58037
2012    31      5       0.1999109       51.87124
2012    31      6       0.3495428       81.32485
2012    31      7       0.4301216       95.48562
2013    1       0       0.1483161       38.75481
2013    1       1       0.1490084       38.84851
2013    1       2       0.2039511       50.3102
2013    1       3       0.204507        50.57802
2013    1       4       0.1304864       35.2087
2013    1       5       0.1105163       30.80124
2013    1       6       0.1513552       39.61307
2013    1       7       0.249085        59.78923
2013    2       0       0.3611477       80.76029
2013    2       1       0.4172305       91.47711
2013    2       2       0.4685941       100.6071
2013    2       3       0.3567935       81.99433
2013    2       4       0.2872528       69.19118
2013    2       5       0.3498393       80.57968
2013    2       6       0.3294369       76.94001
2013    2       7       0.2594285       63.79349
2013    3       0       0.2264561       56.94883
2013    3       1       0.1984158       50.87026
2013    3       2       0.2317945       57.51185
2013    3       3       0.2699618       65.53827
2013    3       4       0.307506        72.56336
2013    3       5       0.2899683       68.94808
2013    3       6       0.2657862       64.22287
2013    3       7       0.3652251       83.07959
2013    4       0       0.2585076       63.91434
2013    4       1       0.211393        54.4812
2013    4       2       0.1621143       43.4283
2013    4       3       0.1872402       48.24151
2013    4       4       0.3259629       75.69015
2013    4       5       0.3771656       86.20424
2013    4       6       0.464921        102.0059
2013    4       7       0.6084494       124.4678
2013    5       0       0.6010279       123.7563
2013    5       1       0.3669437       85.95187
2013    5       2       0.2091393       54.59102
2013    5       3       0.1473676       40.53704
2013    5       4       0.1788529       47.31165
2013    5       5       0.1406362       39.07259
2013    5       6       0.09714928      28.80725
2013    5       7       0.1980555       51.53624
2013    6       0       0.2761635       67.54201
2013    6       1       0.3264784       77.33416
2013    6       2       0.3352365       78.908
2013    6       3       0.3333127       78.23741
2013    6       4       0.3611454       83.92909
2013    6       5       0.3304323       78.622
2013    6       6       0.2994707       72.6465
2013    6       7       0.3337624       79.61585
2013    7       0       0.2836045       69.31875
2013    7       1       0.2724188       66.94651
2013    7       2       0.1185089       33.89953
2013    7       3       0.1033032       30.05509
2013    7       4       0.1319198       36.74121
2013    7       5       0.1437128       39.45605
2013    7       6       0.1489451       40.70455
2013    7       7       0.150185        41.11725
2013    8       0       0.1356878       37.97413
2013    8       1       0.1415866       39.41559
2013    8       2       0.1823531       48.38288
2013    8       3       0.2212071       56.38511
2013    8       4       0.2489222       61.87758
2013    8       5       0.2598068       64.07129
2013    8       6       0.2459935       61.46742
2013    8       7       0.3099777       74.02237
2013    9       0       0.2973518       71.71619
2013    9       1       0.2918226       70.44716
2013    9       2       0.3046438       73.08432
2013    9       3       0.2524329       62.81967
2013    9       4       0.2558264       63.44287
2013    9       5       0.3183365       75.59608
2013    9       6       0.3370571       78.79734
2013    9       7       0.3145928       74.19189
2013    10      0       0.4846851       103.9376
2013    10      1       0.3069025       72.60017
2013    10      2       0.2105308       52.58106
2013    10      3       0.2550532       61.13829
2013    10      4       0.2392143       58.43113
2013    10      5       0.1865032       48.16884
2013    10      6       0.1519817       41.00488
2013    10      7       0.1622036       43.25066
2013    11      0       0.2226544       56.30192
2013    11      1       0.2071334       53.71749
2013    11      2       0.1636531       44.29074
2013    11      3       0.158577        43.04771
2013    11      4       0.2195655       55.70549
2013    11      5       0.3152479       74.92658
2013    11      6       0.4189687       93.65089
2013    11      7       0.5177681       109.9912
2013    12      0       0.6508572       129.3541
2013    12      1       0.6468422       129.8639
2013    12      2       0.7411347       142.6207
2013    12      3       0.9280906       164.2008
2013    12      4       0.7377034       142.2664
2013    12      5       0.8807123       159.4101
2013    12      6       0.56078         117.7431
2013    12      7       0.4614302       100.3995
2013    13      0       0.4945945       106.9827
2013    13      1       0.2766097       67.92867
2013    13      2       0.3039589       73.01496
2013    13      3       0.2232142       56.82662
2013    13      4       0.2724073       66.21891
2013    13      5       0.2787308       67.41252
2013    13      6       0.4213684       92.51234
2013    13      7       0.4661132       100.5192
2013    14      0       0.4159113       92.93778
2013    14      1       0.341684        79.83562
2013    14      2       0.3248225       76.53741
2013    14      3       0.301642        72.10365
2013    14      4       0.245201        60.81138
2013    14      5       0.2101435       53.52393
2013    14      6       0.2365049       58.77662
2013    14      7       0.3764093       84.90129
2013    15      0       0.4032567       89.74992
2013    15      1       0.2365579       58.96277
2013    15      2       0.2007698       51.38641
2013    15      3       0.2128045       53.56218
2013    15      4       0.2313151       57.15381
2013    15      5       0.2311401       57.17066
2013    15      6       0.2448536       60.00983
2013    15      7       0.3077826       72.60592
2013    16      0       0.3400914       79.03072
2013    16      1       0.3144009       74.4161
2013    16      2       0.3345643       78.16825
2013    16      3       0.3152929       74.61235
2013    16      4       0.2600755       63.93126
2013    16      5       0.242809        60.39795
2013    16      6       0.3462729       79.65173
2013    16      7       0.5380747       110.857
2013    17      0       0.5568908       114.0573
2013    17      1       0.4167146       92.62022
2013    17      2       0.3539633       81.7144
2013    17      3       0.3296508       77.40484
2013    17      4       0.3178419       75.32181
2013    17      5       0.3112577       74.1722
2013    17      6       0.3907783       88.51623
2013    17      7       0.4787016       103.47
2013    18      0       0.4101773       92.46031
2013    18      1       0.4118273       92.61065
2013    18      2       0.4837168       104.5703
2013    18      3       0.6017815       122.3598
2013    18      4       0.491206        105.4935
2013    18      5       0.3510533       81.73754
2013    18      6       0.4187673       92.7787
2013    18      7       0.4785218       102.9141
2013    19      0       0.6920142       132.8955
2013    19      1       0.5929651       119.7171
2013    19      2       0.4818312       103.4162
2013    19      3       0.3578255       82.90887
2013    19      4       0.3473677       80.50151
2013    19      5       0.2028857       52.02163
2013    19      6       0.1443854       39.91252
2013    19      7       0.155123        42.40932
2013    20      0       0.1530604       41.95707
2013    20      1       0.1677295       45.16431
2013    20      2       0.1558236       42.44124
2013    20      3       0.1290545       36.23007
2013    20      4       0.1188507       33.46163
2013    20      5       0.1368997       36.85312
2013    20      6       0.2232603       55.39346
2013    20      7       0.3826043       85.39051
2013    21      0       0.4308483       93.7595
2013    21      1       0.5605688       114.3575
2013    21      2       0.682898        132.0739
2013    21      3       0.4968935       105.9956
2013    21      4       0.4108619       91.88384
2013    21      5       0.8254857       152.094
2013    21      6       0.8340918       152.8407
2013    21      7       0.6443738       127.7107
2013    22      0       0.5461236       114.332
2013    22      1       0.4150708       93.55022
2013    22      2       0.2769676       67.9626
2013    22      3       0.1978078       51.76251
2013    22      4       0.1213827       34.44418
2013    22      5       0.09720862      28.69189
2013    22      6       0.0870173       26.34267
2013    22      7       0.1882451       49.74148
2013    23      0       0.2833968       69.4405
2013    23      1       0.3976654       90.33493
2013    23      2       0.3719637       85.99467
2013    23      3       0.3660693       84.89405
2013    23      4       0.3350434       79.07934
2013    23      5       0.3114091       74.81867
2013    23      6       0.3337556       79.19116
2013    23      7       0.3789625       87.72304
2013    24      0       0.3961626       91.10822
2013    24      1       0.4333354       97.26914
2013    24      2       0.3454828       81.42149
2013    24      3       0.2996775       72.20846
2013    24      4       0.3168865       75.4614
2013    24      5       0.3793064       86.65295
2013    24      6       0.3695168       84.57238
2013    24      7       0.3587452       82.45007
2013    25      0       0.4721601       101.1039
2013    25      1       0.3552803       81.72116
2013    25      2       0.2761695       67.78693
2013    25      3       0.2189143       56.4448
2013    25      4       0.1674963       45.20834
2013    25      5       0.2135178       55.2329
2013    25      6       0.3976062       90.13954
2013    25      7       0.4681154       99.99626
2013    26      0       0.4796701       102.7321
2013    26      1       0.4555354       98.43651
2013    26      2       0.5002374       105.9327
2013    26      3       0.362086        83.31044
2013    26      4       0.3511571       81.28422
2013    26      5       0.3984144       89.87352
2013    26      6       0.6540487       129.9307
2013    26      7       0.5974873       121.3648
2013    27      0       0.564227        116.9431
2013    27      1       0.4387559       96.99386
2013    27      2       0.3530948       81.93419
2013    27      3       0.3307583       77.98257
2013    27      4       0.3567304       82.69972
2013    27      5       0.4046939       91.03432
2013    27      6       0.6231999       124.1175
2013    27      7       0.6815961       132.7087
2013    28      0       0.5578636       115.6155
2013    28      1       0.539545        113.0635
2013    28      2       0.5580664       115.514
2013    28      3       0.443008        97.48268
2013    28      4       0.414366        92.65749
2013    28      5       0.5193607       110.0487
2013    28      6       0.6582495       129.6679
2013    28      7       0.7558877       141.5557
2013    29      0       0.6124887       123.2319
2013    29      1       0.5501289       114.7795
2013    29      2       0.5541888       115.8985
2013    29      3       0.8371953       153.5295
2013    29      4       0.5891528       121.4926
2013    29      5       0.4449285       98.47078
2013    29      6       0.7589125       141.6907
2013    29      7       0.6950877       133.7415
2013    30      0       0.6170169       124.1103
2013    30      1       0.6677252       131.3548
2013    30      2       0.7709024       143.9371
2013    30      3       0.7705519       143.821
2013    30      4       0.7517147       143.3104
2013    30      5       0.5935303       122.5048
2013    30      6       0.6519214       130.2589
2013    30      7       0.8063068       150.3007
2013    31      0       0.7283728       140.1922
2013    31      1       0.9221399       161.1942
2013    31      2       0.5987832       122.1486
2013    31      3       1.054803        176.7728
2013    31      4       0.6407264       128.3781
2013    31      5       0.499672        107.6393
2013    31      6       0.5537948       115.619
2013    31      7       0.7030055       136.6661
2014    1       0       0.5916272       121.1282
2014    1       1       0.4878646       105.9337
2014    1       2       0.4636642       102.0461
2014    1       3       0.4391699       97.69865
2014    1       4       0.3597199       83.24371
2014    1       5       0.3110844       73.66592
2014    1       6       0.3742843       85.27803
2014    1       7       0.3526089       81.53406
2014    2       0       0.3340315       77.98616
2014    2       1       0.2610696       63.94354
2014    2       2       0.2500703       61.15183
2014    2       3       0.1473987       39.48027
2014    2       4       0.09456724      27.57411
2014    2       5       0.1476368       39.4442
2014    2       6       0.1712774       44.37047
2014    2       7       0.3220544       73.82145
2014    3       0       0.3095408       71.32975
2014    3       1       0.1734963       44.76164
2014    3       2       0.1450814       38.68488
2014    3       3       0.151375        40.11101
2014    3       4       0.1540316       40.74138
2014    3       5       0.1463479       39.07895
2014    3       6       0.1312471       35.76254
2014    3       7       0.128604        35.14476
2014    4       0       0.1378078       37.16145
2014    4       1       0.1373174       37.04636
2014    4       2       0.1348795       36.45083
2014    4       3       0.1258167       34.3952
2014    4       4       0.1139881       31.71829
2014    4       5       0.1083399       30.44003
2014    4       6       0.1443036       38.46201
2014    4       7       0.159849        41.91067
2014    5       0       0.1585637       41.67346
2014    5       1       0.1743798       44.94103
2014    5       2       0.1641702       42.80094
2014    5       3       0.1866478       47.60301
2014    5       4       0.2255815       55.50793
2014    5       5       0.3284582       75.25767
2014    5       6       0.1811315       46.44513
2014    5       7       0.1856403       47.06357
2014    6       0       0.310713        71.11537
2014    6       1       0.219634        53.95005
2014    6       2       0.2291342       55.80683
2014    6       3       0.1109895       30.89171
2014    6       4       0.07828919      23.45109
2014    6       5       0.08388535      24.66912
2014    6       6       0.1541347       40.24149
2014    6       7       0.1789763       45.59644
2014    7       0       0.1812294       46.14344
2014    7       1       0.1696462       43.74739
2014    7       2       0.1646779       42.85427
2014    7       3       0.1700049       44.04396
2014    7       4       0.1677294       43.59514
2014    7       5       0.1638709       42.80985
2014    7       6       0.1604053       42.13036
2014    7       7       0.17066         44.4554
2014    8       0       0.1855006       47.72312
2014    8       1       0.2132003       53.51349
2014    8       2       0.2498191       61.01687
2014    8       3       0.2850685       68.14394
2014    8       4       0.3885442       87.02786
2014    8       5       0.4297789       94.36464
2014    8       6       0.3637326       83.09549
2014    8       7       0.4827879       103.162
2014    9       0       0.4308851       94.63774
2014    9       1       0.2365718       58.86179
2014    9       2       0.1576967       42.10278
2014    9       3       0.1153072       32.59738
2014    9       4       0.09443241      27.74767
2014    9       5       0.1006432       29.06047
2014    9       6       0.142113        38.53488
2014    9       7       0.2211137       55.38397
2014    10      0       0.2316014       57.60413
2014    10      1       0.2025825       51.78838
2014    10      2       0.1616284       43.06631
2014    10      3       0.1778729       46.24926
2014    10      4       0.1892946       48.44259
2014    10      5       0.07980617      24.08638
2014    10      6       0.08985708      26.21621
2014    10      7       0.1631464       42.87858
2014    11      0       0.1806132       46.67879
2014    11      1       0.1694305       44.28541
2014    11      2       0.1338955       36.42369
2014    11      3       0.1563825       41.33403
2014    11      4       0.1980614       50.27377
2014    11      5       0.2224301       55.45289
2014    11      6       0.2334144       57.87405
2014    11      7       0.2861396       68.5728
2014    12      0       0.3273638       76.51344
2014    12      1       0.3247164       75.99248
2014    12      2       0.3346767       77.83426
2014    12      3       0.3624211       82.69445
2014    12      4       0.3598386       82.39415
2014    12      5       0.3941598       88.49971
2014    12      6       0.3613931       82.72544
2014    12      7       0.5770425       116.0005
2014    13      0       0.5993132       120.0943
2014    13      1       0.4167076       92.46697
2014    13      2       0.3694566       84.51553
2014    13      3       0.3962741       89.43702
2014    13      4       0.4047516       90.88613
2014    13      5       0.3347361       78.18822
2014    13      6       0.3393125       78.69926
2014    13      7       0.4663557       100.3765
2014    14      0       0.5125996       107.7632
2014    14      1       0.4976679       105.9657
2014    14      2       0.6364623       127.0328
2014    14      3       0.5703396       117.252
2014    14      4       0.4862779       104.7895
2014    14      5       0.4540561       98.36167
2014    14      6       0.6244764       124.3624
2014    14      7       0.7921845       146.9412
2014    15      0       0.5521063       114.7171
2014    15      1       0.4961729       105.2343
2014    15      2       0.4294505       94.37418
2014    15      3       0.3980071       89.27337
2014    15      4       0.4381921       96.28711
2014    15      5       0.5369903       111.7504
2014    15      6       0.4217528       93.85485
2014    15      7       0.385235        87.69682
2014    16      0       0.3397652       79.26861
2014    16      1       0.2949921       70.68059
2014    16      2       0.2735887       66.46245
2014    16      3       0.2419775       60.20486
2014    16      4       0.1949033       50.75413
2014    16      5       0.1715979       45.85394
2014    16      6       0.1715544       45.84343
2014    16      7       0.175908        46.82364
2014    17      0       0.1665872       44.86235
2014    17      1       0.145477        40.14682
2014    17      2       0.1417287       39.28429
2014    17      3       0.1670218       45.05434
2014    17      4       0.2035376       52.95808
2014    17      5       0.2418775       60.8849
2014    17      6       0.3007859       72.34085
2014    17      7       0.5420336       113.1574
2014    18      0       0.6000378       121.5601
2014    18      1       0.4739402       102.6947
2014    18      2       0.4641473       101.2308
2014    18      3       0.4369642       96.75411
2014    18      4       0.3788396       86.59744
2014    18      5       0.3086204       73.58682
2014    18      6       0.5814034       119.5257
2014    18      7       0.5446918       114.1398
2014    19      0       0.4131237       92.24626
2014    19      1       0.4178247       92.97211
2014    19      2       0.3803826       86.64492
2014    19      3       0.3236914       76.8002
2014    19      4       0.3122943       74.58375
2014    19      5       0.3612862       83.34638
2014    19      6       0.610457        122.274
2014    19      7       0.9078546       158.3799
2014    20      0       0.7757541       143.9697
2014    20      1       0.4821387       103.4707
2014    20      2       0.5272078       110.463
2014    20      3       0.5082233       107.2607
2014    20      4       0.4368227       95.57117
2014    20      5       0.2849659       68.21452
2014    20      6       0.3184757       74.26848
2014    20      7       0.4596317       100.2048
2014    21      0       0.5128223       108.7052
2014    21      1       0.4616036       100.3414
2014    21      2       0.2941307       70.59052
2014    21      3       0.2928955       70.83115
2014    21      4       0.193313        50.63934
2014    21      5       0.1103872       31.58541
2014    21      6       0.1299739       35.99085
2014    21      7       0.2004879       51.41824
2014    22      0       0.2998675       71.25647
2014    22      1       0.4160741       92.53177
2014    22      2       0.4503531       98.50184
2014    22      3       0.4646196       101.5772
2014    22      4       0.5685793       117.8304
2014    22      5       0.4869658       105.2277
2014    22      6       0.6121732       123.9033
2014    22      7       0.8977814       160.149
2014    23      0       0.7433921       141.1444
2014    23      1       0.5520721       115.4002
2014    23      2       0.4204186       94.94072
2014    23      3       0.6787517       132.7867
2014    23      4       0.3320447       78.70999
2014    23      5       0.196288        51.13758
2014    23      6       0.387543        88.04346
2014    23      7       0.7510023       141.5436
2014    24      0       0.6388571       127.5585
2014    24      1       0.3660302       84.38178
2014    24      2       0.3386056       79.16129
2014    24      3       0.2682795       65.99602
2014    24      4       0.3162814       74.71814
2014    24      5       0.3237259       75.77473
2014    24      6       0.2962324       70.50887
2014    24      7       0.3831417       85.92597
2014    25      0       0.4892913       103.2323
2014    25      1       0.3935443       87.75391
2014    25      2       0.3427571       78.95628
2014    25      3       0.3365887       77.99418
2014    25      4       0.41069         90.67633
2014    25      5       0.4751017       100.8872
2014    25      6       0.6101505       120.0659
2014    25      7       0.7532903       139.5742
2014    26      0       0.669237        129.9877
2014    26      1       0.6022965       120.7642
2014    26      2       0.4350152       95.61903
2014    26      3       0.3132792       74.48751
2014    26      4       0.2602119       64.29526
2014    26      5       0.4791503       104.3748
2014    26      6       0.6173932       124.598
2014    26      7       0.6894835       134.1822
2014    27      0       0.6193332       124.6012
2014    27      1       0.4877187       104.6977
2014    27      2       0.3759275       85.92523
2014    27      3       0.3004164       72.23018
2014    27      4       0.2717072       66.73679
2014    27      5       0.2726077       66.63929
2014    27      6       0.560089        113.9849
2014    27      7       0.8138104       147.4645
2014    28      0       0.7246076       137.5367
2014    28      1       0.5324717       111.5403
2014    28      2       0.451287        98.83141
2014    28      3       0.4320949       95.56394
2014    28      4       0.3918022       88.53031
2014    28      5       0.3689816       84.29563
2014    28      6       0.5417917       113.2596
2014    28      7       0.6098733       123.3631
2014    29      0       0.6590688       130.1234
2014    29      1       0.5312357       111.7871
2014    29      2       0.5546968       115.5717
2014    29      3       0.479413        103.9204
2014    29      4       0.4842015       104.3609
2014    29      5       0.5784805       118.4322
2014    29      6       0.6139698       123.8903
2014    29      7       0.6506854       128.0063
2014    30      0       0.6530508       127.6334
2014    30      1       0.5749849       116.931
2014    30      2       0.3802477       86.48288
2014    30      3       0.2561932       63.32178
2014    30      4       0.4790576       103.2304
2014    30      5       0.4809823       103.5786
2014    30      6       0.6021035       120.0985
2014    30      7       0.7400085       138.3606
2014    31      0       0.6045138       121.2837
2014    31      1       0.5937444       119.3543
2014    31      2       0.6104957       121.8048
2014    31      3       0.5468218       112.7683
2014    31      4       0.4412738       97.23426
2014    31      5       0.4514581       99.29164
2014    31      6       0.5657457       115.7072
2014    31      7       0.7620638       141.3896
2015    1       0       0.3935638       87.61296
2015    1       1       0.2033846       51.39666
2015    1       2       0.2273166       55.74723
2015    1       3       0.256595        61.90364
2015    1       4       0.2583495       62.54252
2015    1       5       0.1955566       49.81046
2015    1       6       0.3159275       72.52024
2015    1       7       0.4070314       88.98939
2015    2       0       0.2648389       63.51433
2015    2       1       0.2399151       58.40071
2015    2       2       0.2701111       64.52629
2015    2       3       0.4154837       90.55496
2015    2       4       0.3642488       81.48775
2015    2       5       0.2142699       53.20966
2015    2       6       0.4044649       87.42952
2015    2       7       0.322161        73.46249
2015    3       0       0.2864806       66.79294
2015    3       1       0.3499355       77.98939
2015    3       2       0.3065888       70.70443
2015    3       3       0.3153693       72.53909
2015    3       4       0.2452468       59.35541
2015    3       5       0.2111741       52.45825
2015    3       6       0.2889483       67.07448
2015    3       7       0.4146528       89.1174
2015    4       0       0.3209387       73.27879
2015    4       1       0.2622302       62.7998
2015    4       2       0.2724367       64.70748
2015    4       3       0.2831716       66.46724
2015    4       4       0.2447127       59.26922
2015    4       5       0.2472511       59.63817
2015    4       6       0.32365         74.15818
2015    4       7       0.4693277       99.68961
2015    5       0       0.5087342       106.427
2015    5       1       0.562222        114.47
2015    5       2       0.542538        112.4041
2015    5       3       0.5811425       117.6287
2015    5       4       0.5889809       118.4781
2015    5       5       0.4127189       91.40993
2015    5       6       0.4091778       90.65984
2015    5       7       0.4670168       99.45982
2015    6       0       0.4737346       100.2137
2015    6       1       0.3960653       87.28373
2015    6       2       0.2940023       69.31511
2015    6       3       0.296041        69.7319
2015    6       4       0.2066761       52.0463
2015    6       5       0.120382        33.69415
2015    6       6       0.07564314      23.27912
2015    6       7       0.07876926      23.81667
2015    7       0       0.1219192       33.98294
2015    7       1       0.1543904       41.12332
2015    7       2       0.2055203       51.56544
2015    7       3       0.2454861       59.78921
2015    7       4       0.2816947       66.61821
2015    7       5       0.3120787       72.35431
2015    7       6       0.3330381       76.57292
2015    7       7       0.35477         80.89746
2015    8       0       0.2467657       60.47315
2015    8       1       0.1642108       43.45885
2015    8       2       0.1230094       34.22966
2015    8       3       0.1364731       37.2491
2015    8       4       0.165495        43.68281
2015    8       5       0.2098051       53.20189
2015    8       6       0.2295884       57.35587
2015    8       7       0.2766346       66.89404
2015    9       0       0.2784378       67.61746
2015    9       1       0.2566747       63.47645
2015    9       2       0.2333125       58.87665
2015    9       3       0.218937        56.03342
2015    9       4       0.2015327       52.40511
2015    9       5       0.1885729       49.62308
2015    9       6       0.2015775       52.39351
2015    9       7       0.2672723       66.06108
2015    10      0       0.3540849       82.95599
2015    10      1       0.3947301       90.41703
2015    10      2       0.402036        91.80622
2015    10      3       0.3766732       87.38947
2015    10      4       0.3454063       81.69871
2015    10      5       0.3127338       75.57483
2015    10      6       0.2717557       67.47248
2015    10      7       0.2069408       53.77497
2015    11      0       0.1297685       36.32115
2015    11      1       0.1058556       30.58496
2015    11      2       0.1203572       33.83361
2015    11      3       0.1409135       38.44368
2015    11      4       0.1414321       38.69086
2015    11      5       0.1469512       39.89664
2015    11      6       0.1495914       40.38928
2015    11      7       0.1797617       46.73554
2015    12      0       0.2234009       55.84498
2015    12      1       0.2140183       54.25937
2015    12      2       0.1679103       44.60628
2015    12      3       0.1109405       31.94632
2015    12      4       0.08446176      25.7391
2015    12      5       0.08285816      25.35508
2015    12      6       0.09176927      27.48716
2015    12      7       0.1030853       30.12604
2015    13      0       0.1147835       32.95109
2015    13      1       0.09412786      27.90941
2015    13      2       0.09811476      28.58242
2015    13      3       0.1063458       30.40792
2015    13      4       0.1000414       29.00128
2015    13      5       0.09137951      27.09333
2015    13      6       0.08869008      26.53177
2015    13      7       0.08088958      24.66632
2015    14      0       0.08175948      24.95898
2015    14      1       0.07594896      23.49195
2015    14      2       0.08002567      24.45108
2015    14      3       0.0838273       25.34247
2015    14      4       0.08156538      24.77725
2015    14      5       0.08535213      25.70196
2015    14      6       0.08544856      25.76443
2015    14      7       0.09908646      29.14076
2015    15      0       0.2015026       52.82301
2015    15      1       0.2263563       57.9177
2015    15      2       0.1877676       49.46408
2015    15      3       0.1888131       49.47141
2015    15      4       0.214345        54.94409
2015    15      5       0.2323582       58.62592
2015    15      6       0.2816228       68.34283
2015    15      7       0.3451524       80.42465
2015    16      0       0.4558775       99.16446
2015    16      1       0.5810846       118.8875
2015    16      2       0.4797899       104.0843
2015    16      3       0.4314273       95.97164
2015    16      4       0.4349271       95.95088
2015    16      5       0.1049855       30.02636
2015    16      6       0.04229328      15.08854
2015    16      7       0.05147572      17.47067
2015    17      0       0.05232822      17.7289
2015    17      1       0.04905298      16.91161
2015    17      2       0.04767995      16.56646
2015    17      3       0.04809754      16.6684
2015    17      4       0.04703758      16.38703
2015    17      5       0.04522524      15.92373
2015    17      6       0.04336608      15.4445
2015    17      7       0.04084147      14.78778
2015    18      0       0.04085035      14.75941
2015    18      1       0.04215994      15.0561
2015    18      2       0.05333283      17.79294
2015    18      3       0.0702709       21.89997
2015    18      4       0.08251388      24.84455
2015    18      5       0.09738497      28.47172
2015    18      6       0.1002191       29.18532
2015    18      7       0.09578934      28.23462
2015    19      0       0.1085458       31.45868
2015    19      1       0.1503714       41.35282
2015    19      2       0.1869473       49.56836
2015    19      3       0.2004937       52.50754
2015    19      4       0.2009972       52.56364
2015    19      5       0.1992325       52.23615
2015    19      6       0.169566        45.70722
2015    19      7       0.1423307       39.41734
2015    20      0       0.1641609       44.22312
2015    20      1       0.1775502       47.13312
2015    20      2       0.1847101       48.81365
2015    20      3       0.1961844       51.35377
2015    20      4       0.1884119       49.62042
2015    20      5       0.1803502       47.85249
2015    20      6       0.1584391       43.0214
2015    20      7       0.1550837       42.26415
2015    21      0       0.1689109       45.42265
2015    21      1       0.2005123       52.28287
2015    21      2       0.2429535       61.11563
2015    21      3       0.2528165       62.99694
2015    21      4       0.2748856       67.28193
2015    21      5       0.3051675       73.22471
2015    21      6       0.2924669       70.62817
2015    21      7       0.2720069       66.49727
2015    22      0       0.2970375       71.62922
2015    22      1       0.2946226       71.16334
2015    22      2       0.3013568       72.49721
2015    22      3       0.3049028       73.2328
2015    22      4       0.2904937       70.32821
2015    22      5       0.2662494       65.50204
2015    22      6       0.2661042       65.49973
2015    22      7       0.3117423       74.59655
2015    23      0       0.376983        86.79526
2015    23      1       0.4289052       96.01368
2015    23      2       0.4265289       95.75527
2015    23      3       0.4105988       93.0106
2015    23      4       0.4037834       91.7687
2015    23      5       0.4093078       92.74444
2015    23      6       0.3813749       87.89243
2015    23      7       0.3724869       86.51421
2015    24      0       0.3968157       91.1503
2015    24      1       0.4018791       92.13927
2015    24      2       0.3866389       89.46863
2015    24      3       0.3726669       86.83972
2015    24      4       0.5195877       112.2323
2015    24      5       0.3554176       83.57504
2015    24      6       0.3280247       78.40747
2015    24      7       0.3792849       88.2463
2015    25      0       0.3030898       73.80162
2015    25      1       0.2923438       71.81388
2015    25      2       0.3423571       81.21962
2015    25      3       0.4287971       96.27602
2015    25      4       0.4496243       99.40621
2015    25      5       0.4890398       105.4651
2015    25      6       0.4480043       98.97519
2015    25      7       0.452415        99.77411
2015    26      0       0.4445804       98.37397
2015    26      1       0.4038651       91.54189
2015    26      2       0.4166158       93.63615
2015    26      3       0.3749826       86.63709
2015    26      4       0.3574105       83.33879
2015    26      5       0.3179611       75.81657
2015    26      6       0.2844582       68.61616
2015    26      7       0.3224365       75.83005
2015    27      0       0.3906803       88.73725
2015    27      1       0.4217591       93.84575
2015    27      2       0.4802664       103.4607
2015    27      3       0.376289        86.30112
2015    27      4       0.3366298       78.96518
2015    27      5       0.4209998       93.92557
2015    27      6       0.6559203       130.0644
2015    27      7       0.8976769       157.5584
2015    28      0       0.8827992       157.7641
2015    28      1       0.4796995       105.1326
2015    28      2       0.396708        91.0994
2015    28      3       0.345351        81.6316
2015    28      4       0.3062193       73.62429
2015    28      5       0.1733673       45.76357
2015    28      6       0.1135162       32.05045
2015    28      7       0.1189421       33.27028
2015    29      0       0.1510946       40.37774
2015    29      1       0.1487783       39.96625
2015    29      2       0.1305153       36.0064
2015    29      3       0.1287165       35.5499
2015    29      4       0.1376387       37.63914
2015    29      5       0.1508302       40.77707
2015    29      6       0.1857939       48.41329
2015    29      7       0.2021477       51.91596
2015    30      0       0.2042854       52.51738
2015    30      1       0.2198641       55.90267
2015    30      2       0.2285219       57.74838
2015    30      3       0.269787        66.07359
2015    30      4       0.3371699       79.29791
2015    30      5       0.4464627       98.66014
2015    30      6       0.5381333       113.5585
2015    30      7       0.5274328       111.963
2015    31      0       0.6143775       125.0146
2015    31      1       0.666287        131.4602
2015    31      2       0.4518795       99.63572
2015    31      3       0.3692023       84.59714
2015    31      4       0.3370796       78.93411
2015    31      5       0.4399706       95.80488
2015    31      6       0.4674968       100.6271
2015    31      7       0.6865236       134.4622
2016    1       0       0.2023108       51.67463
2016    1       1       0.2666417       65.18473
2016    1       2       0.4180493       93.70779
2016    1       3       0.6026567       123.2632
2016    1       4       0.6109167       124.7224
2016    1       5       0.4938049       107.1434
2016    1       6       0.4136029       93.71402
2016    1       7       0.5098755       109.7462
2016    2       0       0.5120622       110.1587
2016    2       1       0.4283677       96.5042
2016    2       2       0.3988115       91.44287
2016    2       3       0.3794204       87.96944
2016    2       4       0.4102377       93.36951
2016    2       5       0.4929102       107.5136
2016    2       6       0.4902737       107.2098
2016    2       7       0.4164158       95.38056
2016    3       0       0.3920732       91.81257
2016    3       1       0.4301662       98.67629
2016    3       2       0.5139762       112.3446
2016    3       3       0.5634798       119.7016
2016    3       4       0.472485        105.1949
2016    3       5       0.3572122       85.05383
2016    3       6       0.2637978       66.88717
2016    3       7       0.2543932       65.20217
2016    4       0       0.3770036       88.74135
2016    4       1       0.6787938       135.3473
2016    4       2       0.7260762       141.1742
2016    4       3       0.4949698       107.3436
2016    4       4       0.689155        134.2066
2016    4       5       0.5884547       121.0117
2016    4       6       0.4747139       102.9698
2016    4       7       0.1994926       51.69647
2016    5       0       0.2109686       54.36508
2016    5       1       0.3090302       72.63819
2016    5       2       0.3098631       72.87549
2016    5       3       0.2282776       57.40855
2016    5       4       0.1834278       48.10414
2016    5       5       0.1805099       47.32941
2016    5       6       0.1982076       50.8753
2016    5       7       0.151898        40.85511
2016    6       0       0.2046417       52.06748
2016    6       1       0.24487         60.35106
2016    6       2       0.2558545       62.71252
2016    6       3       0.2870236       68.81319
2016    6       4       0.3416882       78.96948
2016    6       5       0.3341801       77.84226
2016    6       6       0.3705528       84.14792
2016    6       7       0.4039004       90.85422
2016    7       0       0.4483865       99.27213
2016    7       1       0.459753        101.2584
2016    7       2       0.5217208       111.7768
2016    7       3       0.9292798       165.7234
2016    7       4       0.6837861       135.3797
2016    7       5       0.5976153       123.4987
2016    7       6       0.538244        114.5246
2016    7       7       0.5443257       115.3491
2016    8       0       0.6022469       123.7336
2016    8       1       0.8683418       157.3816
2016    8       2       0.5271274       110.2275
2016    8       3       0.1644725       44.3735
2016    8       4       0.1410064       38.86245
2016    8       5       0.4232253       93.66645
2016    8       6       0.5931185       119.1614
2016    8       7       0.5811105       117.04
2016    9       0       0.4456432       96.07886
2016    9       1       0.3135984       73.75126
2016    9       2       0.2805442       67.4306
2016    9       3       0.2038657       51.84859
2016    9       4       0.2066559       52.24002
2016    9       5       0.1983876       50.56451
2016    9       6       0.3385491       77.69154
2016    9       7       0.4430285       95.47291
2016    10      0       0.3939782       87.41787
2016    10      1       0.2707936       65.07278
2016    10      2       0.2220716       55.46804
2016    10      3       0.1603018       42.56523
2016    10      4       0.1272049       35.21205
2016    10      5       0.159222        42.28565
2016    10      6       0.2224959       55.45213
2016    10      7       0.2628905       63.50672
2016    11      0       0.3082623       72.11412
2016    11      1       0.2957217       69.71591
2016    11      2       0.2788906       66.56814
2016    11      3       0.2709627       65.1081
2016    11      4       0.2581815       62.63691
2016    11      5       0.1767277       46.05979
2016    11      6       0.1873828       48.49107
2016    11      7       0.2792359       67.08279
2016    12      0       0.2598724       63.29341
2016    12      1       0.1752329       45.7372
2016    12      2       0.1353847       36.96384
2016    12      3       0.1286023       35.38701
2016    12      4       0.1293103       35.53226
2016    12      5       0.1274107       35.00625
2016    12      6       0.1243364       34.31665
2016    12      7       0.1607884       42.4772
2016    13      0       0.1639889       43.38232
2016    13      1       0.1644621       43.78496
2016    13      2       0.1577217       42.27688
2016    13      3       0.1456289       39.25652
2016    13      4       0.1542952       40.92869
2016    13      5       0.1639273       42.94841
2016    13      6       0.1764617       45.79996
2016    13      7       0.2060522       52.31676
2016    14      0       0.2082488       53.11205
2016    14      1       0.2005138       51.6521
2016    14      2       0.1944285       50.35228
2016    14      3       0.1910697       49.61291
2016    14      4       0.1975394       51.00321
2016    14      5       0.206853        52.99932
2016    14      6       0.1978367       51.05218
2016    14      7       0.2055214       52.82678
2016    15      0       0.1994233       51.70847
2016    15      1       0.1881727       49.40435
2016    15      2       0.1931482       50.51618
2016    15      3       0.1985841       51.75573
2016    15      4       0.1947182       51.0241
2016    15      5       0.1831001       48.57465
2016    15      6       0.1748766       46.77345
2016    15      7       0.1870983       49.4772
2016    16      0       0.1927882       50.88215
2016    16      1       0.1791298       47.90183
2016    16      2       0.180006        48.09336
2016    16      3       0.1823598       48.66758
2016    16      4       0.1803973       48.24868
2016    16      5       0.191424        50.62814
2016    16      6       0.2234789       57.35187
2016    16      7       0.2697242       66.96314
2016    17      0       0.5237996       111.0822
2016    17      1       0.5262104       111.6724
2016    17      2       0.5813456       118.4323
2016    17      3       0.3054159       73.39545
2016    17      4       0.2525649       63.29458
2016    17      5       0.2297303       58.50139
2016    17      6       0.2743793       67.20709
2016    17      7       0.3870964       88.64742
2016    18      0       0.5864603       121.0352
2016    18      1       0.6113204       124.2773
2016    18      2       0.5446111       114.3606
2016    18      3       0.5910124       121.4434
2016    18      4       0.7486154       141.7399
2016    18      5       0.3098995       74.14091
2016    18      6       0.2460045       61.17454
2016    18      7       0.350645        81.30771
2016    19      0       0.441419        96.88555
2016    19      1       0.494796        105.3305
2016    19      2       0.5914553       119.6027
2016    19      3       0.5055317       106.8869
2016    19      4       0.5271861       110.6173
2016    19      5       0.7367268       139.7101
2016    19      6       0.655011        128.1961
2016    19      7       0.7027771       134.7592
2016    20      0       0.7551507       142.2343
2016    20      1       0.7909645       146.0294
2016    20      2       0.7924264       148.2317
2016    20      3       0.7297343       139.5438
2016    20      4       0.8074962       148.4015
2016    20      5       0.8168425       149.8333
2016    20      6       0.8202155       149.7816
2016    20      7       0.5951678       122.1156
2016    21      0       0.3278593       78.46075
2016    21      1       0.2509347       63.43144
2016    21      2       0.2051592       53.28644
2016    21      3       0.226401        57.2951
2016    21      4       0.278707        67.93862
2016    21      5       0.3707412       85.54108
2016    21      6       0.5009174       108.0835
2016    21      7       0.5795783       119.9557
2016    22      0       0.5864687       121.6551
2016    22      1       0.6044095       124.615
2016    22      2       0.5519413       116.6845
2016    22      3       0.4268875       96.56195
2016    22      4       0.2706952       66.9844
2016    22      5       0.1680488       45.10908
2016    22      6       0.1309246       36.51997
2016    22      7       0.1367437       37.42033
2016    23      0       0.1263661       34.91221
2016    23      1       0.08401588      25.47606
2016    23      2       0.09832668      29.04631
2016    23      3       0.138963        38.55546
2016    23      4       0.1682884       45.0126
2016    23      5       0.1700184       45.22826
2016    23      6       0.1567237       42.35376
2016    23      7       0.1534529       41.78866
2016    24      0       0.1541333       42.06833
2016    24      1       0.1221232       34.63158
2016    24      2       0.08900567      26.68236
2016    24      3       0.08483868      25.70943
2016    24      4       0.1119848       32.38787
2016    24      5       0.1614753       43.99044
2016    24      6       0.2339137       59.80823
2016    24      7       0.400054        90.8923
2016    25      0       0.6064209       122.8952
2016    25      1       0.5963085       121.9911
2016    25      2       0.597048        122.8988
2016    25      3       0.5491131       116.1397
2016    25      4       0.3805506       88.44353
2016    25      5       0.2977609       72.63607
2016    25      6       0.47387         102.7326
2016    25      7       0.675726        132.4578
2016    26      0       0.3346498       79.50349
2016    26      1       0.32013         76.62009
2016    26      2       0.3173557       75.74475
2016    26      3       0.3501351       81.6942
2016    26      4       0.3870221       87.97094
2016    26      5       0.3261909       76.71135
2016    26      6       0.4554966       97.84093
2016    26      7       0.6344631       124.5946
2016    27      0       0.6261765       124.6277
2016    27      1       0.6263498       124.9467
2016    27      2       0.6975313       134.1875
2016    27      3       0.4727187       101.4702
2016    27      4       0.4441666       96.59798
2016    27      5       0.4654848       99.93916
2016    27      6       0.4422422       97.08129
2016    27      7       0.5189258       109.9563
2016    28      0       0.6074217       121.4973
2016    28      1       0.6186799       123.1337
2016    28      2       0.6078249       122.1537
2016    28      3       0.5518899       114.2449
2016    28      4       0.3514805       81.41096
2016    28      5       0.2672761       65.5142
2016    28      6       0.3320718       77.99496
2016    28      7       0.5194608       109.7889
2016    29      0       0.4971673       105.1132
2016    29      1       0.3446949       79.33651
2016    29      2       0.3615642       82.5301
2016    29      3       0.3368499       77.87713
2016    29      4       0.2961677       70.60666
2016    29      5       0.3835254       86.69517
2016    29      6       0.643355        126.4713
2016    29      7       0.5621406       115.0386
2016    30      0       0.5482189       113.5396
2016    30      1       0.3643773       83.52553
2016    30      2       0.3106884       73.65395
2016    30      3       0.2838146       68.40233
2016    30      4       0.2768949       66.8755
2016    30      5       0.2611998       63.77976
2016    30      6       0.2556149       62.76867
2016    30      7       0.2917682       70.14919
2016    31      0       0.3167643       75.2657
2016    31      1       0.2856904       69.24519
2016    31      2       0.2432063       60.69932
2016    31      3       0.2410246       59.9412
2016    31      4       0.2707197       65.54519
2016    31      5       0.294266        69.93747
2016    31      6       0.4708033       100.3541
2016    31      7       0.7168954       135.9542
2017    1       0       0.5945539       118.9489
2017    1       1       0.435037        94.69217
2017    1       2       0.3274204       75.82235
2017    1       3       0.275009        66.07056
2017    1       4       0.2285794       56.82505
2017    1       5       0.183953        47.60059
2017    1       6       0.4449691       95.67808
2017    1       7       0.5024069       104.7256
2017    2       0       0.4910443       102.3205
2017    2       1       0.4317926       92.41801
2017    2       2       0.3742302       83.07365
2017    2       3       0.2781483       65.90536
2017    2       4       0.267892        64.0624
2017    2       5       0.2420593       59.16876
2017    2       6       0.2125826       53.39953
2017    2       7       0.2745493       66.22575
2017    3       0       0.228416        57.44931
2017    3       1       0.2393931       59.47588
2017    3       2       0.3106913       72.87553
2017    3       3       0.3574162       81.08291
2017    3       4       0.4128497       91.73732
2017    3       5       0.5584328       116.17
2017    3       6       0.4684599       103.0367
2017    3       7       0.3621911       84.77229
2017    4       0       0.2244369       57.29946
2017    4       1       0.2139357       54.76697
2017    4       2       0.131028        35.88002
2017    4       3       0.2063952       52.38881
2017    4       4       0.2193008       55.23305
2017    4       5       0.3385348       78.78634
2017    4       6       0.5402983       112.488
2017    4       7       0.4841629       104.2341
2017    5       0       0.4535952       99.44512
2017    5       1       0.361831        83.84678
2017    5       2       0.3778058       87.44172
2017    5       3       0.3222271       77.14288
2017    5       4       0.2957457       71.5183
2017    5       5       0.4269188       93.90673
2017    5       6       0.563497        116.8589
2017    5       7       0.4584295       101.3253
2017    6       0       0.5152889       109.9569
2017    6       1       0.6033066       124.1413
2017    6       2       0.6075358       124.1781
2017    6       3       0.504968        108.1721
2017    6       4       0.3259941       77.35635
2017    6       5       0.3179747       75.26183
2017    6       6       0.3154276       74.18891
2017    6       7       0.4218434       92.71691
2017    7       0       0.3409973       78.48744
2017    7       1       0.2360417       58.24719
2017    7       2       0.1670615       43.74546
2017    7       3       0.1173122       33.1348
2017    7       4       0.2305835       57.6045
2017    7       5       0.2362991       58.39238
2017    7       6       0.4466816       96.48321
2017    7       7       0.4996277       104.1367
2017    8       0       0.4487411       97.00038
2017    8       1       0.2851353       68.33901
2017    8       2       0.1942584       50.20192
2017    8       3       0.141535        38.61329
2017    8       4       0.1792031       46.59538
2017    8       5       0.2797169       67.4447
2017    8       6       0.3526507       81.00101
2017    8       7       0.6347361       125.5653
2017    9       0       0.3775886       85.04537
2017    9       1       0.3466488       79.98504
2017    9       2       0.1875292       48.74813
2017    9       3       0.133956        37.11291
2017    9       4       0.1403196       38.38916
2017    9       5       0.1532154       41.19134
2017    9       6       0.2142436       54.253
2017    9       7       0.3153329       74.17271
2017    10      0       0.3062173       72.50439
2017    10      1       0.2932272       69.84533
2017    10      2       0.405943        90.23222
2017    10      3       0.5350112       110.6804
2017    10      4       0.4464061       96.45719
2017    10      5       0.427737        94.07604
2017    10      6       0.4108356       91.41134
2017    10      7       0.600824        121.1105
2017    11      0       0.6180028       124.0912
2017    11      1       0.4961579       105.955
2017    11      2       0.314985        74.94927
2017    11      3       0.2981137       71.64142
2017    11      4       0.3238176       76.33582
2017    11      5       0.3793169       86.28689
2017    11      6       0.5760862       117.461
2017    11      7       0.688037        132.5466
2017    12      0       0.7865822       146.2098
2017    12      1       0.8082475       149.715
2017    12      2       0.7308201       140.2592
2017    12      3       0.7993914       149.4387
2017    12      4       0.6156705       125.908
2017    12      5       0.5729717       118.8323
2017    12      6       0.8651761       156.398
2017    12      7       0.8419994       153.9611
2017    13      0       0.690574        134.7624
2017    13      1       0.6649394       129.7583
2017    13      2       0.5349363       110.8574
2017    13      3       0.6750116       130.911
2017    13      4       0.6398668       126.1218
2017    13      5       0.6390849       125.6701
2017    13      6       0.6151583       123.0555
2017    13      7       0.6909303       134.2808
2017    14      0       0.4789051       102.9511
2017    14      1       0.4265712       94.25884
2017    14      2       0.3302935       77.08233
2017    14      3       0.2513544       61.97276
2017    14      4       0.2324698       58.07649
2017    14      5       0.2412436       59.70166
2017    14      6       0.3351174       78.11049
2017    14      7       0.4635829       100.6821
2017    15      0       0.4831966       103.6158
2017    15      1       0.4483171       97.65564
2017    15      2       0.3867178       86.89868
2017    15      3       0.3523744       80.85457
2017    15      4       0.3638778       82.78047
2017    15      5       0.335433        77.46816
2017    15      6       0.4120858       90.6844
2017    15      7       0.5915377       118.0531
2017    16      0       0.5236951       108.5131
2017    16      1       0.4233969       92.64053
2017    16      2       0.3420835       78.73287
2017    16      3       0.3061651       72.22378
2017    16      4       0.2802629       67.28753
2017    16      5       0.3308231       76.95619
2017    16      6       0.4541974       98.54944
2017    16      7       0.469772        100.8423
2017    17      0       0.3805869       85.92547
2017    17      1       0.2662167       64.58292
2017    17      2       0.2402141       59.34304
2017    17      3       0.1894465       48.88867
2017    17      4       0.157905        42.06568
2017    17      5       0.2339731       58.08598
2017    17      6       0.2873271       68.68041
2017    17      7       0.2601615       63.35821
2017    18      0       0.453528        97.15929
2017    18      1       0.4721376       100.3315
2017    18      2       0.492705        103.7384
2017    18      3       0.3745554       85.34078
2017    18      4       0.2508976       62.28725
2017    18      5       0.1850204       48.27356
2017    18      6       0.2608481       63.74535
2017    18      7       0.4116235       91.103
2017    19      0       0.5040081       106.4248
2017    19      1       0.4237896       93.93229
2017    19      2       0.3419523       79.39593
2017    19      3       0.3201639       75.08429
2017    19      4       0.2979016       70.81666
2017    19      5       0.2415187       59.79424
2017    19      6       0.3085954       72.95689
2017    19      7       0.398138        89.43263
2017    20      0       0.4232505       93.72381
2017    20      1       0.3059236       73.26253
2017    20      2       0.2396562       60.14562
2017    20      3       0.2178021       55.55191
2017    20      4       0.2179546       55.55889
2017    20      5       0.2432527       60.67442
2017    20      6       0.2960415       71.02579
2017    20      7       0.3755562       85.90283
2017    21      0       0.3303132       77.96438
2017    21      1       0.3643658       84.19229
2017    21      2       0.3665422       84.67918
2017    21      3       0.3363051       79.29082
2017    21      4       0.3539522       82.52078
2017    21      5       0.3871601       88.26583
2017    21      6       0.4098036       92.1956
2017    21      7       0.4280364       95.7212
2017    22      0       0.5768094       120.1786
2017    22      1       0.5524488       117.0233
2017    22      2       0.5740058       119.9938
2017    22      3       0.5206064       111.1615
2017    22      4       0.6138052       124.7218
2017    22      5       0.5944081       122.3325
2017    22      6       0.6254592       126.9364
2017    22      7       0.6407573       129.3038
2017    23      0       0.9915032       170.166
2017    23      1       0.6835423       134.7157
2017    23      2       0.6360088       127.9259
2017    23      3       0.5029335       108.7432
2017    23      4       0.5469915       114.7193
2017    23      5       0.4520853       100.1436
2017    23      6       0.4140251       93.74559
2017    23      7       0.747636        142.9983
2017    24      0       0.8918132       158.6764
2017    24      1       0.6138999       126.0164
2017    24      2       0.811088        152.3812
2017    24      3       0.6258046       127.1438
2017    24      4       0.4420558       97.53203
2017    24      5       0.3322353       78.52823
2017    24      6       0.2394402       60.44897
2017    24      7       0.3969212       90.32125
2017    25      0       0.5679938       116.8097
2017    25      1       0.4820527       103.5478
2017    25      2       0.4358186       95.60317
2017    25      3       0.4199048       92.73915
2017    25      4       0.3435062       79.57903
2017    25      5       0.3752553       85.63723
2017    25      6       0.6695574       130.1647
2017    25      7       0.7637604       142.4307
2017    26      0       0.6702531       131.5392
2017    26      1       0.4621641       100.8818
2017    26      2       0.4114882       92.733
2017    26      3       0.4106733       93.01335
2017    26      4       0.3933056       89.90002
2017    26      5       0.4473896       99.15753
2017    26      6       0.4903004       106.6687
2017    26      7       0.471646        104.0322
2017    27      0       0.492818        107.962
2017    27      1       0.4312959       97.92183
2017    27      2       0.4687435       104.0578
2017    27      3       0.5696382       119.8794
2017    27      4       0.5809992       121.5242
2017    27      5       0.4524607       100.6873
2017    27      6       0.3426496       81.03651
2017    27      7       0.2885139       70.66002
2017    28      0       0.2784085       68.45826
2017    28      1       0.2411618       60.76817
2017    28      2       0.1984993       51.83533
2017    28      3       0.2987171       72.63912
2017    28      4       0.3690317       85.8439
2017    28      5       0.3536067       82.82831
2017    28      6       0.3680164       85.64007
2017    28      7       0.3780768       87.73159
2017    29      0       0.3507761       82.86968
2017    29      1       0.3142593       76.05343
2017    29      2       0.3346656       79.8442
2017    29      3       0.3788833       88.03202
2017    29      4       0.3392426       80.99663
2017    29      5       0.3017952       74.07868
2017    29      6       0.3148819       76.57804
2017    29      7       0.3966926       91.77714
2017    30      0       0.5655359       119.5282
2017    30      1       0.6329526       128.7182
2017    30      2       0.5866053       122.2421
2017    30      3       0.5414198       115.5544
2017    30      4       0.4883513       106.8959
2017    30      5       0.4436726       99.59461
2017    30      6       0.4040983       93.32993
2017    30      7       0.4286737       96.42471
2017    31      0       0.4134604       92.57031
2017    31      1       0.4001388       90.67487
2017    31      2       0.6022477       124.5664
2017    31      3       0.7585302       145.4318
2017    31      4       0.7813323       148.4465
2017    31      5       0.7691026       147.0996
2017    31      6       0.8026293       150.8077
2017    31      7       0.9250733       163.4819
2018    1       0       0.3000665       70.82762
2018    1       1       0.5964463       118.8881
2018    1       2       0.4825531       102.2049
2018    1       3       0.2840383       67.70214
2018    1       4       0.2101545       53.05006
2018    1       5       0.296691        69.75714
2018    1       6       0.3404169       78.02936
2018    1       7       0.3705366       83.62323
2018    2       0       0.2999871       71.07218
2018    2       1       0.3215625       75.11185
2018    2       2       0.4570505       98.03576
2018    2       3       0.4147879       91.82486
2018    2       4       0.3636025       83.37784
2018    2       5       0.3253228       76.48267
2018    2       6       0.2860747       69.02663
2018    2       7       0.2945356       69.90649
2018    3       0       0.4399146       95.84372
2018    3       1       0.2039155       52.53497
2018    3       2       0.2162218       54.73776
2018    3       3       0.2094733       53.26489
2018    3       4       0.1980279       50.84261
2018    3       5       0.2275563       56.88126
2018    3       6       0.3420898       78.52336
2018    3       7       0.4379159       95.60413
2018    4       0       0.5248318       110.2116
2018    4       1       0.4708765       101.2773
2018    4       2       0.5316186       110.4785
2018    4       3       0.5555526       113.8177
2018    4       4       0.3361439       78.47793
2018    4       5       0.2233937       56.5926
2018    4       6       0.2884075       69.29175
2018    4       7       0.3909228       88.09132
2018    5       0       0.4028908       90.68424
2018    5       1       0.421271        94.02372
2018    5       2       0.3923135       89.08477
2018    5       3       0.3377833       79.17346
2018    5       4       0.2990453       71.99126
2018    5       5       0.2814931       68.70039
2018    5       6       0.2697386       66.4378
2018    5       7       0.2476385       61.93997
2018    6       0       0.2475868       62.05467
2018    6       1       0.2366444       59.96708
2018    6       2       0.2237773       57.37907
2018    6       3       0.2022564       52.81337
2018    6       4       0.1701697       45.75433
2018    6       5       0.1480538       40.71579
2018    6       6       0.1618459       43.83332
2018    6       7       0.1701224       45.80916
2018    7       0       0.1898934       50.37631
2018    7       1       0.2832021       70.07426
2018    7       2       0.3184481       76.79256
2018    7       3       0.326899        78.17058
2018    7       4       0.3058846       73.92373
2018    7       5       0.3415056       80.33731
2018    7       6       0.3862173       88.30699
2018    7       7       0.5409817       112.5992
2018    8       0       0.5494988       113.5913
2018    8       1       0.7936895       146.9335
2018    8       2       0.5159517       110.1951
2018    8       3       0.2780495       68.42145
2018    8       4       0.2902226       71.13962
2018    8       5       0.2771314       68.04428
2018    8       6       0.2424421       61.18539
2018    8       7       0.228274        58.33739
2018    9       0       0.2147155       55.57321
2018    9       1       0.1988387       52.27378
2018    9       2       0.247186        62.56065
2018    9       3       0.27723         68.40256
2018    9       4       0.2974781       71.98688
2018    9       5       0.2876807       70.11346
2018    9       6       0.3070438       73.87069
2018    9       7       0.3349917       79.15942
2018    10      0       0.3484485       81.80798
2018    10      1       0.396601        90.61903
2018    10      2       0.3525409       82.85013
2018    10      3       0.331866        79.06949
2018    10      4       0.3150253       75.66588
2018    10      5       0.3396513       80.15846
2018    10      6       0.3452868       81.16671
2018    10      7       0.3256148       77.51368
2018    11      0       0.3965922       90.46524
2018    11      1       0.2923388       71.18102
2018    11      2       0.2874503       70.28012
2018    11      3       0.296591        72.03457
2018    11      4       0.3041974       73.40948
2018    11      5       0.3202348       76.40788
2018    11      6       0.3458275       81.47188
2018    11      7       0.4942695       107.3986
2018    12      0       0.4783223       105.5255
2018    12      1       0.4965544       108.3832
2018    12      2       0.3954692       91.35573
2018    12      3       0.4209666       95.35444
2018    12      4       0.5517471       115.983
2018    12      5       0.4741723       103.8832
2018    12      6       0.4443982       98.95396
2018    12      7       0.5795334       120.3182
2018    13      0       0.6120411       125.5333
2018    13      1       0.4444226       99.63972
2018    13      2       0.3371426       80.13999
2018    13      3       0.2695025       66.73721
2018    13      4       0.2874352       69.60648
2018    13      5       0.3081968       73.42741
2018    13      6       0.3066277       73.16387
2018    13      7       0.3061299       73.30119
2018    14      0       0.3379975       79.40195
2018    14      1       0.4057867       91.74943
2018    14      2       0.5413507       113.7493
2018    14      3       0.7019563       136.75
2018    14      4       0.4976694       107.8111
2018    14      5       0.3613262       84.46686
2018    14      6       0.2652996       65.69128
2018    14      7       0.3858116       88.9177
2018    15      0       0.4803822       105.233
2018    15      1       0.4916747       107.2352
2018    15      2       0.4281776       96.76289
2018    15      3       0.3475861       82.25621
2018    15      4       0.3761379       87.10199
2018    15      5       0.3765668       86.96327
2018    15      6       0.3382882       79.82059
2018    15      7       0.3495483       81.87381
2018    16      0       0.4002338       91.23447
2018    16      1       0.4488073       99.71605
2018    16      2       0.4996482       108.0615
2018    16      3       0.4714478       103.5963
2018    16      4       0.5094447       108.9345
2018    16      5       0.4961072       106.5695
2018    16      6       0.4813416       104.0388
2018    16      7       0.5131643       108.9843
2018    17      0       0.4909593       105.7949
2018    17      1       0.4254376       95.15834
2018    17      2       0.3600478       83.59801
2018    17      3       0.3291762       77.74135
2018    17      4       0.2933234       70.81696
2018    17      5       0.2599328       64.29075
2018    17      6       0.3465661       81.04032
2018    17      7       0.3059951       73.5847
2018    18      0       0.2518568       62.97347
2018    18      1       0.1958338       51.32594
2018    18      2       0.1841865       48.75447
2018    18      3       0.1512892       41.23867
2018    18      4       0.1356552       37.39372
2018    18      5       0.1524871       41.18342
2018    18      6       0.2143194       54.93044
2018    18      7       0.2253748       57.28557
2018    19      0       0.2828815       69.1673
2018    19      1       0.2675842       66.02705
2018    19      2       0.2386094       59.96616
2018    19      3       0.2000944       51.71755
2018    19      4       0.1911225       49.63544
2018    19      5       0.1846954       48.26468
2018    19      6       0.1561377       42.02016
2018    19      7       0.1379716       37.85783
2018    20      0       0.1455133       39.65311
2018    20      1       0.145967        39.84207
2018    20      2       0.1526695       41.72001
2018    20      3       0.2323125       59.82348
2018    20      4       0.3152041       76.62885
2018    20      5       0.3594469       85.1381
2018    20      6       0.3382822       81.6997
2018    20      7       0.4856433       107.2021
2018    21      0       0.5754903       120.5581
2018    21      1       0.5258832       112.7975
2018    21      2       0.6604723       131.7721
2018    21      3       0.5709635       119.6513
2018    21      4       0.5136537       111.2873
2018    21      5       0.4820672       106.0985
2018    21      6       0.4017501       92.39027
2018    21      7       0.3073767       74.90943
2018    22      0       0.2730565       68.33332
2018    22      1       0.284724        70.75317
2018    22      2       0.2874414       71.06923
2018    22      3       0.4746169       104.8905
2018    22      4       0.5130317       111.1763
2018    22      5       0.4613093       102.9885
2018    22      6       0.6208043       127.519
2018    22      7       0.6511676       132.0415
2018    23      0       0.6877396       137.5652
2018    23      1       0.6766832       136.3984
2018    23      2       0.6871584       137.7917
2018    23      3       0.7007196       139.6859
2018    23      4       0.7047946       140.2837
2018    23      5       0.6582465       134.038
2018    23      6       0.6013528       125.7906
2018    23      7       0.5495093       118.0345
2018    24      0       0.5839948       123.5971
2018    24      1       0.5945856       125.1539
2018    24      2       0.531457        115.5681
2018    24      3       0.5349572       116.108
2018    24      4       0.5290503       115.1361
2018    24      5       0.5798071       122.3972
2018    24      6       0.6327024       129.3127
2018    24      7       0.7652727       146.5813
2018    25      0       0.5209764       111.5235
2018    25      1       0.3377438       80.02214
2018    25      2       0.5307186       113.0585
2018    25      3       0.6096677       124.9701
2018    25      4       0.5920833       120.517
2018    25      5       0.2544337       63.93229
2018    25      6       0.1240876       35.29011
2018    25      7       0.1894194       49.80756
2018    26      0       0.2609535       64.82731
2018    26      1       0.4635235       100.4871
2018    26      2       0.6120602       122.7575
2018    26      3       0.3077891       73.47024
2018    26      4       0.1851776       48.4024
2018    26      5       0.1530297       41.43206
2018    26      6       0.2370008       59.35641
2018    26      7       0.2833711       68.57213
2018    27      0       0.3930873       88.0714
2018    27      1       0.4192062       92.8342
2018    27      2       0.301488        72.07984
2018    27      3       0.2915763       69.93848
2018    27      4       0.3382109       78.49871
2018    27      5       0.3496656       81.15531
2018    27      6       0.3951267       89.91716
2018    27      7       0.6173854       125.2824
2018    28      0       0.7439826       141.4648
2018    28      1       0.5549986       115.8699
2018    28      2       0.5497058       115.1559
2018    28      3       1.117322        182.2041
2018    28      4       0.9005381       161.028
2018    28      5       0.4595938       100.6939
2018    28      6       0.2139976       55.07846
2018    28      7       0.1918948       50.22092
2018    29      0       0.2173745       55.55693
2018    29      1       0.2289232       57.814
2018    29      2       0.1441565       39.4887
2018    29      3       0.1189568       33.7247
2018    29      4       0.1213426       34.1807
2018    29      5       0.1357906       37.39773
2018    29      6       0.2152258       54.82083
2018    29      7       0.3070275       73.09753
2018    30      0       0.3967993       88.8604
2018    30      1       0.3502491       80.54247
2018    30      2       0.2711701       65.6765
2018    30      3       0.2303551       57.49941
2018    30      4       0.243835        59.88324
2018    30      5       0.2733485       65.81577
2018    30      6       0.5692076       114.587
2018    30      7       0.5388645       110.9179
2018    31      0       0.4481724       97.61199
2018    31      1       0.3294315       77.31312
2018    31      2       0.3121662       74.12863
2018    31      3       0.3112846       73.83796
2018    31      4       0.302105        71.96383
2018    31      5       0.3171867       74.68167
2018    31      6       0.4915899       104.3766
2018    31      7       0.7816845       144.0569
