####################################################################################################
# Month: 07Jul                                                                                     #
# Station: ROB                                                                                     #
# Frequency: 345 GHz                                                                               #
# Columns are: year    day     segment         tau     Tb (K)                                      #
####################################################################################################
2009    1       0       1.434135        204.3782
2009    1       1       1.280658        193.4102
2009    1       2       1.044839        173.9695
2009    1       3       0.7041665       136.3077
2009    1       4       0.5468132       113.7076
2009    1       5       0.4169482       92.99606
2009    1       6       0.4637265       100.56
2009    1       7       0.6384556       125.2809
2009    2       0       0.7782056       142.9695
2009    2       1       1.02107         169.1888
2009    2       2       1.187643        184.2102
2009    2       3       1.362129        197.6903
2009    2       4       1.320131        196.6223
2009    2       5       1.260367        193.4188
2009    2       6       1.24622         192.386
2009    2       7       1.25422         192.7258
2009    3       0       1.290817        195.1654
2009    3       1       1.208002        188.9371
2009    3       2       1.098798        179.4941
2009    3       3       0.832746        153.6304
2009    3       4       0.9157541       162.05
2009    3       5       0.7739313       147.2704
2009    3       6       0.8008386       149.7384
2009    3       7       0.6109271       125.1541
2009    4       0       0.6120751       124.1673
2009    4       1       0.9428988       163.9181
2009    4       2       0.934811        163.8024
2009    4       3       0.9063304       160.8147
2009    4       4       1.098368        178.5052
2009    4       5       1.274332        192.4872
2009    4       6       1.072899        176.3255
2009    4       7       1.162703        184.5899
2009    5       0       1.152671        184.1838
2009    5       1       0.9153914       161.8605
2009    5       2       0.9015363       160.8772
2009    5       3       1.052165        175.2411
2009    5       4       1.080991        177.8388
2009    5       5       0.959482        166.8859
2009    5       6       1.041772        175.2018
2009    5       7       1.189233        187.439
2009    6       0       1.350793        199.2029
2009    6       1       1.416852        204.3357
2009    6       2       0.8026155       151.8755
2009    6       3       0.5221849       113.4937
2009    6       4       0.4445116       100.47
2009    6       5       0.2854934       71.10642
2009    6       6       0.2407199       62.3834
2009    6       7       0.2965456       73.25561
2009    7       0       0.2723778       68.3027
2009    7       1       0.2162831       57.09897
2009    7       2       0.165983        45.56193
2009    7       3       0.1830554       48.65682
2009    7       4       0.2404521       60.37611
2009    7       5       0.2831784       68.54884
2009    7       6       0.2963957       71.52332
2009    7       7       0.2881025       69.82658
2009    8       0       0.3441251       79.4454
2009    8       1       0.3856484       86.80675
2009    8       2       0.2363599       60.52661
2009    8       3       0.1870696       50.69064
2009    8       4       0.1974918       53.10362
2009    8       5       0.1826836       50.10296
2009    8       6       0.2126255       56.55928
2009    8       7       0.2397967       62.13315
2009    9       0       0.206824        55.18648
2009    9       1       0.2063688       55.14493
2009    9       2       0.2212063       58.42966
2009    9       3       0.2784704       70.22182
2009    9       4       0.3814135       89.56627
2009    9       5       0.5043567       110.178
2009    9       6       0.5525485       116.7136
2009    9       7       0.5444109       115.02
2009    10      0       0.7589292       141.7875
2009    10      1       1.07144         173.326
2009    10      2       0.8245695       150.7879
2009    10      3       0.6750842       133.3274
2009    10      4       0.5752541       120.014
2009    10      5       0.3759873       88.29099
2009    10      6       0.3068758       75.24085
2009    10      7       0.3902913       90.52815
2009    11      0       0.5439124       115.8334
2009    11      1       0.5227601       113.1796
2009    11      2       0.5963822       124.7284
2009    11      3       0.7470619       145.0763
2009    11      4       0.8973392       163.3996
2009    11      5       0.9041661       164.7697
2009    11      6       0.8204112       155.0202
2009    11      7       0.7481876       145.5614
2009    12      0       0.6750829       135.3924
2009    12      1       0.6623141       133.2702
2009    12      2       0.668699        133.619
2009    12      3       0.6485904       130.9246
2009    12      4       0.6876625       135.5805
2009    12      5       0.8254929       151.8732
2009    12      6       1.089301        177.7706
2009    12      7       1.466092        204.847
2009    13      0       1.29186         193.1647
2009    13      1       0.7650404       145.0477
2009    13      2       0.6325785       128.7825
2009    13      3       0.5573146       118.5603
2009    13      4       0.4820278       107.2334
2009    13      5       0.4562458       103.0266
2009    13      6       0.413797        96.04649
2009    13      7       0.3738433       89.48258
2009    14      0       0.3298181       81.35788
2009    14      1       0.3820549       89.7479
2009    14      2       0.6834829       134.5748
2009    14      3       1.001042        171.529
2009    14      4       1.134773        184.5575
2009    14      5       1.580737        213.5342
2009    14      6       1.792363        223.5194
2009    14      7       1.56461         212.2838
2009    15      0       1.485239        207.8293
2009    15      1       1.72044         220.2188
2009    15      2       1.787598        223.3655
2009    15      3       1.324398        197.8515
2009    15      4       1.125413        182.8382
2009    15      5       0.9987287       171.6712
2009    15      6       0.8456981       156.3379
2009    15      7       0.7257471       142.442
2009    16      0       0.6143173       127.4356
2009    16      1       0.4848242       107.6003
2009    16      2       0.4002023       93.31696
2009    16      3       0.3432089       83.0965
2009    16      4       0.381374        90.02194
2009    16      5       0.3856543       90.45474
2009    16      6       0.3879948       90.75241
2009    16      7       0.3843698       90.71585
2009    17      0       0.451654        102.6268
2009    17      1       0.4616604       104.2742
2009    17      2       0.5235771       114.2398
2009    17      3       0.5441322       116.7216
2009    17      4       0.552389        117.8063
2009    17      5       0.6522246       132.2914
2009    17      6       0.6272397       128.9057
2009    17      7       0.5428673       117.1912
2009    18      0       0.5015445       111.7215
2009    18      1       0.5340152       116.9272
2009    18      2       0.5479839       118.5365
2009    18      3       0.5339296       115.7473
2009    18      4       0.5577358       118.8671
2009    18      5       0.5988436       125.2217
2009    18      6       0.6515568       133.1608
2009    18      7       0.4866482       107.9713
2009    19      0       0.3513872       84.68587
2009    19      1       0.3471052       83.64886
2009    19      2       0.348352        83.41986
2009    19      3       0.2672098       67.2868
2009    19      4       0.2685965       66.67308
2009    19      5       0.4222354       93.22271
2009    19      6       0.6391235       125.2517
2009    19      7       0.6110535       121.3418
2009    20      0       0.6416827       125.6163
2009    20      1       0.9335332       160.2766
2009    20      2       1.049285        171.9827
2009    20      3       0.806945        147.3707
2009    20      4       1.0194          169.4875
2009    20      5       0.9753543       165.2225
2009    20      6       0.9367795       162.617
2009    20      7       1.065568        175.3023
2009    21      0       1.084303        176.625
2009    21      1       1.146775        181.2464
2009    21      2       1.260894        189.2038
2009    21      3       1.200114        184.1032
2009    21      4       1.197299        183.8905
2009    21      5       1.187654        183.1991
2009    21      6       1.363356        195.2052
2009    21      7       1.442032        201.2778
2009    22      0       1.165751        182.8366
2009    22      1       0.9793721       166.4891
2009    22      2       0.7839569       144.934
2009    22      3       0.6847659       132.5382
2009    22      4       0.5307507       110.8522
2009    22      5       0.5040296       107.0197
2009    22      6       0.4135286       92.71356
2009    22      7       0.3346298       79.08332
2009    23      0       0.1705598       46.10361
2009    23      1       0.1491147       41.13618
2009    23      2       0.1396511       39.2365
2009    23      3       0.1247115       36.36667
2009    23      4       0.1164729       34.31546
2009    23      5       0.1598594       43.53324
2009    23      6       0.2009258       52.1933
2009    23      7       0.2790412       67.98834
2009    24      0       0.2958352       71.97871
2009    24      1       0.297266        72.49716
2009    24      2       0.2743255       68.47392
2009    24      3       0.2481048       63.33354
2009    24      4       0.3084903       74.8844
2009    24      5       0.3933376       90.22682
2009    24      6       0.4497979       99.5581
2009    24      7       0.5075534       108.9018
2009    25      0       0.5105912       110.1313
2009    25      1       0.5059628       109.8435
2009    25      2       0.470559        104.6992
2009    25      3       0.4781107       105.5446
2009    25      4       0.569298        117.9384
2009    25      5       0.7096864       136.0352
2009    25      6       0.7668791       143.53
2009    25      7       0.8033665       148.2251
2009    26      0       0.5886417       122.3798
2009    26      1       0.4117217       95.13129
2009    26      2       0.3473057       83.37392
2009    26      3       0.3190021       77.34055
2009    26      4       0.2573347       64.57703
2009    26      5       0.2924546       71.05899
2009    26      6       0.3532125       82.52552
2009    26      7       0.3768053       87.03057
2009    27      0       0.493452        106.3863
2009    27      1       0.5953701       120.8502
2009    27      2       0.5515826       114.598
2009    27      3       0.5305324       111.0954
2009    27      4       0.5318576       111.1271
2009    27      5       0.532292        111.0137
2009    27      6       0.5191127       108.9709
2009    27      7       0.5299521       110.503
2009    28      0       0.5402461       111.7847
2009    28      1       0.5376839       111.5478
2009    28      2       0.5102502       108.4134
2009    28      3       0.4395474       98.28274
2009    28      4       0.398039        92.02667
2009    28      5       0.3691096       87.04939
2009    28      6       0.3443129       82.73707
2009    28      7       0.2996652       74.2811
2009    29      0       0.1854717       50.4467
2009    29      1       0.1552636       43.7569
2009    29      2       0.1645447       45.65408
2009    29      3       0.2009821       53.24812
2009    29      4       0.1958374       52.1442
2009    29      5       0.2379757       60.67993
2009    29      6       0.3819153       87.9501
2009    29      7       0.5530618       116.0062
2009    30      0       0.5591032       117.0193
2009    30      1       0.3979607       90.18953
2009    30      2       0.4977149       107.6788
2009    30      3       0.4404106       98.07466
2009    30      4       0.445427        98.93853
2009    30      5       0.5157755       109.8029
2009    30      6       0.5268892       112.3445
2009    30      7       0.5734171       119.2886
2009    31      0       0.5623883       117.0073
2009    31      1       0.6029504       121.9752
2009    31      2       0.8257713       149.6769
2009    31      3       0.9528895       164.5898
2009    31      4       0.7314564       141.6063
2009    31      5       0.9119081       161.456
2009    31      6       1.073322        177.0653
2009    31      7       1.005052        170.3566
2010    1       0       0.416513        96.0917
2010    1       1       0.3691532       88.35472
2010    1       2       0.3763625       89.83468
2010    1       3       0.3863953       91.31945
2010    1       4       0.3932174       92.56693
2010    1       5       0.4496727       102.2449
2010    1       6       0.5068502       111.2994
2010    1       7       0.5542813       117.9001
2010    2       0       0.5853678       122.2952
2010    2       1       0.5658208       119.5202
2010    2       2       0.5955131       123.5495
2010    2       3       0.6066274       124.7672
2010    2       4       0.5356512       114.2176
2010    2       5       0.5067896       109.7038
2010    2       6       0.552372        116.7429
2010    2       7       0.6232893       126.9612
2010    3       0       0.5756286       120.4435
2010    3       1       0.4867674       106.5869
2010    3       2       0.4315964       97.39217
2010    3       3       0.4319574       97.62699
2010    3       4       0.4365907       98.71466
2010    3       5       0.4135926       95.30456
2010    3       6       0.3549025       84.85394
2010    3       7       0.3369067       81.35718
2010    4       0       0.3466731       83.40853
2010    4       1       0.3745967       88.78721
2010    4       2       0.4292558       98.26896
2010    4       3       0.490435        108.1414
2010    4       4       0.4906023       107.9181
2010    4       5       0.4940761       108.2273
2010    4       6       0.8827494       158.8711
2010    4       7       1.183426        186.7135
2010    5       0       1.140514        183.2275
2010    5       1       1.044941        174.9545
2010    5       2       0.9258232       163.5096
2010    5       3       0.8358294       153.962
2010    5       4       0.6964965       137.1338
2010    5       5       0.6350115       129.0633
2010    5       6       0.5873642       120.3148
2010    5       7       0.6889414       132.3333
2010    6       0       0.8373919       149.3809
2010    6       1       0.8066532       146.0015
2010    6       2       0.8110436       146.8937
2010    6       3       1.162098        180.3302
2010    6       4       1.049232        172.5748
2010    6       5       1.481193        203.9337
2010    6       6       1.388732        198.1253
2010    6       7       1.253596        187.3545
2010    7       0       1.112559        176.3561
2010    7       1       0.7937887       145.7602
2010    7       2       0.6129485       123.3345
2010    7       3       0.5611627       115.707
2010    7       4       0.6845457       132.2533
2010    7       5       0.7776347       144.4284
2010    7       6       0.7972112       147.8422
2010    7       7       0.8364024       152.9464
2010    8       0       0.7738274       146.3877
2010    8       1       0.7503113       143.4811
2010    8       2       0.8280233       151.3441
2010    8       3       0.8197651       151.1791
2010    8       4       0.8052907       150.7731
2010    8       5       0.7101167       139.4686
2010    8       6       0.7686695       146.3055
2010    8       7       0.7700265       146.1687
2010    9       0       0.706722        138.2932
2010    9       1       0.6699463       133.292
2010    9       2       0.6168464       125.9516
2010    9       3       0.5952108       123.2663
2010    9       4       0.5140337       111.5154
2010    9       5       0.4893819       107.3769
2010    9       6       0.499162        109.3595
2010    9       7       0.537312        115.8037
2010    10      0       0.4807947       107.3708
2010    10      1       0.3740345       88.88087
2010    10      2       0.3344759       81.19952
2010    10      3       0.3081057       75.92708
2010    10      4       0.2796706       70.12929
2010    10      5       0.2590634       65.92621
2010    10      6       0.2859137       70.94915
2010    10      7       0.2626377       66.12517
2010    11      0       0.2568566       64.82174
2010    11      1       0.2925564       71.59243
2010    11      2       0.3418009       80.5429
2010    11      3       0.4319628       95.74852
2010    11      4       0.9827842       165.2425
2010    11      5       1.004081        170.8401
2010    11      6       0.5999624       124.389
2010    11      7       0.2782083       69.44667
2010    12      0       0.1615967       44.7408
2010    12      1       0.1199618       35.16717
2010    12      2       0.1217203       35.44445
2010    12      3       0.08002045      26.03983
2010    12      4       0.09046469      28.51494
2010    12      5       0.1106617       33.25927
2010    12      6       0.1569034       43.93353
2010    12      7       0.1694787       46.85103
2010    13      0       0.1852737       50.22244
2010    13      1       0.1995969       53.11722
2010    13      2       0.2144095       55.96551
2010    13      3       0.1938644       51.56469
2010    13      4       0.2374935       60.25719
2010    13      5       0.3863853       88.14666
2010    13      6       0.4215844       94.36602
2010    13      7       0.3633323       84.64943
2010    14      0       0.310721        75.63877
2010    14      1       0.272575        68.52659
2010    14      2       0.2458654       62.99023
2010    14      3       0.2481334       62.58067
2010    14      4       0.3419843       79.4581
2010    14      5       0.2863707       70.2203
2010    14      6       0.2743009       67.51703
2010    14      7       0.2908741       70.04774
2010    15      0       0.3385755       79.10702
2010    15      1       0.3525736       81.93528
2010    15      2       0.392857        88.9326
2010    15      3       0.4393435       96.58651
2010    15      4       0.5096758       107.6633
2010    15      5       0.5081525       106.8189
2010    15      6       0.4438531       96.23494
2010    15      7       0.3541657       81.24858
2010    16      0       0.4193407       93.14806
2010    16      1       0.3648522       83.4918
2010    16      2       0.332197        77.76819
2010    16      3       0.299202        71.86627
2010    16      4       0.27549         67.3529
2010    16      5       0.2656957       65.53798
2010    16      6       0.2856752       69.47888
2010    16      7       0.2776047       68.03807
2010    17      0       0.2468378       62.0826
2010    17      1       0.2297636       58.61415
2010    17      2       0.3435608       79.74347
2010    17      3       0.4958872       104.287
2010    17      4       0.4959673       104.6672
2010    17      5       0.4259669       94.03054
2010    17      6       0.3795951       86.91015
2010    17      7       0.3994512       90.54576
2010    18      0       0.3985926       90.54262
2010    18      1       0.3815186       87.74928
2010    18      2       0.3651589       84.92588
2010    18      3       0.3672621       85.09481
2010    18      4       0.3387517       79.91528
2010    18      5       0.290572        71.16462
2010    18      6       0.2803732       69.38878
2010    18      7       0.2831527       69.8832
2010    19      0       0.2092464       54.96352
2010    19      1       0.2111228       55.01302
2010    19      2       0.2568208       63.94573
2010    19      3       0.372934        84.98923
2010    19      4       0.3484352       81.46439
2010    19      5       0.3257111       77.42997
2010    19      6       0.2708919       67.15589
2010    19      7       0.2227534       57.45223
2010    20      0       0.2139686       55.48206
2010    20      1       0.2346396       59.58184
2010    20      2       0.2706552       66.84508
2010    20      3       0.3556202       82.27801
2010    20      4       0.6382619       124.0985
2010    20      5       0.9695609       162.1152
2010    20      6       1.177289        181.2577
2010    20      7       1.075554        174.2611
2010    21      0       0.7800611       144.6205
2010    21      1       0.6360342       126.63
2010    21      2       0.6008073       121.6055
2010    21      3       0.5770561       117.7298
2010    21      4       0.5087921       107.2359
2010    21      5       0.6389555       124.8271
2010    21      6       0.7794984       142.2381
2010    21      7       0.7185811       134.8849
2010    22      0       0.6611397       127.5882
2010    22      1       0.6492613       126.9678
2010    22      2       0.5753971       117.4476
2010    22      3       0.3636183       83.85914
2010    22      4       0.181449        48.24605
2010    22      5       0.2060155       53.2002
2010    22      6       0.2603644       64.05793
2010    22      7       0.3164659       74.22316
2010    23      0       0.3912447       87.43426
2010    23      1       0.5196325       107.2586
2010    23      2       0.8920563       154.8992
2010    23      3       1.035314        169.0186
2010    23      4       0.6869079       130.984
2010    23      5       0.7953033       145.162
2010    23      6       1.212885        185.1844
2010    23      7       1.072037        174.0573
2010    24      0       0.9905118       166.7133
2010    24      1       0.9731869       164.5071
2010    24      2       0.9298638       159.7403
2010    24      3       0.9964915       165.9146
2010    24      4       0.9674489       162.4687
2010    24      5       0.967266        162.1041
2010    24      6       0.9318836       158.428
2010    24      7       1.006668        165.5374
2010    25      0       0.7870192       143.2803
2010    25      1       0.5708471       116.269
2010    25      2       0.4473937       98.11965
2010    25      3       0.3731069       85.81881
2010    25      4       0.327779        77.82161
2010    25      5       0.2975308       71.70723
2010    25      6       0.3423649       80.24216
2010    25      7       0.3816321       87.95473
2010    26      0       0.4735522       104.7262
2010    26      1       0.4021589       92.85482
2010    26      2       0.4208188       96.2682
2010    26      3       0.3772516       88.55014
2010    26      4       0.3468128       82.75015
2010    26      5       0.3854298       90.08074
2010    26      6       0.4616038       103.2896
2010    26      7       0.5017097       109.6867
2010    27      0       0.5113878       111.5037
2010    27      1       0.5349595       114.8254
2010    27      2       0.5327884       113.8421
2010    27      3       0.4629281       102.3152
2010    27      4       0.439627        98.30714
2010    27      5       0.5538208       116.0912
2010    27      6       0.810804        148.8632
2010    27      7       1.275568        191.0993
2010    28      0       0.4527451       101.7953
2010    28      1       0.1603869       45.31433
2010    28      2       0.1116074       33.77403
2010    28      3       0.1265525       37.35659
2010    28      4       0.1363222       39.57359
2010    28      5       0.1511996       42.72723
2010    28      6       0.1809809       49.36089
2010    28      7       0.1898589       51.32216
2010    29      0       0.1950582       52.24043
2010    29      1       0.1805268       48.78854
2010    29      2       0.1871879       50.2091
2010    29      3       0.2452749       62.26212
2010    29      4       0.3369149       79.6148
2010    29      5       0.4407144       96.90282
2010    29      6       0.4417224       97.12036
2010    29      7       0.5103385       107.3175
2010    30      0       0.6327876       123.9058
2010    30      1       0.7528103       139.1503
2010    30      2       1.03851         169.985
2010    30      3       0.9092638       157.5601
2010    30      4       0.7883413       144.1786
2010    30      5       0.8712279       153.1962
2010    30      6       1.188286        182.2976
2010    30      7       0.9237842       159.8242
2010    31      0       0.6949808       133.8281
2010    31      1       0.5906223       119.8606
2010    31      2       0.405106        90.70047
2010    31      3       0.2806856       67.97462
2010    31      4       0.2532693       62.54006
2010    31      5       0.3991442       88.26169
2010    31      6       0.6265466       122.7161
2010    31      7       0.6818199       130.5102
2011    1       0       0.1491877       41.75414
2011    1       1       0.1692253       46.07935
2011    1       2       0.1787927       48.24849
2011    1       3       0.1836759       49.28686
2011    1       4       0.1835231       49.25648
2011    1       5       0.1851821       49.52237
2011    1       6       0.1972673       51.99972
2011    1       7       0.2048215       53.44308
2011    2       0       0.2250618       57.36803
2011    2       1       0.2348804       59.17122
2011    2       2       0.2650453       65.17099
2011    2       3       0.2577332       63.89632
2011    2       4       0.2267607       57.93617
2011    2       5       0.1910288       50.77067
2011    2       6       0.1789009       48.46019
2011    2       7       0.1452563       41.31443
2011    3       0       0.1210665       35.91555
2011    3       1       0.1194755       35.5982
2011    3       2       0.1200244       35.80206
2011    3       3       0.09432705      29.74891
2011    3       4       0.07721702      25.56725
2011    3       5       0.09240681      29.2653
2011    3       6       0.1563556       43.7906
2011    3       7       0.1729205       47.51963
2011    4       0       0.2084213       54.98364
2011    4       1       0.2964699       72.49493
2011    4       2       0.4023898       91.74886
2011    4       3       0.5088411       108.9925
2011    4       4       0.5119345       109.0226
2011    4       5       0.5686749       117.8637
2011    4       6       0.6463461       129.3287
2011    4       7       0.6043194       123.9904
2011    5       0       0.6380197       128.979
2011    5       1       0.8018695       150.0183
2011    5       2       0.8706663       158.1151
2011    5       3       0.8530541       156.4437
2011    5       4       0.70111         138.5455
2011    5       5       0.6333757       129.6493
2011    5       6       0.7087189       139.9523
2011    5       7       0.7179661       141.4098
2011    6       0       0.630952        130.0156
2011    6       1       0.534067        115.6872
2011    6       2       0.4891244       108.257
2011    6       3       0.5361186       115.4564
2011    6       4       0.6004115       125.2114
2011    6       5       0.5733857       121.6304
2011    6       6       0.5347209       115.783
2011    6       7       0.4909466       108.9959
2011    7       0       0.4504606       102.5311
2011    7       1       0.377464        89.81485
2011    7       2       0.3003538       75.29449
2011    7       3       0.2492344       65.1048
2011    7       4       0.2968087       74.55204
2011    7       5       0.4124685       96.23632
2011    7       6       0.4654443       105.6114
2011    7       7       0.511929        113.2614
2011    8       0       0.7427867       146.8354
2011    8       1       0.8165633       154.1476
2011    8       2       1.002299        173.2933
2011    8       3       0.9563537       168.3019
2011    8       4       1.11527         182.01
2011    8       5       1.34279         199.2443
2011    8       6       1.248886        193.5677
2011    8       7       1.168249        188.1794
2011    9       0       1.29413         198.3472
2011    9       1       1.61725         219.6965
2011    9       2       1.905714        232.1425
2011    9       3       2.237811        243.9062
2011    9       4       2.335436        246.3769
2011    9       5       2.062805        238.1155
2011    9       6       1.851765        230.2704
2011    9       7       1.821776        229.1903
2011    10      0       1.408122        208.0261
2011    10      1       1.227002        195.0748
2011    10      2       0.9894231       173.7795
2011    10      3       0.8571618       159.6931
2011    10      4       0.7803836       151.1544
2011    10      5       0.739451        146.0384
2011    10      6       0.6827695       137.9424
2011    10      7       0.5960709       125.2251
2011    11      0       0.5245492       114.1078
2011    11      1       0.5931462       124.6839
2011    11      2       0.7222779       142.476
2011    11      3       0.7630255       147.528
2011    11      4       0.7310314       142.9386
2011    11      5       0.7076545       139.0024
2011    11      6       0.6126893       125.8784
2011    11      7       0.6331975       128.6007
2011    12      0       0.7759998       146.7102
2011    12      1       0.8451845       154.88
2011    12      2       0.841086        155.1165
2011    12      3       0.7151791       140.9916
2011    12      4       0.5649056       120.2601
2011    12      5       0.5288          114.1004
2011    12      6       0.4496966       101.3415
2011    12      7       0.3712694       87.87733
2011    13      0       0.3780358       89.10331
2011    13      1       0.2987924       73.46714
2011    13      2       0.2866237       71.18183
2011    13      3       0.2864714       71.31791
2011    13      4       0.3414001       81.63576
2011    13      5       0.3430382       82.43496
2011    13      6       0.3193503       78.04928
2011    13      7       0.2988487       74.21902
2011    14      0       0.3213868       78.50237
2011    14      1       0.3447543       82.28419
2011    14      2       0.3824953       88.02107
2011    14      3       0.4651237       101.4708
2011    14      4       0.5135572       108.8306
2011    14      5       0.6302645       126.0051
2011    14      6       1.006611        169.5977
2011    14      7       1.526234        208.2428
2011    15      0       1.553562        209.1407
2011    15      1       1.482251        204.1803
2011    15      2       1.436633        201.2514
2011    15      3       1.290573        191.4369
2011    15      4       1.046449        171.8956
2011    15      5       0.9719675       164.4163
2011    15      6       0.8873832       155.612
2011    15      7       0.5902297       119.2708
2011    16      0       0.6305052       125.0112
2011    16      1       0.8206517       148.0008
2011    16      2       1.060479        172.3128
2011    16      3       1.182646        182.905
2011    16      4       1.078362        174.595
2011    16      5       0.9274914       160.2795
2011    16      6       0.6190401       124.0342
2011    16      7       0.3606267       84.09622
2011    17      0       0.2971676       72.6622
2011    17      1       0.2487081       63.22009
2011    17      2       0.2075478       54.16373
2011    17      3       0.1898404       50.44636
2011    17      4       0.1342216       38.43494
2011    17      5       0.1231044       36.14877
2011    17      6       0.1577556       43.83371
2011    17      7       0.1690705       46.15584
2011    18      0       0.1529945       42.5868
2011    18      1       0.1700448       46.34065
2011    18      2       0.3196297       76.88261
2011    18      3       0.3548226       83.19358
2011    18      4       0.2536038       63.85165
2011    18      5       0.2179152       56.71207
2011    18      6       0.2406093       60.91308
2011    18      7       0.2016668       52.33309
2011    19      0       0.2287993       57.31231
2011    19      1       0.3278398       75.7412
2011    19      2       0.4387711       95.12484
2011    19      3       0.4308287       95.46208
2011    19      4       0.4084415       92.81877
2011    19      5       0.3509278       82.9028
2011    19      6       0.3612299       84.27554
2011    19      7       0.3983647       90.41571
2011    20      0       0.4318598       96.22252
2011    20      1       0.4806981       104.2909
2011    20      2       0.5358277       112.496
2011    20      3       0.5855129       118.9683
2011    20      4       0.6136728       123.1514
2011    20      5       0.6235214       124.7379
2011    20      6       0.6940282       134.7717
2011    20      7       0.7896249       147.059
2011    21      0       0.7373777       140.9485
2011    21      1       0.7821786       146.1926
2011    21      2       0.9256233       162.9167
2011    21      3       0.9192055       162.6029
2011    21      4       0.8612548       156.9142
2011    21      5       0.854601        157.4459
2011    21      6       0.7139072       140.8422
2011    21      7       0.6245485       128.6809
2011    22      0       0.5058503       110.6535
2011    22      1       0.4404237       99.53845
2011    22      2       0.3916655       91.38329
2011    22      3       0.370153        87.43023
2011    22      4       0.3928011       91.30418
2011    22      5       0.4292071       97.7064
2011    22      6       0.4346792       98.76564
2011    22      7       0.4406239       99.61342
2011    23      0       0.4408267       99.37165
2011    23      1       0.4314219       98.00127
2011    23      2       0.4797108       106.0766
2011    23      3       0.4745465       105.3524
2011    23      4       0.581241        123.0496
2011    23      5       0.4434762       100.3098
2011    23      6       0.4251227       97.58586
2011    23      7       0.3623921       86.82406
2011    24      0       0.292328        73.52663
2011    24      1       0.2679327       68.66432
2011    24      2       0.2845822       71.8586
2011    24      3       0.31635         78.11968
2011    24      4       0.3601475       86.52817
2011    24      5       0.4088349       95.21787
2011    24      6       0.4223443       97.47515
2011    24      7       0.5000839       110.1345
2011    25      0       0.6103313       126.3165
2011    25      1       1.038573        175.3558
2011    25      2       1.452631        204.2856
2011    25      3       1.378997        197.3545
2011    25      4       1.242207        186.9314
2011    25      5       0.9717249       165.3513
2011    25      6       0.7083995       138.2613
2011    25      7       0.478577        106.0261
2011    26      0       0.2619612       66.54982
2011    26      1       0.2865584       70.74854
2011    26      2       0.3565865       83.45584
2011    26      3       0.410678        92.88302
2011    26      4       0.4544526       100.2127
2011    26      5       0.4846676       105.1194
2011    26      6       0.4336381       97.38696
2011    26      7       0.4211071       95.5815
2011    27      0       0.4943085       107.9822
2011    27      1       0.5021205       109.1694
2011    27      2       0.4841918       106.3248
2011    27      3       0.4839808       106.2686
2011    27      4       0.4299104       97.5699
2011    27      5       0.432007        97.82783
2011    27      6       0.5364606       114.0186
2011    27      7       0.4893315       106.1563
2011    28      0       0.4537928       100.9805
2011    28      1       0.5360639       113.4358
2011    28      2       0.6408864       128.4757
2011    28      3       0.7997246       148.7079
2011    28      4       0.7964552       147.9201
2011    28      5       0.8869787       158.1048
2011    28      6       1.281045        193.6361
2011    28      7       1.300953        195.6498
2011    29      0       1.034634        173.4351
2011    29      1       0.9059323       160.7229
2011    29      2       0.7674757       144.973
2011    29      3       0.6274855       126.7035
2011    29      4       0.4511758       100.2115
2011    29      5       0.4533757       100.3042
2011    29      6       0.4979914       106.9863
2011    29      7       0.7102402       136.7749
2011    30      0       0.8811494       155.7224
2011    30      1       0.8631142       152.9157
2011    30      2       1.069763        173.1892
2011    30      3       1.258685        188.0985
2011    30      4       1.312994        191.6053
2011    30      5       1.321951        192.0707
2011    30      6       1.506233        203.744
2011    30      7       1.44131         200.2558
2011    31      0       1.330736        192.9936
2011    31      1       1.169652        181.082
2011    31      2       1.100906        175.9032
2011    31      3       1.18983         183.2574
2011    31      4       1.074919        174.2861
2011    31      5       0.8046603       147.5603
2011    31      6       0.8106949       148.6041
2011    31      7       0.9083921       159.7391
2012    1       0       2.451267        248.247
2012    1       1       1.941003        232.3509
2012    1       2       1.819857        226.9174
2012    1       3       1.542474        211.8658
2012    1       4       1.099464        179.5392
2012    1       5       0.946206        165.2046
2012    1       6       1.007399        170.9177
2012    1       7       0.9915234       168.6213
2012    2       0       1.07251         175.135
2012    2       1       1.205009        185.6629
2012    2       2       1.196758        185.2063
2012    2       3       0.8133361       150.1536
2012    2       4       0.5777744       120.0913
2012    2       5       0.4783998       104.9478
2012    2       6       0.4273003       97.09205
2012    2       7       0.3454154       83.19873
2012    3       0       0.284101        71.49133
2012    3       1       0.135639        39.69508
2012    3       2       0.06976157      23.65625
2012    3       3       0.06423967      22.22501
2012    3       4       0.06975453      23.49971
2012    3       5       0.08876825      28.03117
2012    3       6       0.1300465       37.53128
2012    3       7       0.1575356       43.21704
2012    4       0       0.1321495       38.41054
2012    4       1       0.1583222       44.08104
2012    4       2       0.2467869       61.45316
2012    4       3       0.8344036       149.0982
2012    4       4       1.182837        183.8657
2012    4       5       1.163358        183.0218
2012    4       6       0.9512559       164.1935
2012    4       7       0.810282        149.1218
2012    5       0       0.6004942       122.3415
2012    5       1       0.2563675       63.93302
2012    5       2       0.2079617       52.65313
2012    5       3       0.2727921       64.91772
2012    5       4       0.3084081       71.35602
2012    5       5       0.5945848       117.1851
2012    5       6       0.8782133       152.7226
2012    5       7       0.7159262       134.8394
2012    6       0       0.4159186       92.40415
2012    6       1       0.3048026       72.91123
2012    6       2       0.3253945       76.28417
2012    6       3       0.3314197       77.40138
2012    6       4       0.4085427       90.17333
2012    6       5       0.4530657       98.27977
2012    6       6       0.4773539       102.6995
2012    6       7       0.4539972       99.61054
2012    7       0       0.3914959       89.99859
2012    7       1       0.3190312       77.16918
2012    7       2       0.275396        68.9812
2012    7       3       0.3152574       75.80413
2012    7       4       0.3289          77.76226
2012    7       5       0.3090452       74.54714
2012    7       6       0.2767795       69.44186
2012    7       7       0.308716        75.52957
2012    8       0       0.3837582       89.13894
2012    8       1       0.4694156       103.5644
2012    8       2       0.5278415       112.3946
2012    8       3       0.607841        124.7748
2012    8       4       0.6371405       129.688
2012    8       5       0.5842553       122.2991
2012    8       6       0.5412739       115.3261
2012    8       7       0.5625255       117.9804
2012    9       0       0.5598468       117.7576
2012    9       1       0.5432089       115.3285
2012    9       2       0.609359        124.8866
2012    9       3       0.7593183       144.8552
2012    9       4       0.776491        146.5119
2012    9       5       0.926561        163.39
2012    9       6       1.110629        180.1864
2012    9       7       1.288116        193.4861
2012    10      0       1.244421        190.0098
2012    10      1       1.230259        188.7913
2012    10      2       0.9065054       160.3761
2012    10      3       0.497753        108.5434
2012    10      4       0.2241359       59.06757
2012    10      5       0.1774994       48.77161
2012    10      6       0.244069        62.4435
2012    10      7       0.3108914       75.26518
2012    11      0       0.2937978       71.61729
2012    11      1       0.3005914       73.05632
2012    11      2       0.3535991       83.26059
2012    11      3       0.4058025       92.25586
2012    11      4       0.5062005       108.3644
2012    11      5       0.6626535       132.1399
2012    11      6       0.8067277       151.2944
2012    11      7       0.612444        125.8472
2012    12      0       0.4647556       102.5135
2012    12      1       0.4792167       104.0915
2012    12      2       0.5086327       108.8995
2012    12      3       0.6204277       125.9457
2012    12      4       0.7907909       148.6556
2012    12      5       0.7900873       148.9243
2012    12      6       0.7981915       151.237
2012    12      7       0.7056063       140.5511
2012    13      0       0.598746        126.2646
2012    13      1       0.4741106       107.6652
2012    13      2       0.496502        110.8059
2012    13      3       0.6305487       130.5212
2012    13      4       0.7387321       144.8046
2012    13      5       0.7690438       148.0439
2012    13      6       0.6612489       133.8761
2012    13      7       0.5625622       119.8132
2012    14      0       0.6242455       128.7091
2012    14      1       0.6728906       135.8748
2012    14      2       0.6716481       135.601
2012    14      3       0.6980372       138.5076
2012    14      4       0.7301354       142.2048
2012    14      5       0.7626267       145.5652
2012    14      6       0.8874967       159.182
2012    14      7       0.8621995       155.8092
2012    15      0       0.7785245       145.3762
2012    15      1       0.8384          151.8812
2012    15      2       0.9295204       162.1671
2012    15      3       0.9831145       168.1721
2012    15      4       0.8503072       154.967
2012    15      5       0.7453801       142.8096
2012    15      6       0.6755368       134.3585
2012    15      7       0.6395762       129.8822
2012    16      0       0.5271026       113.8466
2012    16      1       0.4052774       94.23668
2012    16      2       0.3313176       80.53262
2012    16      3       0.2961148       73.25354
2012    16      4       0.3075616       75.51355
2012    16      5       0.470771        104.8041
2012    16      6       0.561593        119.4356
2012    16      7       0.4581279       104.3178
2012    17      0       0.4693661       107.1307
2012    17      1       0.3848076       92.76058
2012    17      2       0.294011        74.94169
2012    17      3       0.4516064       102.3443
2012    17      4       0.4471058       101.7164
2012    17      5       0.3889053       91.1436
2012    17      6       0.4031724       93.49747
2012    17      7       0.3785911       90.36964
2012    18      0       0.4599457       105.2351
2012    18      1       0.5618887       121.3842
2012    18      2       0.5847482       124.5177
2012    18      3       0.639344        131.7445
2012    18      4       0.7294168       142.436
2012    18      5       0.737638        143.0605
2012    18      6       0.7879951       148.8188
2012    18      7       0.812936        151.4225
2012    19      0       0.713621        139.2842
2012    19      1       0.5291655       113.977
2012    19      2       0.5377475       114.6171
2012    19      3       0.5273068       113.013
2012    19      4       0.455168        100.6536
2012    19      5       0.5615314       116.304
2012    19      6       0.5342659       112.937
2012    19      7       0.5054498       108.5498
2012    20      0       0.5152872       110.8184
2012    20      1       0.5010199       108.318
2012    20      2       0.5404074       114.8395
2012    20      3       0.6266251       128.7443
2012    20      4       0.6076269       126.2678
2012    20      5       0.5528763       118.2152
2012    20      6       0.5150853       112.1508
2012    20      7       0.6153899       126.3447
2012    21      0       0.8235275       152.5621
2012    21      1       0.9710421       169.038
2012    21      2       1.509803        211.4716
2012    21      3       1.794062        226.0019
2012    21      4       1.983305        233.3056
2012    21      5       2.069196        236.0487
2012    21      6       1.709287        221.4258
2012    21      7       1.370484        201.4015
2012    22      0       1.309644        196.8657
2012    22      1       0.9608998       167.576
2012    22      2       0.7045215       138.7055
2012    22      3       0.6348463       129.7711
2012    22      4       0.5258874       114.2253
2012    22      5       0.3827023       90.22112
2012    22      6       0.393685        91.76589
2012    22      7       0.352415        84.02074
2012    23      0       0.37415         87.61807
2012    23      1       0.4119152       94.17798
2012    23      2       0.3996311       91.90738
2012    23      3       0.4192108       95.20897
2012    23      4       0.4523815       100.559
2012    23      5       0.4811479       105.1097
2012    23      6       0.524343        112.0437
2012    23      7       0.5890403       121.2073
2012    24      0       0.8222795       150.3194
2012    24      1       0.7494499       142.5348
2012    24      2       0.5259215       112.6732
2012    24      3       0.3810645       89.19337
2012    24      4       0.3495625       83.79287
2012    24      5       0.3697342       87.78617
2012    24      6       0.4071189       94.60736
2012    24      7       0.3723341       88.63659
2012    25      0       0.2935058       74.02727
2012    25      1       0.2109771       57.08576
2012    25      2       0.1790274       50.07532
2012    25      3       0.1713247       48.40994
2012    25      4       0.1795221       50.29251
2012    25      5       0.178071        49.96214
2012    25      6       0.2144304       57.99938
2012    25      7       0.2608261       67.81228
2012    26      0       0.2437181       64.23036
2012    26      1       0.2610112       67.5411
2012    26      2       0.3616486       86.13899
2012    26      3       0.4428867       99.0942
2012    26      4       0.4571613       102.3002
2012    26      5       0.4336745       98.8166
2012    26      6       0.4795017       106.4646
2012    26      7       0.4772026       105.8769
2012    27      0       0.4282111       98.03014
2012    27      1       0.3825571       90.22215
2012    27      2       0.3546623       85.31131
2012    27      3       0.330041        80.53958
2012    27      4       0.3268628       79.80759
2012    27      5       0.3708911       87.68909
2012    27      6       0.4236714       97.0843
2012    27      7       0.4359858       99.15772
2012    28      0       0.4428832       100.2407
2012    28      1       0.4879301       107.5164
2012    28      2       0.5093919       110.2633
2012    28      3       0.5065279       109.2977
2012    28      4       0.5534068       116.0468
2012    28      5       0.5593335       116.7266
2012    28      6       0.4701315       103.1326
2012    28      7       0.3653262       85.35002
2012    29      0       0.4558451       100.7677
2012    29      1       0.404767        91.99018
2012    29      2       0.2926098       71.39424
2012    29      3       0.227757        58.30285
2012    29      4       0.2052099       53.2483
2012    29      5       0.2035151       52.98621
2012    29      6       0.2241777       57.49648
2012    29      7       0.214218        55.72539
2012    30      0       0.208123        54.58155
2012    30      1       0.2118535       55.48291
2012    30      2       0.2553653       64.73384
2012    30      3       0.3494506       82.7931
2012    30      4       0.4130607       93.73906
2012    30      5       0.447971        99.47065
2012    30      6       0.5729822       118.3295
2012    30      7       0.6770009       132.3523
2012    31      0       0.6764008       132.6679
2012    31      1       0.7889191       147.2521
2012    31      2       0.8641759       156.0579
2012    31      3       0.7237916       139.4627
2012    31      4       0.6160854       125.4876
2012    31      5       0.5546218       116.6628
2012    31      6       0.5197708       111.6399
2012    31      7       0.5325739       113.8521
2013    1       0       0.4976137       107.0149
2013    1       1       0.6435317       128.2465
2013    1       2       0.7593958       143.6986
2013    1       3       0.8917983       158.7203
2013    1       4       0.9975419       171.2112
2013    1       5       1.10033         181.1297
2013    1       6       1.20316         189.2608
2013    1       7       1.041031        175.2861
2013    2       0       0.7688108       146.5685
2013    2       1       0.6881318       137.17
2013    2       2       0.7435414       143.737
2013    2       3       0.8859632       160.1085
2013    2       4       0.9104666       163.8876
2013    2       5       0.9827154       170.9026
2013    2       6       1.021637        173.536
2013    2       7       1.066696        177.7089
2013    3       0       0.9231676       164.2066
2013    3       1       0.9010639       162.268
2013    3       2       1.076602        178.685
2013    3       3       1.401311        202.6084
2013    3       4       1.452507        206.4547
2013    3       5       1.380435        201.4183
2013    3       6       1.360021        198.9533
2013    3       7       1.501689        207.8565
2013    4       0       1.423617        203.1261
2013    4       1       1.441089        204.3044
2013    4       2       1.605832        213.6347
2013    4       3       1.709238        218.7118
2013    4       4       1.439188        204.2546
2013    4       5       1.191928        186.5542
2013    4       6       1.213071        188.2436
2013    4       7       1.269107        192.877
2013    5       0       1.179018        186.2848
2013    5       1       1.298423        195.5199
2013    5       2       1.448629        205.2936
2013    5       3       1.619636        213.8728
2013    5       4       1.749619        219.7739
2013    5       5       1.945914        227.1236
2013    5       6       1.745507        221.3763
2013    5       7       1.931903        229.1693
2013    6       0       1.747717        221.4967
2013    6       1       1.510826        209.1805
2013    6       2       1.119924        180.4327
2013    6       3       0.9512337       163.9589
2013    6       4       0.9508032       163.3128
2013    6       5       1.259306        189.4528
2013    6       6       1.060413        173.6389
2013    6       7       0.8783899       156.2268
2013    7       0       0.7663015       144.6004
2013    7       1       0.7559382       144.8076
2013    7       2       0.8699991       158.5358
2013    7       3       0.949288        167.0611
2013    7       4       0.9536565       167.7731
2013    7       5       0.9703572       169.5228
2013    7       6       0.8898191       161.4916
2013    7       7       0.7531785       145.6328
2013    8       0       0.6768084       135.7085
2013    8       1       0.5935399       124.2501
2013    8       2       0.5274002       113.8796
2013    8       3       0.4689844       104.5193
2013    8       4       0.522229        113.182
2013    8       5       0.5756771       121.1972
2013    8       6       0.5836921       122.005
2013    8       7       0.7367858       142.212
2013    9       0       0.8204393       152.2832
2013    9       1       1.059589        177.5393
2013    9       2       1.338696        200.0274
2013    9       3       1.31181         197.5824
2013    9       4       1.23975         192.2878
2013    9       5       1.127916        183.2639
2013    9       6       1.133709        182.8092
2013    9       7       0.8767725       157.0968
2013    10      0       0.8382724       154.3899
2013    10      1       0.9186199       162.5263
2013    10      2       0.8011985       149.7979
2013    10      3       0.8049766       150.8868
2013    10      4       0.8040856       148.9643
2013    10      5       0.9000792       159.7415
2013    10      6       1.012744        171.6747
2013    10      7       0.7941999       148.5221
2013    11      0       0.7112079       138.4951
2013    11      1       0.6812812       134.5076
2013    11      2       0.5486092       116.2263
2013    11      3       0.5606405       118.323
2013    11      4       0.4903278       107.2382
2013    11      5       0.4396848       99.42083
2013    11      6       0.2824016       71.13902
2013    11      7       0.1623719       45.37899
2013    12      0       0.166462        45.91808
2013    12      1       0.1813001       49.01461
2013    12      2       0.2029855       53.46799
2013    12      3       0.2278775       58.53804
2013    12      4       0.2580914       65.54492
2013    12      5       0.3222881       78.25473
2013    12      6       0.3399436       81.0499
2013    12      7       0.2936732       72.35187
2013    13      0       0.2895879       71.48029
2013    13      1       0.3594204       84.23376
2013    13      2       0.4166774       93.47014
2013    13      3       0.6554628       130.4276
2013    13      4       0.9520295       167.4286
2013    13      5       1.020867        174.7114
2013    13      6       1.10921         182.8931
2013    13      7       1.220586        192.3339
2013    14      0       1.251536        194.7277
2013    14      1       1.41673         206.3715
2013    14      2       1.480773        210.7024
2013    14      3       1.534569        214.2359
2013    14      4       1.402806        206.916
2013    14      5       1.316715        200.7919
2013    14      6       1.28206         198.1203
2013    14      7       0.9163382       164.9555
2013    15      0       0.7900621       151.1301
2013    15      1       0.7220304       142.7301
2013    15      2       0.7654413       149.4827
2013    15      3       0.7510741       148.2425
2013    15      4       0.6735084       138.5793
2013    15      5       0.5090223       114.4108
2013    15      6       0.3948586       94.83359
2013    15      7       0.2784219       72.09695
2013    16      0       0.1935167       53.3201
2013    16      1       0.1858094       51.03547
2013    16      2       0.2010606       54.25032
2013    16      3       0.1907873       51.7886
2013    16      4       0.1437447       41.03594
2013    16      5       0.1478503       42.16345
2013    16      6       0.1759887       48.60402
2013    16      7       0.1773702       49.02354
2013    17      0       0.1897579       51.82416
2013    17      1       0.2073226       55.67651
2013    17      2       0.222013        58.63857
2013    17      3       0.2273163       59.72523
2013    17      4       0.2245756       59.40502
2013    17      5       0.2779506       70.17504
2013    17      6       0.3444633       83.31232
2013    17      7       0.4168843       96.34555
2013    18      0       0.4868656       108.1627
2013    18      1       0.5538892       117.7379
2013    18      2       0.7514689       143.8245
2013    18      3       1.031939        173.8957
2013    18      4       1.252355        193.5228
2013    18      5       1.364225        202.3407
2013    18      6       1.515536        211.4576
2013    18      7       1.78601         224.9588
2013    19      0       1.584269        214.369
2013    19      1       1.422086        204.1389
2013    19      2       1.636137        216.1271
2013    19      3       1.808209        224.8287
2013    19      4       1.662508        217.0939
2013    19      5       1.564641        211.1727
2013    19      6       1.461469        204.3466
2013    19      7       1.150564        182.4039
2013    20      0       0.9236668       162.5924
2013    20      1       0.8479246       155.0818
2013    20      2       0.7066896       137.657
2013    20      3       0.4694497       102.753
2013    20      4       0.2073157       54.93949
2013    20      5       0.2256535       58.56004
2013    20      6       0.2977872       72.63946
2013    20      7       0.3146023       75.49652
2013    21      0       0.3821519       87.21171
2013    21      1       0.3289371       77.50325
2013    21      2       0.3379054       78.8293
2013    21      3       0.3886693       87.65244
2013    21      4       0.2549859       63.25106
2013    21      5       0.3034011       72.26056
2013    21      6       0.2768344       67.48723
2013    21      7       0.3225241       76.22007
2013    22      0       0.2704029       66.60656
2013    22      1       0.2898021       70.43593
2013    22      2       0.2350457       60.12667
2013    22      3       0.1948564       51.80661
2013    22      4       0.1738957       46.77075
2013    22      5       0.2450463       61.63529
2013    22      6       0.4157589       93.38424
2013    22      7       0.5318077       112.1537
2013    23      0       0.7027341       136.1345
2013    23      1       0.7964934       148.7566
2013    23      2       0.8271756       153.4317
2013    23      3       0.7985262       150.2648
2013    23      4       0.737795        143.0284
2013    23      5       0.6316191       129.5826
2013    23      6       0.5154661       112.4617
2013    23      7       0.4659289       104.5395
2013    24      0       0.3592881       86.30622
2013    24      1       0.3504705       84.33533
2013    24      2       0.3188661       78.65296
2013    24      3       0.2994696       74.81488
2013    24      4       0.3076933       76.34314
2013    24      5       0.3228619       79.30844
2013    24      6       0.3665035       87.81578
2013    24      7       0.348945        84.64114
2013    25      0       0.3246359       80.11205
2013    25      1       0.3448558       84.10438
2013    25      2       0.3776183       90.28542
2013    25      3       0.3798256       90.57187
2013    25      4       0.3830322       90.98348
2013    25      5       0.4138405       96.6008
2013    25      6       0.4659241       105.0356
2013    25      7       0.4364622       100.1137
2013    26      0       0.4635997       103.8074
2013    26      1       0.480983        106.3013
2013    26      2       0.8993973       161.5017
2013    26      3       1.579689        213.8013
2013    26      4       1.826336        225.8326
2013    26      5       1.019729        173.8131
2013    26      6       0.8735622       157.5645
2013    26      7       0.6761807       133.6633
2013    27      0       0.5787364       120.5685
2013    27      1       0.5295254       112.8338
2013    27      2       0.6251454       127.1731
2013    27      3       0.856013        157.1994
2013    27      4       0.6730397       135.5277
2013    27      5       0.6174826       127.9107
2013    27      6       0.7392076       144.593
2013    27      7       0.737056        144.0123
2013    28      0       0.6132774       126.5098
2013    28      1       0.5807516       121.432
2013    28      2       0.6618435       131.8612
2013    28      3       0.7679176       145.0133
2013    28      4       0.8573302       155.7314
2013    28      5       1.005176        171.199
2013    28      6       1.141981        183.7564
2013    28      7       1.07869         179.0408
2013    29      0       0.8161684       153.082
2013    29      1       0.6800464       136.5348
2013    29      2       0.666848        133.5748
2013    29      3       0.6341109       128.8833
2013    29      4       0.574739        120.0501
2013    29      5       0.5746008       119.7286
2013    29      6       0.5350439       114.0703
2013    29      7       0.6154261       126.4777
2013    30      0       0.7349299       141.7653
2013    30      1       0.7114173       138.3133
2013    30      2       0.7262247       139.9101
2013    30      3       0.6338248       128.441
2013    30      4       0.5360654       114.4015
2013    30      5       0.37024         87.18765
2013    30      6       0.3774314       88.14946
2013    30      7       0.3920846       89.9596
2013    31      0       0.4282708       96.08147
2013    31      1       0.4535748       100.4847
2013    31      2       0.5053058       108.8765
2013    31      3       0.539134        114.1338
2013    31      4       0.6005947       123.1264
2013    31      5       0.6030433       123.5193
2013    31      6       0.4686714       103.5656
2013    31      7       0.3576895       84.67145
2014    1       0       0.6784882       134.8767
2014    1       1       0.5541294       118.2428
2014    1       2       0.5039777       110.0212
2014    1       3       0.5556389       116.7556
2014    1       4       0.564074        116.4687
2014    1       5       0.5173477       109.7444
2014    1       6       0.47306         104.035
2014    1       7       0.4505625       100.5605
2014    2       0       0.4530976       100.7519
2014    2       1       0.5763961       119.3141
2014    2       2       0.6167875       125.1142
2014    2       3       1.145761        181.2729
2014    2       4       1.265767        191.018
2014    2       5       0.8847126       157.4992
2014    2       6       0.4684475       103.2962
2014    2       7       0.215192        55.51336
2014    3       0       0.2158146       54.20695
2014    3       1       0.2873491       67.86153
2014    3       2       0.2205666       55.2492
2014    3       3       0.3011333       71.8204
2014    3       4       0.3950726       88.21921
2014    3       5       0.4162275       91.29527
2014    3       6       0.3467252       79.78529
2014    3       7       0.3181383       75.31079
2014    4       0       0.6044912       119.6797
2014    4       1       0.7918669       143.5989
2014    4       2       0.6679922       128.6467
2014    4       3       0.7133456       134.5103
2014    4       4       0.7536839       139.3404
2014    4       5       0.7220913       135.8979
2014    4       6       0.8623657       152.6676
2014    4       7       1.02966         169.8238
2014    5       0       0.965483        164.0358
2014    5       1       0.7421105       139.7895
2014    5       2       0.5864437       119.9852
2014    5       3       0.572312        118.1219
2014    5       4       0.3836598       88.34594
2014    5       5       0.3435041       80.52462
2014    5       6       0.6212217       124.2279
2014    5       7       0.6038988       121.6205
2014    6       0       0.5853381       118.6129
2014    6       1       0.6459653       127.5776
2014    6       2       0.7016426       135.5549
2014    6       3       0.7609753       143.5113
2014    6       4       0.9298457       163.5168
2014    6       5       0.9364599       164.8745
2014    6       6       0.8466692       155.5394
2014    6       7       0.7372712       143.101
2014    7       0       0.6050809       125.794
2014    7       1       0.5147208       112.3452
2014    7       2       0.482374        107.1023
2014    7       3       0.4862584       107.491
2014    7       4       0.4742671       105.488
2014    7       5       0.4806334       106.3428
2014    7       6       0.4592175       102.8738
2014    7       7       0.3934316       91.91194
2014    8       0       0.361249        85.93916
2014    8       1       0.3577101       85.33102
2014    8       2       0.371712        87.89279
2014    8       3       0.4202441       96.42809
2014    8       4       0.4290193       98.29343
2014    8       5       0.3279985       80.06282
2014    8       6       0.339563        81.30637
2014    8       7       0.4036012       91.75262
2014    9       0       0.4086313       92.3552
2014    9       1       0.4127328       93.094
2014    9       2       0.4795796       103.2482
2014    9       3       0.4729296       102.0877
2014    9       4       0.5665532       116.5973
2014    9       5       0.6033882       122.4765
2014    9       6       0.6353974       127.0264
2014    9       7       0.5769704       119.4443
2014    10      0       0.488046        106.746
2014    10      1       0.4109592       94.53893
2014    10      2       0.3608823       85.64466
2014    10      3       0.31745         77.21923
2014    10      4       0.2964412       72.97089
2014    10      5       0.2909627       72.1622
2014    10      6       0.2511523       64.51575
2014    10      7       0.207427        55.78474
2014    11      0       0.2413099       62.76246
2014    11      1       0.268064        68.10561
2014    11      2       0.2513559       64.77422
2014    11      3       0.2305121       60.05046
2014    11      4       0.289634        71.47057
2014    11      5       0.3634772       85.23695
2014    11      6       0.3920963       90.14951
2014    11      7       0.4256986       95.30979
2014    12      0       0.5163442       109.8385
2014    12      1       0.5640929       117.2191
2014    12      2       0.5588795       116.6702
2014    12      3       0.4905887       106.905
2014    12      4       0.3922813       91.00666
2014    12      5       0.33215         79.51392
2014    12      6       0.3946523       89.13711
2014    12      7       0.3490267       81.21507
2014    13      0       0.4860009       104.3943
2014    13      1       0.4758307       103.4919
2014    13      2       0.408081        92.58034
2014    13      3       0.5044942       108.0143
2014    13      4       0.5678269       118.0841
2014    13      5       0.6624081       132.7489
2014    13      6       0.7558693       145.0365
2014    13      7       0.7459254       143.408
2014    14      0       0.7320332       141.4094
2014    14      1       0.884828        158.7823
2014    14      2       1.217482        188.9753
2014    14      3       1.282927        194.8788
2014    14      4       1.489775        208.612
2014    14      5       1.700675        219.8629
2014    14      6       1.705551        219.2745
2014    14      7       1.532827        209.6092
2014    15      0       1.27237         192.5992
2014    15      1       1.008391        170.8816
2014    15      2       0.6077523       124.8944
2014    15      3       0.3659206       85.98619
2014    15      4       0.3204683       76.16825
2014    15      5       0.4743683       102.3341
2014    15      6       0.6295278       125.4872
2014    15      7       0.6933907       133.727
2014    16      0       1.159913        181.3495
2014    16      1       1.774862        222.582
2014    16      2       1.768484        223.9159
2014    16      3       1.558707        214.3162
2014    16      4       1.084956        180.7955
2014    16      5       1.233972        193.1702
2014    16      6       1.428353        206.3406
2014    16      7       1.171802        189.5291
2014    17      0       1.089877        181.3667
2014    17      1       0.6823491       135.5704
2014    17      2       0.4742448       103.9101
2014    17      3       0.4541026       101.2383
2014    17      4       0.4732529       104.6505
2014    17      5       0.4916719       107.6432
2014    17      6       0.438612        97.36308
2014    17      7       0.5795768       121.4386
2014    18      0       0.6343536       130.487
2014    18      1       0.6337727       131.5553
2014    18      2       0.6354034       131.6357
2014    18      3       0.6090003       128.0162
2014    18      4       0.5229245       115.0693
2014    18      5       0.4872192       108.1195
2014    18      6       0.4418778       100.9213
2014    18      7       0.3756725       89.34261
2014    19      0       0.2900358       72.94853
2014    19      1       0.2467668       63.55701
2014    19      2       0.1942694       52.93981
2014    19      3       0.1822561       50.03526
2014    19      4       0.1762743       48.64447
2014    19      5       0.1738576       48.06161
2014    19      6       0.2005382       54.19407
2014    19      7       0.1920586       52.15495
2014    20      0       0.1891946       51.46397
2014    20      1       0.2074558       55.55405
2014    20      2       0.2716968       69.215
2014    20      3       0.3073104       76.92427
2014    20      4       0.2268613       60.98629
2014    20      5       0.2435742       64.41219
2014    20      6       0.3462032       84.62299
2014    20      7       0.4187639       97.11261
2014    21      0       0.4992676       110.6451
2014    21      1       0.5418495       117.5932
2014    21      2       0.613064        127.0185
2014    21      3       0.7856824       149.1416
2014    21      4       0.8621568       157.1258
2014    21      5       0.9301407       163.5789
2014    21      6       1.145805        182.7208
2014    21      7       1.311828        194.9578
2014    22      0       1.301919        194.168
2014    22      1       1.176083        185.0652
2014    22      2       1.064829        176.0415
2014    22      3       1.023406        171.8098
2014    22      4       0.808229        149.529
2014    22      5       0.6196977       125.7602
2014    22      6       0.5544335       115.9969
2014    22      7       0.4519446       99.91764
2014    23      0       0.3341612       79.87395
2014    23      1       0.3377993       80.60184
2014    23      2       0.3774706       87.53331
2014    23      3       0.3631226       84.78874
2014    23      4       0.2640409       66.09153
2014    23      5       0.21807         56.80155
2014    23      6       0.2424234       61.8649
2014    23      7       0.2421772       61.99897
2014    24      0       0.1698767       46.70942
2014    24      1       0.2224034       57.59714
2014    24      2       0.2691726       66.90449
2014    24      3       0.2978799       71.74725
2014    24      4       0.3376428       78.13392
2014    24      5       0.3518814       81.2641
2014    24      6       0.4613341       99.91884
2014    24      7       0.602009        121.4776
2014    25      0       0.7466006       141.2144
2014    25      1       0.9085485       160.1957
2014    25      2       1.073111        175.9753
2014    25      3       1.030935        172.5056
2014    25      4       0.8703934       157.4511
2014    25      5       0.6864407       135.998
2014    25      6       0.6367607       128.7
2014    25      7       0.7108804       137.6775
2014    26      0       0.7615556       141.8771
2014    26      1       0.7806969       144.6337
2014    26      2       0.6636798       131.4114
2014    26      3       0.6767307       132.8472
2014    26      4       0.8078066       147.7578
2014    26      5       0.9890423       166.8061
2014    26      6       1.626134        213.2596
2014    26      7       1.743311        220.5575
2014    27      0       1.438949        202.8135
2014    27      1       1.574336        209.4785
2014    27      2       1.78799         220.2461
2014    27      3       1.821689        223.7728
2014    27      4       1.601582        214.5615
2014    27      5       1.721814        220.8495
2014    27      6       1.881735        227.7534
2014    27      7       1.964003        231.5371
2014    28      0       2.040356        234.7335
2014    28      1       2.028845        234.8949
2014    28      2       2.153637        239.0801
2014    28      3       2.287013        242.6053
2014    28      4       2.152974        238.9024
2014    28      5       1.8571          229.0239
2014    28      6       1.693878        221.621
2014    28      7       1.434238        206.5289
2014    29      0       1.369378        201.7601
2014    29      1       1.173941        186.5075
2014    29      2       1.230194        190.8019
2014    29      3       1.382994        200.9517
2014    29      4       1.239944        192.0959
2014    29      5       0.5096543       111.4818
2014    29      6       0.2920817       71.62304
2014    29      7       0.4230814       94.03447
2014    30      0       0.7216024       137.7631
2014    30      1       1.298319        193.3735
2014    30      2       1.687209        217.8386
2014    30      3       1.905013        228.5578
2014    30      4       1.703737        220.4462
2014    30      5       1.775589        224.4912
2014    30      6       1.9871          233.2562
2014    30      7       1.601639        215.5862
2014    31      0       1.23058         191.0499
2014    31      1       1.289033        195.9539
2014    31      2       1.68196         218.8357
2014    31      3       1.640283        217.1706
2014    31      4       1.73355         221.3338
2014    31      5       1.801005        224.0889
2014    31      6       1.935875        231.4452
2014    31      7       1.627211        217.4317
2015    1       0       0.8840963       157.9889
2015    1       1       0.9650821       166.7237
2015    1       2       1.061006        175.9356
2015    1       3       1.188713        186.8573
2015    1       4       1.296205        194.8786
2015    1       5       1.357952        198.9625
2015    1       6       1.342789        197.7973
2015    1       7       1.297518        194.7853
2015    2       0       1.141939        183.1449
2015    2       1       1.062597        176.2839
2015    2       2       1.158445        184.5261
2015    2       3       1.309381        195.8618
2015    2       4       1.233602        190.2694
2015    2       5       1.064142        176.2394
2015    2       6       0.9132          162.2615
2015    2       7       0.6456295       130.939
2015    3       0       0.3778188       89.02396
2015    3       1       0.1560324       44.10379
2015    3       2       0.09721117      30.43034
2015    3       3       0.09546604      29.59525
2015    3       4       0.1327886       38.16909
2015    3       5       0.1571053       43.90102
2015    3       6       0.1523081       43.00324
2015    3       7       0.1442023       41.14567
2015    4       0       0.1487785       41.89704
2015    4       1       0.1608843       44.04747
2015    4       2       0.1543996       42.54141
2015    4       3       0.1533557       42.13869
2015    4       4       0.2912677       70.09226
2015    4       5       0.3277705       78.00198
2015    4       6       0.3269941       77.83597
2015    4       7       0.4249732       95.73733
2015    5       0       0.5112669       110.2694
2015    5       1       0.5905354       120.8161
2015    5       2       0.7669281       142.9535
2015    5       3       0.9130688       158.817
2015    5       4       1.219302        186.9262
2015    5       5       1.800251        222.3183
2015    5       6       2.098072        234.8723
2015    5       7       1.892878        228.8717
2015    6       0       1.48861         208.0886
2015    6       1       1.025494        173.3391
2015    6       2       0.725619        140.6092
2015    6       3       0.6280899       127.1004
2015    6       4       0.6035962       122.7752
2015    6       5       0.8156128       149.5832
2015    6       6       1.218679        187.0885
2015    6       7       1.207231        186.2293
2015    7       0       0.915647        160.2266
2015    7       1       0.7192212       137.9653
2015    7       2       0.5711256       117.6382
2015    7       3       0.5399788       112.4467
2015    7       4       0.5236318       109.7879
2015    7       5       0.6270543       124.4496
2015    7       6       0.7760514       144.0598
2015    7       7       0.8623561       154.0022
2015    8       0       0.7346092       140.2052
2015    8       1       0.6036713       123.9078
2015    8       2       0.6379589       128.696
2015    8       3       0.848195        154.8158
2015    8       4       1.100659        179.9244
2015    8       5       1.278154        194.4409
2015    8       6       1.111915        181.8036
2015    8       7       1.135774        183.6922
2015    9       0       1.08586         179.3811
2015    9       1       1.079107        178.3148
2015    9       2       0.9517108       167.0652
2015    9       3       0.9831325       170.5114
2015    9       4       0.9359473       164.9084
2015    9       5       0.7881741       147.2542
2015    9       6       0.8311007       151.1767
2015    9       7       1.020448        170.2935
2015    10      0       1.116197        179.0503
2015    10      1       1.173482        183.585
2015    10      2       1.178771        184.737
2015    10      3       1.31524         194.6982
2015    10      4       1.613435        212.9932
2015    10      5       1.793452        222.3476
2015    10      6       1.722633        219.7233
2015    10      7       1.83027         224.8194
2015    11      0       1.858343        225.8133
2015    11      1       1.892196        227.5329
2015    11      2       2.058111        233.5869
2015    11      3       2.101949        235.4178
2015    11      4       2.08448         234.9614
2015    11      5       2.066982        233.5717
2015    11      6       1.829935        223.3909
2015    11      7       1.855563        223.7451
2015    12      0       1.911076        226.5956
2015    12      1       2.092861        234.321
2015    12      2       2.218911        238.5103
2015    12      3       1.938218        227.564
2015    12      4       1.485071        206.2017
2015    12      5       1.459283        204.504
2015    12      6       1.675496        215.5932
2015    12      7       1.646799        214.1423
2015    13      0       1.407807        200.1499
2015    13      1       1.198809        185.1121
2015    13      2       0.9908286       166.7286
2015    13      3       0.6711911       130.9537
2015    13      4       0.4382799       96.86162
2015    13      5       0.3643442       84.16013
2015    13      6       0.4471629       97.51999
2015    13      7       0.4663693       99.80092
2015    14      0       0.3862932       86.03137
2015    14      1       0.3306245       77.2896
2015    14      2       0.2851003       69.53371
2015    14      3       0.4147536       93.16157
2015    14      4       0.2431659       61.55901
2015    14      5       0.2420255       60.2014
2015    14      6       0.3095517       72.93792
2015    14      7       0.3909585       87.65192
2015    15      0       0.4345089       95.36412
2015    15      1       0.4781292       102.4754
2015    15      2       0.5848189       118.3839
2015    15      3       0.8077096       145.8025
2015    15      4       0.8802918       154.019
2015    15      5       0.8876379       154.9893
2015    15      6       0.8360936       149.5019
2015    15      7       0.7402746       138.4524
2015    16      0       0.6075771       122.1547
2015    16      1       0.6131118       122.2043
2015    16      2       0.5826465       118.5324
2015    16      3       0.613426        123.8207
2015    16      4       0.5438068       114.5662
2015    16      5       0.3340534       79.31946
2015    16      6       0.3922557       89.36241
2015    16      7       0.4527038       98.59741
2015    17      0       0.5769539       117.7719
2015    17      1       0.6484001       128.419
2015    17      2       0.7086073       135.6197
2015    17      3       0.5417891       111.6186
2015    17      4       0.464879        99.71248
2015    17      5       0.4485694       98.36843
2015    17      6       0.4935919       106.307
2015    17      7       0.5618297       117.7878
2015    18      0       0.6418956       129.8539
2015    18      1       0.7252781       141.3003
2015    18      2       0.8426167       155.4614
2015    18      3       0.939902        165.9458
2015    18      4       0.8770475       159.6007
2015    18      5       0.8209069       153.0625
2015    18      6       0.9790751       169.632
2015    18      7       1.306274        196.5082
2015    19      0       1.335472        197.6681
2015    19      1       0.9025611       160.0371
2015    19      2       0.4403951       99.83643
2015    19      3       0.3466008       82.38829
2015    19      4       0.4511676       97.53522
2015    19      5       0.4064312       91.35384
2015    19      6       0.4043245       92.2378
2015    19      7       0.4513301       100.1051
2015    20      0       0.4521889       100.1873
2015    20      1       0.2769337       69.04764
2015    20      2       0.1181929       35.23603
2015    20      3       0.08693722      27.77446
2015    20      4       0.1282098       36.99331
2015    20      5       0.1810725       48.61064
2015    20      6       0.2429316       61.58801
2015    20      7       0.2733327       67.87875
2015    21      0       0.2843897       70.41037
2015    21      1       0.3662029       85.28658
2015    21      2       0.4501107       98.90021
2015    21      3       0.5460824       113.9869
2015    21      4       0.7289661       139.7885
2015    21      5       0.8862613       159.0162
2015    21      6       0.9760716       168.4421
2015    21      7       0.966765        168.1072
2015    22      0       0.7721817       147.3995
2015    22      1       0.7044814       139.1595
2015    22      2       0.8032728       150.336
2015    22      3       0.9479909       165.0392
2015    22      4       1.022044        170.9671
2015    22      5       0.9824941       167.2104
2015    22      6       0.8930357       159.1722
2015    22      7       0.7222208       140.5828
2015    23      0       0.6721579       134.2776
2015    23      1       0.6043128       125.2756
2015    23      2       0.5363557       115.3185
2015    23      3       0.5183537       112.4494
2015    23      4       0.4599298       102.9556
2015    23      5       0.4565695       102.3716
2015    23      6       0.5356461       114.7049
2015    23      7       0.5859747       122.5794
2015    24      0       0.5583404       119.0882
2015    24      1       0.4980887       110.0237
2015    24      2       0.4472004       101.8431
2015    24      3       0.4482704       101.9118
2015    24      4       0.5002591       109.6883
2015    24      5       0.4842477       107.0877
2015    24      6       0.5065971       110.5502
2015    24      7       0.4989107       109.5028
2015    25      0       0.5047148       110.1071
2015    25      1       0.4528696       101.0572
2015    25      2       0.581534        120.3621
2015    25      3       0.9537182       164.4982
2015    25      4       1.178308        186.6727
2015    25      5       1.133578        183.638
2015    25      6       1.045467        176.8742
2015    25      7       0.8413337       156.7512
2015    26      0       0.6575732       134.005
2015    26      1       0.6022439       125.9249
2015    26      2       0.6144186       127.3413
2015    26      3       0.6734776       135.7217
2015    26      4       0.7823279       150.0665
2015    26      5       0.9264408       166.7255
2015    26      6       0.9315146       166.8282
2015    26      7       0.8902678       161.8671
2015    27      0       0.8715193       159.127
2015    27      1       0.9049759       162.5712
2015    27      2       0.9669784       168.9925
2015    27      3       0.9773432       170.218
2015    27      4       0.9856661       170.7454
2015    27      5       1.019012        173.4604
2015    27      6       1.067485        177.3069
2015    27      7       1.126306        181.9009
2015    28      0       1.315476        195.9915
2015    28      1       1.469561        206.3571
2015    28      2       1.101352        180.7361
2015    28      3       0.9253763       163.7963
2015    28      4       1.065548        176.7222
2015    28      5       1.191018        187.2714
2015    28      6       1.335392        198.3332
2015    28      7       1.471544        206.8402
2015    29      0       1.270793        193.6144
2015    29      1       1.258018        193.1659
2015    29      2       1.25035         193.5622
2015    29      3       1.220521        191.7776
2015    29      4       0.979755        171.4217
2015    29      5       0.8335996       156.0658
2015    29      6       0.7659536       148.0456
2015    29      7       0.72764         143.2048
2015    30      0       0.6390112       130.416
2015    30      1       0.6368048       129.7235
2015    30      2       0.6654647       133.6343
2015    30      3       0.7551885       145.0195
2015    30      4       0.8347784       153.9604
2015    30      5       1.079993        177.4103
2015    30      6       1.248222        190.3674
2015    30      7       1.214481        188.068
2015    31      0       1.16958         184.3588
2015    31      1       1.368046        197.3037
2015    31      2       1.084904        176.9255
2015    31      3       0.6418801       129.3837
2015    31      4       0.4729703       102.6032
2015    31      5       0.7483323       141.389
2015    31      6       0.949296        163.4955
2015    31      7       1.098551        175.8953
2016    1       0       1.382347        201.8983
2016    1       1       1.219188        190.848
2016    1       2       1.210768        190.4962
2016    1       3       1.216636        191.4554
2016    1       4       1.050072        177.5093
2016    1       5       0.8911783       162.1299
2016    1       6       0.8923385       162.2905
2016    1       7       1.019009        175.1235
2016    2       0       1.267182        195.2208
2016    2       1       1.354589        201.2928
2016    2       2       1.430378        206.5321
2016    2       3       1.440287        207.2938
2016    2       4       1.330722        199.645
2016    2       5       1.087166        180.1966
2016    2       6       1.042626        175.8575
2016    2       7       1.131716        183.7987
2016    3       0       1.166329        186.6142
2016    3       1       1.319997        198.1642
2016    3       2       1.244828        191.9465
2016    3       3       1.203836        188.5018
2016    3       4       1.113406        180.369
2016    3       5       1.023144        171.4699
2016    3       6       1.381171        198.6162
2016    3       7       1.339891        195.6401
2016    4       0       1.052186        173.0641
2016    4       1       0.8240154       150.3174
2016    4       2       0.8198268       150.1628
2016    4       3       0.7797413       145.6649
2016    4       4       0.7908467       147.235
2016    4       5       0.7681659       144.9651
2016    4       6       0.7481668       142.5571
2016    4       7       0.7257017       139.4397
2016    5       0       0.6198892       124.9514
2016    5       1       0.5474742       114.0963
2016    5       2       0.574119        118.0034
2016    5       3       0.6004078       121.8353
2016    5       4       0.5979184       121.7341
2016    5       5       0.6385505       127.9631
2016    5       6       0.6542449       130.6229
2016    5       7       0.6697011       132.9399
2016    6       0       0.535198        113.7738
2016    6       1       0.5621485       118.1362
2016    6       2       0.6551008       131.0254
2016    6       3       0.7007833       137.766
2016    6       4       0.5865439       122.1634
2016    6       5       0.5907265       122.0511
2016    6       6       0.5168444       111.4366
2016    6       7       0.5194854       112.578
2016    7       0       0.4631082       103.7045
2016    7       1       0.4273692       97.76392
2016    7       2       0.4576194       103.0158
2016    7       3       0.4759502       105.7457
2016    7       4       0.4194342       95.94274
2016    7       5       0.3819745       89.68234
2016    7       6       0.3264676       79.09454
2016    7       7       0.3044341       74.31151
2016    8       0       0.3852582       89.13837
2016    8       1       0.4730605       103.5406
2016    8       2       0.5195201       111.2788
2016    8       3       0.4685593       104.2383
2016    8       4       0.4017591       93.08163
2016    8       5       0.4165124       95.3534
2016    8       6       0.4254877       95.73959
2016    8       7       0.4971759       106.8553
2016    9       0       0.6731011       131.2423
2016    9       1       1.128542        179.1852
2016    9       2       0.8995908       158.3718
2016    9       3       0.6189855       124.1645
2016    9       4       0.7040612       135.0333
2016    9       5       0.7136328       136.9519
2016    9       6       0.6639795       131.2078
2016    9       7       0.6100582       124.239
2016    10      0       0.5969819       122.3637
2016    10      1       0.6564967       129.6633
2016    10      2       0.8188775       148.7349
2016    10      3       0.7775899       144.5929
2016    10      4       0.8334564       150.5518
2016    10      5       0.8987783       158.3647
2016    10      6       1.458395        205.9154
2016    10      7       1.409193        200.9114
2016    11      0       1.572929        211.6076
2016    11      1       1.60983         214.5185
2016    11      2       1.910456        228.1869
2016    11      3       1.741333        221.2724
2016    11      4       1.54874         209.7311
2016    11      5       1.269158        191.2108
2016    11      6       1.117444        179.3687
2016    11      7       0.9673556       165.5529
2016    12      0       0.776986        144.1879
2016    12      1       0.4981142       105.882
2016    12      2       0.4533586       100.0774
2016    12      3       0.4527756       99.14937
2016    12      4       0.5897408       118.3089
2016    12      5       0.8743264       153.9515
2016    12      6       1.172636        182.2108
2016    12      7       1.400275        199.2868
2016    13      0       1.294692        193.3804
2016    13      1       1.261574        191.8499
2016    13      2       1.272868        193.4785
2016    13      3       1.461012        206.781
2016    13      4       1.430516        205.1339
2016    13      5       1.485198        208.0989
2016    13      6       1.465416        206.0447
2016    13      7       1.600694        213.1499
2016    14      0       1.498731        206.3894
2016    14      1       1.680235        216.107
2016    14      2       1.443909        203.0469
2016    14      3       1.198328        186.5029
2016    14      4       0.6533097       130.444
2016    14      5       0.4403111       98.73657
2016    14      6       0.3813517       88.21767
2016    14      7       0.3248251       77.45187
2016    15      0       0.2416961       60.58541
2016    15      1       0.2783287       67.61497
2016    15      2       0.3524629       81.31673
2016    15      3       0.4169871       92.87552
2016    15      4       0.4790269       103.4909
2016    15      5       0.443852        98.32526
2016    15      6       0.3429565       81.12702
2016    15      7       0.3681216       86.48179
2016    16      0       0.242145        62.43553
2016    16      1       0.2554959       64.74112
2016    16      2       0.2869225       70.40765
2016    16      3       0.344755        80.49153
2016    16      4       0.5028504       105.661
2016    16      5       0.7638015       140.8223
2016    16      6       0.7667768       141.8279
2016    16      7       0.5710189       116.7954
2016    17      0       0.6463878       127.1674
2016    17      1       0.6436355       126.157
2016    17      2       0.4237374       93.78637
2016    17      3       0.3871361       87.65339
2016    17      4       0.4103815       91.75964
2016    17      5       0.6054501       120.6565
2016    17      6       0.8493994       150.8292
2016    17      7       1.080582        174.6353
2016    18      0       1.554361        209.9922
2016    18      1       1.429664        204.8254
2016    18      2       1.088336        179.9715
2016    18      3       0.8061754       151.5848
2016    18      4       0.7141891       140.2693
2016    18      5       0.4065416       93.61108
2016    18      6       0.3588903       85.92171
2016    18      7       0.5134175       111.9181
2016    19      0       0.4675135       104.8073
2016    19      1       0.5166591       110.3104
2016    19      2       0.5760178       118.2892
2016    19      3       0.8156592       149.4378
2016    19      4       0.8628994       155.1182
2016    19      5       1.084622        178.1942
2016    19      6       1.191941        187.2927
2016    19      7       1.17539         185.9962
2016    20      0       1.133731        181.1344
2016    20      1       1.030689        171.6963
2016    20      2       0.8684056       155.4222
2016    20      3       0.9228364       161.4503
2016    20      4       1.241217        190.2437
2016    20      5       1.340241        198.2946
2016    20      6       1.384279        202.1556
2016    20      7       1.388908        202.6102
2016    21      0       1.24892         193.2158
2016    21      1       1.036229        176.0936
2016    21      2       0.9238485       164.9491
2016    21      3       0.7490593       145.2559
2016    21      4       0.7834396       149.4829
2016    21      5       0.8464101       156.6465
2016    21      6       0.9328408       165.5559
2016    21      7       1.034154        175.7698
2016    22      0       1.108355        182.9399
2016    22      1       1.19467         189.9358
2016    22      2       1.132616        185.3878
2016    22      3       1.111269        183.1541
2016    22      4       1.019143        174.4869
2016    22      5       0.9824686       170.4854
2016    22      6       0.9738025       169.2379
2016    22      7       0.9930048       170.1276
2016    23      0       1.163549        183.7311
2016    23      1       1.50783         207.3386
2016    23      2       1.654513        216.7843
2016    23      3       1.824829        224.9106
2016    23      4       1.853865        226.5907
2016    23      5       1.547892        211.5917
2016    23      6       1.416851        204.072
2016    23      7       1.491101        208.6685
2016    24      0       1.562973        212.5658
2016    24      1       1.325799        197.6866
2016    24      2       1.147741        183.872
2016    24      3       1.189006        187.2541
2016    24      4       1.35854         199.8248
2016    24      5       1.582989        213.2653
2016    24      6       1.875199        227.3223
2016    24      7       1.986442        231.7448
2016    25      0       2.124505        236.4651
2016    25      1       2.027863        232.7907
2016    25      2       1.827737        223.9911
2016    25      3       1.681393        216.735
2016    25      4       1.516847        207.5929
2016    25      5       1.073013        176.5069
2016    25      6       0.7527887       142.4054
2016    25      7       0.5861566       120.5842
2016    26      0       0.4053841       92.11814
2016    26      1       0.3171116       76.12482
2016    26      2       0.3152775       76.05088
2016    26      3       0.4042262       91.50763
2016    26      4       0.5848308       120.028
2016    26      5       0.7580935       144.1778
2016    26      6       0.8512593       155.9924
2016    26      7       0.9847578       169.2234
2016    27      0       1.14388         183.232
2016    27      1       1.059515        174.4203
2016    27      2       0.9211138       161.0603
2016    27      3       1.036914        171.7526
2016    27      4       0.7722881       143.9542
2016    27      5       0.5810236       121.5772
2016    27      6       0.5519246       118.0409
2016    27      7       0.6532889       131.8604
2016    28      0       0.7908842       148.3387
2016    28      1       0.8709713       156.8011
2016    28      2       0.7389976       142.7741
2016    28      3       0.6810909       135.6794
2016    28      4       0.7645422       145.9318
2016    28      5       0.8410703       154.5835
2016    28      6       0.8774702       158.7277
2016    28      7       0.8430816       154.8034
2016    29      0       0.7388641       142.2432
2016    29      1       0.6745662       133.9941
2016    29      2       0.6285801       128.0276
2016    29      3       0.6378568       128.9944
2016    29      4       0.6682185       132.3579
2016    29      5       0.6759569       133.8148
2016    29      6       0.6433918       129.8414
2016    29      7       0.6265627       127.7652
2016    30      0       0.5982458       123.7532
2016    30      1       0.5760267       120.7471
2016    30      2       0.6026185       124.7368
2016    30      3       0.5877485       122.4728
2016    30      4       0.5901065       122.5274
2016    30      5       0.67994         134.8645
2016    30      6       0.809331        150.6843
2016    30      7       0.9096088       160.9211
2016    31      0       0.9408635       163.4474
2016    31      1       1.012107        169.745
2016    31      2       1.140094        180.9196
2016    31      3       1.591091        211.5749
2016    31      4       1.501694        207.1558
2016    31      5       1.091921        178.3611
2016    31      6       0.9408877       164.0352
2016    31      7       0.6847497       135.298
2017    1       0       0.5409369       118.2565
2017    1       1       0.4092167       95.94026
2017    1       2       0.4003379       94.24602
2017    1       3       0.3928171       93.37396
2017    1       4       0.2499417       65.71094
2017    1       5       0.2210116       59.61795
2017    1       6       0.2099995       57.15535
2017    1       7       0.2130052       57.79744
2017    2       0       0.1686158       47.79009
2017    2       1       0.1749715       49.08877
2017    2       2       0.2256787       59.91151
2017    2       3       0.277858        70.37126
2017    2       4       0.3224857       78.37764
2017    2       5       0.355903        84.82395
2017    2       6       0.4019342       93.07112
2017    2       7       0.4263701       97.80025
2017    3       0       0.4488343       101.6777
2017    3       1       0.4201329       96.11058
2017    3       2       0.4453692       100.2983
2017    3       3       0.4518086       101.399
2017    3       4       0.4464638       100.4191
2017    3       5       0.5068463       110.4155
2017    3       6       0.5384008       114.8837
2017    3       7       0.4781733       106.0161
2017    4       0       0.4747474       105.9487
2017    4       1       0.6158661       127.7358
2017    4       2       0.851819        156.4353
2017    4       3       1.004256        171.2004
2017    4       4       1.399251        200.3105
2017    4       5       1.498662        204.218
2017    4       6       1.354636        194.8002
2017    4       7       0.9880911       165.5808
2017    5       0       0.6495663       128.4847
2017    5       1       0.3626617       84.49193
2017    5       2       0.4148673       92.93321
2017    5       3       0.7450851       139.7662
2017    5       4       1.06114         172.011
2017    5       5       1.153477        180.8295
2017    5       6       1.30798         193.2097
2017    5       7       1.4222          201.097
2017    6       0       1.210636        186.9496
2017    6       1       1.20799         186.8761
2017    6       2       1.233398        190.0933
2017    6       3       0.777567        147.6266
2017    6       4       0.6911797       136.9202
2017    6       5       0.6641078       133.0169
2017    6       6       0.6524425       130.463
2017    6       7       0.7286241       140.1165
2017    7       0       1.285536        193.4161
2017    7       1       1.509881        209.7691
2017    7       2       1.39927         204.025
2017    7       3       1.271197        195.3138
2017    7       4       0.9248704       165.5586
2017    7       5       0.3638657       87.21329
2017    7       6       0.1816133       50.0989
2017    7       7       0.1555922       42.47088
2017    8       0       0.182141        47.717
2017    8       1       0.2871034       68.43748
2017    8       2       0.4086371       90.12292
2017    8       3       0.5319252       110.0899
2017    8       4       0.6699933       130.6157
2017    8       5       0.7077361       136.8994
2017    8       6       0.8241804       151.6997
2017    8       7       0.9621513       167.3773
2017    9       0       1.124103        183.2078
2017    9       1       1.1422          185.4922
2017    9       2       1.186162        188.5398
2017    9       3       1.222993        191.0955
2017    9       4       1.249353        193.1395
2017    9       5       1.228073        191.9325
2017    9       6       1.110656        181.9724
2017    9       7       1.039602        175.3445
2017    10      0       1.047505        176.3004
2017    10      1       1.081493        179.8154
2017    10      2       1.114656        182.6152
2017    10      3       1.062444        177.8876
2017    10      4       0.9812283       170.1143
2017    10      5       0.9456186       166.5862
2017    10      6       0.8829162       160.1282
2017    10      7       0.7405706       143.684
2017    11      0       0.6542705       132.447
2017    11      1       0.6027481       124.8973
2017    11      2       0.5564591       118.0028
2017    11      3       0.4866052       107.3869
2017    11      4       0.442663        100.2635
2017    11      5       0.383745        90.48179
2017    11      6       0.4107566       95.03348
2017    11      7       0.4564715       102.0083
2017    12      0       0.5271094       112.8235
2017    12      1       0.7084849       137.4752
2017    12      2       0.8485708       154.313
2017    12      3       0.7717844       145.7335
2017    12      4       0.6771455       134.3974
2017    12      5       0.6266635       127.8112
2017    12      6       0.7225439       140.7132
2017    12      7       0.7590959       145.0214
2017    13      0       0.7705108       146.0822
2017    13      1       0.7508143       143.4247
2017    13      2       0.7447387       143.0083
2017    13      3       0.8285625       152.7282
2017    13      4       0.8883946       159.1273
2017    13      5       0.9756677       167.8767
2017    13      6       0.8287492       152.6104
2017    13      7       0.4202259       95.2172
2017    14      0       0.2592573       64.35402
2017    14      1       0.2129783       54.49531
2017    14      2       0.2440547       60.51931
2017    14      3       0.2481156       61.30096
2017    14      4       0.1590345       44.01129
2017    14      5       0.1221609       36.20236
2017    14      6       0.1802656       49.11326
2017    14      7       0.2080464       54.12603
2017    15      0       0.2649208       65.40597
2017    15      1       0.7081563       136.6124
2017    15      2       1.232983        187.2127
2017    15      3       0.9744446       162.8064
2017    15      4       0.8846863       153.7091
2017    15      5       0.9079533       156.1192
2017    15      6       0.8595508       150.9145
2017    15      7       0.9082703       156.1966
2017    16      0       0.8118073       146.1037
2017    16      1       0.7481473       138.5069
2017    16      2       0.7390766       137.2033
2017    16      3       0.6114934       121.0722
2017    16      4       0.4402479       96.10626
2017    16      5       0.340744        79.75558
2017    16      6       0.288177        70.732
2017    16      7       0.2541056       64.48028
2017    17      0       0.1757066       48.22967
2017    17      1       0.1914395       51.26501
2017    17      2       0.1901504       51.42214
2017    17      3       0.2041814       54.5799
2017    17      4       0.2345402       60.49499
2017    17      5       0.3014994       73.71567
2017    17      6       0.3145515       76.7881
2017    17      7       0.3760344       87.89303
2017    18      0       0.4763843       105.7012
2017    18      1       0.5486884       118.0364
2017    18      2       0.5754336       122.3233
2017    18      3       0.5890339       124.5668
2017    18      4       0.543982        117.4412
2017    18      5       0.5174313       112.435
2017    18      6       0.4632456       103.5269
2017    18      7       0.3745557       89.18078
2017    19      0       0.3676825       87.54793
2017    19      1       0.3542266       85.19536
2017    19      2       0.2968036       74.51523
2017    19      3       0.234781        61.85277
2017    19      4       0.221328        58.99784
2017    19      5       0.209585        56.79817
2017    19      6       0.2753762       70.89183
2017    19      7       0.2846138       72.69665
2017    20      0       0.2386899       63.32956
2017    20      1       0.2165422       58.54
2017    20      2       0.1924931       53.19064
2017    20      3       0.200866        54.79713
2017    20      4       0.3579705       86.60316
2017    20      5       0.4371793       101.4948
2017    20      6       0.6063031       128.3152
2017    20      7       1.047845        178.7772
2017    21      0       1.062924        180.8312
2017    21      1       0.9640522       171.3683
2017    21      2       0.8799654       162.1288
2017    21      3       0.7973766       152.3224
2017    21      4       0.7578294       147.8982
2017    21      5       0.7029348       141.7637
2017    21      6       0.6431404       134.4595
2017    21      7       0.5695732       123.9312
2017    22      0       0.5087133       114.3491
2017    22      1       0.4337386       101.2549
2017    22      2       0.3876923       92.30328
2017    22      3       0.3451453       83.65488
2017    22      4       0.4326736       99.36743
2017    22      5       0.6120517       127.7693
2017    22      6       0.6630405       134.7128
2017    22      7       0.6822875       137.2268
2017    23      0       0.7162034       141.887
2017    23      1       0.9157741       165.4261
2017    23      2       1.032752        176.7232
2017    23      3       1.253331        194.7847
2017    23      4       1.46813         208.5488
2017    23      5       1.600104        215.8686
2017    23      6       1.548919        213.0352
2017    23      7       1.245343        192.87
2017    24      0       0.9412737       165.7398
2017    24      1       0.6906466       136.5885
2017    24      2       0.5439435       115.8252
2017    24      3       0.4187304       95.21868
2017    24      4       0.3388306       80.41129
2017    24      5       0.312784        75.21398
2017    24      6       0.3831888       88.45443
2017    24      7       0.3794989       88.10795
2017    25      0       0.3577317       84.35429
2017    25      1       0.3039856       74.53987
2017    25      2       0.2965819       72.82744
2017    25      3       0.3041555       74.15537
2017    25      4       0.3547545       83.60789
2017    25      5       0.4395357       99.05519
2017    25      6       0.5473201       116.9838
2017    25      7       0.4143032       95.8042
2017    26      0       0.2470432       64.18339
2017    26      1       0.2268501       59.58391
2017    26      2       0.2037603       54.7716
2017    26      3       0.2029438       54.50189
2017    26      4       0.1993969       53.84988
2017    26      5       0.2364506       61.81511
2017    26      6       0.2836666       71.4891
2017    26      7       0.3007988       74.25645
2017    27      0       0.3190435       77.99243
2017    27      1       0.2923279       73.35661
2017    27      2       0.2590055       66.44766
2017    27      3       0.2405149       62.30369
2017    27      4       0.2585905       65.98317
2017    27      5       0.3093503       75.7105
2017    27      6       0.2813187       70.95902
2017    27      7       0.2737711       69.16159
2017    28      0       0.29625         73.0868
2017    28      1       0.2951038       72.98163
2017    28      2       0.3605104       84.73055
2017    28      3       0.3917244       90.43402
2017    28      4       0.3697084       86.45515
2017    28      5       0.3579425       84.00973
2017    28      6       0.3821743       87.67464
2017    28      7       0.388935        88.50773
2017    29      0       0.415026        92.71654
2017    29      1       0.4394048       97.39632
2017    29      2       0.4449396       98.35909
2017    29      3       0.4422214       98.25374
2017    29      4       0.466313        102.449
2017    29      5       0.5114883       109.8803
2017    29      6       0.5279          112.3903
2017    29      7       0.5587834       116.9422
2017    30      0       0.5919853       121.4785
2017    30      1       0.6474631       129.2198
2017    30      2       0.7476377       142.5237
2017    30      3       0.8456261       153.8492
2017    30      4       0.802804        148.8572
2017    30      5       0.7204623       138.7581
2017    30      6       0.7387655       140.9504
2017    30      7       0.7789686       145.3437
2017    31      0       0.8161455       149.5536
2017    31      1       0.7647618       144.1781
2017    31      2       0.6900515       135.4044
2017    31      3       0.6848719       134.6061
2017    31      4       0.7358481       140.7338
2017    31      5       0.7956994       147.8936
2017    31      6       0.6940364       136.0853
2017    31      7       0.7444093       142.236
2018    1       0       0.6097507       126.2604
2018    1       1       0.5216358       112.639
2018    1       2       0.4819175       106.296
2018    1       3       0.5138485       111.3183
2018    1       4       0.8004544       147.8718
2018    1       5       1.315703        194.4955
2018    1       6       1.679923        217.0697
2018    1       7       1.823203        223.4865
2018    2       0       1.856764        225.5018
2018    2       1       1.496357        207.914
2018    2       2       1.409002        202.88
2018    2       3       1.122545        182.1083
2018    2       4       0.8664963       157.3869
2018    2       5       0.7662557       144.6561
2018    2       6       0.6909378       134.2567
2018    2       7       0.7081512       135.9723
2018    3       0       0.8242459       150.1361
2018    3       1       0.5768417       120.0011
2018    3       2       0.5740436       120.1078
2018    3       3       0.8516424       155.7406
2018    3       4       1.273209        192.4958
2018    3       5       1.348946        197.9694
2018    3       6       1.7548          220.9122
2018    3       7       1.423797        203.6167
2018    4       0       1.290527        193.7105
2018    4       1       1.334018        196.3376
2018    4       2       1.229683        187.7917
2018    4       3       1.59048         211.5115
2018    4       4       1.24162         189.5521
2018    4       5       1.668805        216.3919
2018    4       6       1.895645        227.2165
2018    4       7       1.866145        226.492
2018    5       0       1.713237        219.4418
2018    5       1       1.564858        212.077
2018    5       2       1.491739        208.7295
2018    5       3       1.648909        217.6833
2018    5       4       1.430252        205.3985
2018    5       5       1.364796        200.697
2018    5       6       1.423194        203.0592
2018    5       7       1.843924        223.772
2018    6       0       1.780864        221.3104
2018    6       1       1.717001        218.77
2018    6       2       1.724965        218.8208
2018    6       3       1.757838        219.4251
2018    6       4       1.516169        207.7209
2018    6       5       1.477153        205.216
2018    6       6       1.462611        204.3446
2018    6       7       1.211997        187.302
2018    7       0       0.9422049       163.498
2018    7       1       0.601175        123.2989
2018    7       2       0.5181999       111.0718
2018    7       3       0.5651539       118.0469
2018    7       4       0.3600096       84.99808
2018    7       5       0.2242531       58.40266
2018    7       6       0.2154549       56.03267
2018    7       7       0.2392441       60.38347
2018    8       0       0.3208592       75.74172
2018    8       1       0.4245854       93.23964
2018    8       2       0.4190346       92.25791
2018    8       3       0.4159887       92.0189
2018    8       4       0.498402        105.7607
2018    8       5       0.3679092       85.84619
2018    8       6       0.2501598       64.65639
2018    8       7       0.2308461       60.86471
2018    9       0       0.2015293       54.88423
2018    9       1       0.187085        51.42023
2018    9       2       0.1740282       48.27856
2018    9       3       0.1607663       45.14026
2018    9       4       0.1495058       42.5005
2018    9       5       0.1514115       43.18206
2018    9       6       0.1776899       49.24855
2018    9       7       0.1982152       53.81788
2018    10      0       0.1930389       52.61046
2018    10      1       0.1933579       52.56846
2018    10      2       0.1855395       50.74007
2018    10      3       0.172953        47.98738
2018    10      4       0.2328386       61.35268
2018    10      5       0.2516682       65.31064
2018    10      6       0.3903174       92.73381
2018    10      7       0.4397762       101.0768
2018    11      0       0.5036878       111.301
2018    11      1       0.5798934       122.371
2018    11      2       0.6277083       129.2782
2018    11      3       0.6852116       137.0131
2018    11      4       0.5870869       123.8025
2018    11      5       0.5436163       116.5202
2018    11      6       0.5329783       115.4443
2018    11      7       0.5158907       112.6993
2018    12      0       0.5276949       113.8245
2018    12      1       0.6223615       127.5087
2018    12      2       0.7103449       138.9995
2018    12      3       0.8125101       151.9179
2018    12      4       0.9324164       165.5054
2018    12      5       0.9629162       168.6461
2018    12      6       1.164433        187.6723
2018    12      7       1.268255        196.8701
2018    13      0       1.199588        191.5442
2018    13      1       1.516379        212.287
2018    13      2       1.351081        203.0677
2018    13      3       1.289492        198.6076
2018    13      4       1.307476        198.9193
2018    13      5       1.109826        184.1302
2018    13      6       0.8981989       164.1422
2018    13      7       0.8213138       154.4239
2018    14      0       0.8411841       157.0871
2018    14      1       0.906429        164.3748
2018    14      2       0.9030194       163.9086
2018    14      3       0.8709058       160.4484
2018    14      4       0.8234194       154.3256
2018    14      5       0.8799734       160.1138
2018    14      6       0.8596126       157.2331
2018    14      7       0.7170012       139.791
2018    15      0       0.7612827       146.4572
2018    15      1       0.8978343       162.1755
2018    15      2       0.8730866       158.7135
2018    15      3       0.7656269       145.4192
2018    15      4       0.6521817       130.8936
2018    15      5       0.6393008       129.0655
2018    15      6       0.6055888       124.366
2018    15      7       0.59192         122.0001
2018    16      0       0.5455835       115.3654
2018    16      1       0.4603826       102.509
2018    16      2       0.4753685       105.3088
2018    16      3       0.5307529       113.8186
2018    16      4       0.6026254       124.5448
2018    16      5       0.7427893       143.5201
2018    16      6       0.986472        170.4822
2018    16      7       1.217199        190.0808
2018    17      0       1.382868        201.788
2018    17      1       1.487275        208.4108
2018    17      2       1.363941        200.1963
2018    17      3       1.141485        183.134
2018    17      4       1.081579        177.6255
2018    17      5       0.9928935       169.3079
2018    17      6       0.9778285       167.6715
2018    17      7       1.005756        170.3839
2018    18      0       0.9429268       164.1692
2018    18      1       0.8238648       151.4609
2018    18      2       0.6961724       135.5288
2018    18      3       0.5192741       110.2944
2018    18      4       0.3960836       90.02002
2018    18      5       0.3776621       86.6457
2018    18      6       0.3257752       77.51423
2018    18      7       0.3194706       76.32524
2018    19      0       0.2237849       57.83139
2018    19      1       0.2153334       56.04989
2018    19      2       0.2075745       54.32179
2018    19      3       0.2590582       64.44932
2018    19      4       0.3604119       82.41694
2018    19      5       0.4933213       103.186
2018    19      6       0.5688758       114.3753
2018    19      7       0.5375551       110.7508
2018    20      0       0.4228526       93.52564
2018    20      1       0.3735866       85.48179
2018    20      2       0.369157        84.96107
2018    20      3       0.3432195       80.55102
2018    20      4       0.3215939       76.82395
2018    20      5       0.3886231       89.0384
2018    20      6       0.4284622       95.93964
2018    20      7       0.4997464       107.4844
2018    21      0       0.5633243       118.4198
2018    21      1       0.6651514       132.1942
2018    21      2       0.671394        133.2916
2018    21      3       0.581685        120.7663
2018    21      4       0.5210853       110.9826
2018    21      5       0.4677282       102.5925
2018    21      6       0.3715285       85.7796
2018    21      7       0.4507533       99.2314
2018    22      0       0.4792965       103.0556
2018    22      1       0.5796254       117.9473
2018    22      2       0.6220793       125.1388
2018    22      3       0.4919015       106.2799
2018    22      4       0.3173868       76.01556
2018    22      5       0.2003587       52.92006
2018    22      6       0.1674276       46.06024
2018    22      7       0.1509473       42.51284
2018    23      0       0.1395534       39.77599
2018    23      1       0.1401065       39.91697
2018    23      2       0.1403166       40.2197
2018    23      3       0.1314148       38.35999
2018    23      4       0.1180218       35.31693
2018    23      5       0.1313062       38.4667
2018    23      6       0.1846258       50.63231
2018    23      7       0.2970309       74.14202
2018    24      0       0.3961625       92.61506
2018    24      1       0.618006        128.2383
2018    24      2       0.8971798       162.9691
2018    24      3       0.7861634       149.8044
2018    24      4       0.5896471       123.3382
2018    24      5       0.5799253       121.8207
2018    24      6       0.5279515       113.9438
2018    24      7       0.4968456       108.9977
2018    25      0       0.2754537       69.25779
2018    25      1       0.1976248       53.29695
2018    25      2       0.1837452       50.54232
2018    25      3       0.2170312       57.77403
2018    25      4       0.1821999       49.99402
2018    25      5       0.1394141       40.08732
2018    25      6       0.1607807       44.86794
2018    25      7       0.222378        58.45763
2018    26      0       0.2978048       73.86409
2018    26      1       0.2939568       73.10731
2018    26      2       0.3243961       79.07972
2018    26      3       0.3602947       86.51655
2018    26      4       0.43998         101.0493
2018    26      5       0.4994905       110.9544
2018    26      6       0.7656931       149.3489
2018    26      7       1.119081        185.2462
2018    27      0       1.208328        191.9059
2018    27      1       1.24963         194.2149
2018    27      2       1.230714        191.7024
2018    27      3       1.231275        190.8629
2018    27      4       1.332699        196.9704
2018    27      5       1.370455        198.8249
2018    27      6       1.360548        197.1814
2018    27      7       1.273698        190.7839
2018    28      0       0.9116969       158.9182
2018    28      1       0.6067337       121.4263
2018    28      2       0.5854241       118.4981
2018    28      3       0.5545138       114.4903
2018    28      4       0.4803261       104.1713
2018    28      5       0.4468222       99.27103
2018    28      6       0.4553219       100.4646
2018    28      7       0.4253678       95.23
2018    29      0       0.4550905       99.09984
2018    29      1       0.4734106       102.3155
2018    29      2       0.4622868       100.692
2018    29      3       0.4273425       94.62203
2018    29      4       0.3948275       89.41878
2018    29      5       0.4217935       94.35329
2018    29      6       0.3212          77.36356
2018    29      7       0.2803738       69.98497
2018    30      0       0.3206069       77.80279
2018    30      1       0.2821858       70.64372
2018    30      2       0.2709085       68.26596
2018    30      3       0.1933333       51.94064
2018    30      4       0.1489785       42.09874
2018    30      5       0.1602321       44.69033
2018    30      6       0.1921677       51.90988
2018    30      7       0.2198077       58.04035
2018    31      0       0.2476215       63.74523
2018    31      1       0.2594737       65.6665
2018    31      2       0.2895985       71.65978
2018    31      3       0.322842        77.7791
2018    31      4       0.3046215       74.21394
2018    31      5       0.3024345       73.92751
2018    31      6       0.3124689       75.93257
2018    31      7       0.2957911       72.59418
