####################################################################################################
# Month: 07Jul                                                                                     #
# Station: ROB                                                                                     #
# Frequency: 230 GHz                                                                               #
# Columns are: year    day     segment         tau     Tb (K)                                      #
####################################################################################################
2009    1       0       0.5446632       114.3995
2009    1       1       0.5197859       110.3051
2009    1       2       0.3991116       90.42554
2009    1       3       0.236606        59.34661
2009    1       4       0.1777725       46.61712
2009    1       5       0.1345231       37.05749
2009    1       6       0.1340272       36.81525
2009    1       7       0.1896014       48.47378
2009    2       0       0.2298265       56.87038
2009    2       1       0.3156684       73.80985
2009    2       2       0.3573178       81.74751
2009    2       3       0.4192631       92.73866
2009    2       4       0.3759758       86.27647
2009    2       5       0.3577941       83.52151
2009    2       6       0.352298        82.44627
2009    2       7       0.3555391       82.78008
2009    3       0       0.3728878       85.67526
2009    3       1       0.3534643       82.08647
2009    3       2       0.3213419       75.95727
2009    3       3       0.2350047       59.5119
2009    3       4       0.2637309       64.93753
2009    3       5       0.219198        56.44347
2009    3       6       0.2295889       58.27139
2009    3       7       0.173996        46.47394
2009    4       0       0.1746715       46.21435
2009    4       1       0.2717584       66.36175
2009    4       2       0.2785051       67.74903
2009    4       3       0.2710182       66.33503
2009    4       4       0.3406544       79.0713
2009    4       5       0.4019193       89.93721
2009    4       6       0.340612        79.09246
2009    4       7       0.3798802       86.51769
2009    5       0       0.3680095       84.9542
2009    5       1       0.272638        66.88037
2009    5       2       0.2604789       64.66734
2009    5       3       0.3174077       75.44433
2009    5       4       0.3207735       75.98063
2009    5       5       0.2724672       67.02312
2009    5       6       0.2947956       71.51847
2009    5       7       0.3454388       80.68199
2009    6       0       0.4027333       90.80098
2009    6       1       0.435339        96.90344
2009    6       2       0.2289461       59.04346
2009    6       3       0.1503822       41.76829
2009    6       4       0.1285081       36.59112
2009    6       5       0.08465959      26.03499
2009    6       6       0.07246123      23.12646
2009    6       7       0.08761772      26.74796
2009    7       0       0.08115941      25.11855
2009    7       1       0.06647968      21.58333
2009    7       2       0.05224798      17.79853
2009    7       3       0.05684303      18.77233
2009    7       4       0.07240814      22.5251
2009    7       5       0.08408693      25.2455
2009    7       6       0.08770168      26.23093
2009    7       7       0.08561558      25.69104
2009    8       0       0.1034041       29.57799
2009    8       1       0.1131583       31.85739
2009    8       2       0.07152201      22.58553
2009    8       3       0.05822312      19.43389
2009    8       4       0.06107852      20.19959
2009    8       5       0.05706555      19.24648
2009    8       6       0.06514027      21.28837
2009    8       7       0.07248013      23.08608
2009    9       0       0.0635372       20.8475
2009    9       1       0.06343577      20.83943
2009    9       2       0.06748606      21.89736
2009    9       3       0.0830799       25.78252
2009    9       4       0.1112879       32.55042
2009    9       5       0.1452796       40.41328
2009    9       6       0.1583433       43.03612
2009    9       7       0.15621         42.39096
2009    10      0       0.2433055       59.63215
2009    10      1       0.3619935       81.78146
2009    10      2       0.2502304       61.96734
2009    10      3       0.2022264       52.4088
2009    10      4       0.1672557       45.06999
2009    10      5       0.1113827       32.50058
2009    10      6       0.09162343      27.71221
2009    10      7       0.1134693       32.88646
2009    11      0       0.1552137       42.52048
2009    11      1       0.1492769       41.37239
2009    11      2       0.1695549       46.09021
2009    11      3       0.2111588       55.15402
2009    11      4       0.2530599       64.24465
2009    11      5       0.2550621       64.9045
2009    11      6       0.2316842       59.92315
2009    11      7       0.211549        55.38697
2009    12      0       0.1912388       50.74169
2009    12      1       0.1878159       49.85571
2009    12      2       0.1897437       50.09246
2009    12      3       0.1843937       48.95151
2009    12      4       0.1951691       51.05364
2009    12      5       0.2359421       59.34857
2009    12      6       0.3229093       76.03073
2009    12      7       0.4667196       100.633
2009    13      0       0.3845154       86.91372
2009    13      1       0.2183345       55.94612
2009    13      2       0.1819249       48.51661
2009    13      3       0.1610402       44.11158
2009    13      4       0.1396848       39.38794
2009    13      5       0.1319209       37.59225
2009    13      6       0.1199734       34.87414
2009    13      7       0.1089533       32.43265
2009    14      0       0.09689586      29.54037
2009    14      1       0.111025        32.51979
2009    14      2       0.2018197       52.23375
2009    14      3       0.2851017       69.74135
2009    14      4       0.3220384       77.26818
2009    14      5       0.5074902       107.9703
2009    14      6       0.5717651       117.5333
2009    14      7       0.4780001       103.307
2009    15      0       0.4453673       98.09815
2009    15      1       0.5162695       109.4069
2009    15      2       0.5775913       119.0313
2009    15      3       0.3802876       87.43426
2009    15      4       0.319089        76.35628
2009    15      5       0.2828685       69.47623
2009    15      6       0.2399853       61.07895
2009    15      7       0.2065661       54.22674
2009    16      0       0.175511        47.46384
2009    16      1       0.1394784       39.26741
2009    16      2       0.1161431       33.83662
2009    16      3       0.1004899       30.15226
2009    16      4       0.1108962       32.62789
2009    16      5       0.111961        32.76579
2009    16      6       0.1128559       32.91971
2009    16      7       0.1117605       32.87853
2009    17      0       0.1304095       37.33825
2009    17      1       0.1331716       37.96944
2009    17      2       0.1502138       41.8925
2009    17      3       0.1557969       42.90692
2009    17      4       0.1580149       43.34346
2009    17      5       0.1855959       49.49188
2009    17      6       0.178714        48.01053
2009    17      7       0.1555258       43.09044
2009    18      0       0.1445266       40.93747
2009    18      1       0.1538444       43.12414
2009    18      2       0.1579404       43.88714
2009    18      3       0.1540428       42.78827
2009    18      4       0.1612315       44.24937
2009    18      5       0.1748743       47.40124
2009    18      6       0.2060855       54.4465
2009    18      7       0.1462701       40.92071
2009    19      0       0.1042257       31.09428
2009    19      1       0.1038488       30.93117
2009    19      2       0.1051766       31.09972
2009    19      3       0.08195591      25.32363
2009    19      4       0.08353153      25.43666
2009    19      5       0.133909        36.62983
2009    19      6       0.212423        53.06189
2009    19      7       0.1989358       50.24632
2009    20      0       0.2042885       51.40173
2009    20      1       0.3059213       71.52173
2009    20      2       0.3475163       79.35831
2009    20      3       0.2546655       62.0662
2009    20      4       0.3289419       76.26327
2009    20      5       0.3088329       72.49606
2009    20      6       0.2771362       67.07812
2009    20      7       0.3447617       80.28889
2009    21      0       0.3359461       78.49465
2009    21      1       0.3572968       82.06072
2009    21      2       0.415064        91.70536
2009    21      3       0.4160388       91.69498
2009    21      4       0.4234194       92.97393
2009    21      5       0.4487377       96.92741
2009    21      6       0.5531062       112.4576
2009    21      7       0.5997778       120.1335
2009    22      0       0.3992573       89.45964
2009    22      1       0.3338889       77.95486
2009    22      2       0.286151        68.6881
2009    22      3       0.2890263       69.12736
2009    22      4       0.2039056       51.90306
2009    22      5       0.1998431       51.18648
2009    22      6       0.1410816       38.57234
2009    22      7       0.1067882       30.82779
2009    23      0       0.05469563      18.20482
2009    23      1       0.04861368      16.60063
2009    23      2       0.04607869      16.02166
2009    23      3       0.04193019      15.12175
2009    23      4       0.03955735      14.47591
2009    23      5       0.05121553      17.28513
2009    23      6       0.0622826       19.99013
2009    23      7       0.08344401      25.13361
2009    24      0       0.08798076      26.44969
2009    24      1       0.08831921      26.60233
2009    24      2       0.08207497      25.23559
2009    24      3       0.07488879      23.51586
2009    24      4       0.09121521      27.37582
2009    24      5       0.1143          32.77949
2009    24      6       0.1296984       36.23701
2009    24      7       0.1455964       39.86139
2009    25      0       0.1465868       40.35004
2009    25      1       0.145314        40.20922
2009    25      2       0.1358804       38.24688
2009    25      3       0.1379442       38.58459
2009    25      4       0.1627085       43.55994
2009    25      5       0.202128        51.64519
2009    25      6       0.2173653       54.99992
2009    25      7       0.2299275       57.73212
2009    26      0       0.1688996       45.53366
2009    26      1       0.1204833       34.78933
2009    26      2       0.1026083       30.48769
2009    26      3       0.09441259      28.29023
2009    26      4       0.07724869      23.9171
2009    26      5       0.0867938       26.09576
2009    26      6       0.1033591       30.05142
2009    26      7       0.109817        31.64781
2009    27      0       0.1418016       38.89721
2009    27      1       0.1777773       46.3978
2009    27      2       0.1581771       42.28852
2009    27      3       0.1533805       41.10431
2009    27      4       0.1605166       42.52978
2009    27      5       0.1555348       41.45576
2009    27      6       0.1510217       40.46708
2009    27      7       0.1606679       42.45533
2009    28      0       0.1652867       43.35387
2009    28      1       0.1590095       42.13968
2009    28      2       0.1470238       39.94113
2009    28      3       0.1276211       35.95902
2009    28      4       0.1159201       33.50842
2009    28      5       0.1078796       31.66293
2009    28      6       0.101066        30.11179
2009    28      7       0.08876959      27.14842
2009    29      0       0.05760244      19.31972
2009    29      1       0.04941362      17.23333
2009    29      2       0.05187373      17.81383
2009    29      3       0.06174699      20.20797
2009    29      4       0.06033161      19.85232
2009    29      5       0.07175725      22.59925
2009    29      6       0.1110785       31.95942
2009    29      7       0.1582116       42.74815
2009    30      0       0.1599667       43.17716
2009    30      1       0.1161723       32.9838
2009    30      2       0.143089        39.41996
2009    30      3       0.1271478       35.68336
2009    30      4       0.1285715       36.02272
2009    30      5       0.1478248       40.23627
2009    30      6       0.1509321       41.21165
2009    30      7       0.1639365       44.08157
2009    31      0       0.1609576       43.18276
2009    31      1       0.181005        47.0946
2009    31      2       0.2607575       63.24329
2009    31      3       0.2847004       68.72821
2009    31      4       0.2097719       54.38614
2009    31      5       0.2625028       64.90925
2009    31      6       0.3222186       76.51358
2009    31      7       0.2981529       71.58037
2010    1       0       0.1202662       34.78927
2010    1       1       0.1072185       31.93905
2010    1       2       0.109203        32.48032
2010    1       3       0.1119442       33.03541
2010    1       4       0.1138041       33.48578
2010    1       5       0.1293114       37.10774
2010    1       6       0.1451714       40.67205
2010    1       7       0.1582006       43.36537
2010    2       0       0.166684        45.17329
2010    2       1       0.1613074       43.99948
2010    2       2       0.1694784       45.70432
2010    2       3       0.1725209       46.24284
2010    2       4       0.1528547       41.84708
2010    2       5       0.1448481       40.03135
2010    2       6       0.1573748       42.86547
2010    2       7       0.1768945       47.15735
2010    3       0       0.1637406       44.37309
2010    3       1       0.1391939       38.78013
2010    3       2       0.1240445       35.27289
2010    3       3       0.1241389       35.35247
2010    3       4       0.1254752       35.76285
2010    3       5       0.1192571       34.49085
2010    3       6       0.1031749       30.69596
2010    3       7       0.09821921      29.45928
2010    4       0       0.1009351       30.19048
2010    4       1       0.1087693       32.15157
2010    4       2       0.1264088       36.28873
2010    4       3       0.1441112       40.30414
2010    4       4       0.1451855       40.47356
2010    4       5       0.1471982       40.84762
2010    4       6       0.2886597       70.48364
2010    4       7       0.3791196       87.30164
2010    5       0       0.3690668       85.51076
2010    5       1       0.3417776       80.54711
2010    5       2       0.296054        71.92166
2010    5       3       0.2644581       65.74432
2010    5       4       0.2262895       57.96475
2010    5       5       0.2175571       56.22507
2010    5       6       0.1817934       47.72246
2010    5       7       0.2232826       55.54293
2010    6       0       0.277459        65.8794
2010    6       1       0.2604072       62.6939
2010    6       2       0.2636403       63.56996
2010    6       3       0.4119671       90.27877
2010    6       4       0.3392068       78.719
2010    6       5       0.4805154       102.2381
2010    6       6       0.4695424       100.5258
2010    6       7       0.4854945       102.2188
2010    7       0       0.4435324       95.7757
2010    7       1       0.2998877       71.14938
2010    7       2       0.209012        53.32584
2010    7       3       0.1728693       45.56128
2010    7       4       0.1945543       49.96484
2010    7       5       0.2203238       55.56939
2010    7       6       0.2260886       57.19354
2010    7       7       0.236865        59.62751
2010    8       0       0.2191479       56.19812
2010    8       1       0.2124432       54.75352
2010    8       2       0.2338459       58.69126
2010    8       3       0.2318884       58.60252
2010    8       4       0.2282303       58.33095
2010    8       5       0.2016297       52.84081
2010    8       6       0.2174288       55.99614
2010    8       7       0.2176097       55.91274
2010    9       0       0.199942        52.17103
2010    9       1       0.189718        49.90904
2010    9       2       0.1751411       46.73248
2010    9       3       0.169082        45.53018
2010    9       4       0.1468342       40.69665
2010    9       5       0.1399918       39.05355
2010    9       6       0.1427042       39.8176
2010    9       7       0.1532956       42.39
2010    10      0       0.1378477       39.03274
2010    10      1       0.1085852       32.1208
2010    10      2       0.09779407      29.41717
2010    10      3       0.09064718      27.61434
2010    10      4       0.08300611      25.67819
2010    10      5       0.07739423      24.27995
2010    10      6       0.08470088      25.96279
2010    10      7       0.07835843      24.35551
2010    11      0       0.07680471      23.93241
2010    11      1       0.08653714      26.20287
2010    11      2       0.09992852      29.2916
2010    11      3       0.1258546       35.09754
2010    11      4       0.3305263       76.13903
2010    11      5       0.3121466       74.77732
2010    11      6       0.1859858       49.49101
2010    11      7       0.08481943      25.97771
2010    12      0       0.05156897      17.62848
2010    12      1       0.0403363       14.70179
2010    12      2       0.0408403       14.79194
2010    12      3       0.02967433      11.98937
2010    12      4       0.03241931      12.70937
2010    12      5       0.03780936      14.11722
2010    12      6       0.05026483      17.36175
2010    12      7       0.05364592      18.2623
2010    13      0       0.05786876      19.30904
2010    13      1       0.06169469      20.21589
2010    13      2       0.06565313      21.11972
2010    13      3       0.06005161      19.71273
2010    13      4       0.07183899      22.50576
2010    13      5       0.112464        32.10282
2010    13      6       0.1220757       34.3688
2010    13      7       0.1061582       30.8103
2010    14      0       0.09205622      27.68848
2010    14      1       0.08171629      25.27752
2010    14      2       0.0743742       23.42607
2010    14      3       0.07484396      23.27359
2010    14      4       0.1003011       29.00945
2010    14      5       0.08517826      25.80243
2010    14      6       0.08201389      24.92339
2010    14      7       0.08682392      25.85102
2010    15      0       0.09972661      28.94442
2010    15      1       0.1036343       29.95458
2010    15      2       0.1147607       32.50068
2010    15      3       0.1275852       35.37327
2010    15      4       0.1584404       42.21589
2010    15      5       0.1572024       41.65615
2010    15      6       0.1398529       37.69962
2010    15      7       0.1045727       29.86684
2010    16      0       0.1222873       34.13025
2010    16      1       0.1066079       30.4479
2010    16      2       0.09755999      28.39525
2010    16      3       0.08855424      26.35103
2010    16      4       0.08207997      24.82097
2010    16      5       0.0794226       24.2166
2010    16      6       0.08506604      25.58815
2010    16      7       0.08273226      25.06822
2010    17      0       0.07430535      23.07083
2010    17      1       0.06960222      21.91964
2010    17      2       0.10062         29.08662
2010    17      3       0.1448769       38.77834
2010    17      4       0.1425664       38.42958
2010    17      5       0.1234556       34.35248
2010    17      6       0.1127261       32.15465
2010    17      7       0.1185528       33.55832
2010    18      0       0.1161428       33.05644
2010    18      1       0.111179        31.96811
2010    18      2       0.1066236       30.92986
2010    18      3       0.1071657       30.99148
2010    18      4       0.09937118      29.15801
2010    18      5       0.08618779      26.1247
2010    18      6       0.08337466      25.51766
2010    18      7       0.0841152       25.68905
2010    19      0       0.06381503      20.73367
2010    19      1       0.06427865      20.7449
2010    19      2       0.07662388      23.64627
2010    19      3       0.1082112       30.8941
2010    19      4       0.1014786       29.59245
2010    19      5       0.09532284      28.17725
2010    19      6       0.08051763      24.70066
2010    19      7       0.06756009      21.53667
2010    20      0       0.0652886       20.9266
2010    20      1       0.07099923      22.27165
2010    20      2       0.08088954      24.68525
2010    20      3       0.1043365       30.07418
2010    20      4       0.2104239       52.29344
2010    20      5       0.3344882       76.262
2010    20      6       0.4230097       92.2336
2010    20      7       0.3854775       86.80914
2010    21      0       0.2685722       65.32179
2010    21      1       0.2444931       60.63102
2010    21      2       0.2474931       61.12779
2010    21      3       0.2323542       57.78125
2010    21      4       0.1831876       47.50629
2010    21      5       0.247398        60.25107
2010    21      6       0.3059821       71.41086
2010    21      7       0.2449158       59.67564
2010    22      0       0.210337        52.6486
2010    22      1       0.2153744       54.07908
2010    22      2       0.2080418       52.84502
2010    22      3       0.1192293       33.56466
2010    22      4       0.05699645      18.73417
2010    22      5       0.06347572      20.26262
2010    22      6       0.07802751      23.75301
2010    22      7       0.09348545      27.25066
2010    23      0       0.1142554       32.01712
2010    23      1       0.1656037       42.98569
2010    23      2       0.3102552       71.92879
2010    23      3       0.3547341       80.04262
2010    23      4       0.2308029       56.46116
2010    23      5       0.2510617       61.24344
2010    23      6       0.433401        94.56945
2010    23      7       0.4077749       90.48543
2010    24      0       0.3934036       88.13056
2010    24      1       0.3740053       84.43995
2010    24      2       0.3428287       78.65012
2010    24      3       0.3352137       77.13176
2010    24      4       0.3423205       78.04817
2010    24      5       0.3605681       81.07658
2010    24      6       0.368587        82.31935
2010    24      7       0.4095526       89.41312
2010    25      0       0.2732694       65.21883
2010    25      1       0.1736369       45.35258
2010    25      2       0.1311532       36.28423
2010    25      3       0.1092194       31.36799
2010    25      4       0.09649062      28.44467
2010    25      5       0.08801078      26.29716
2010    25      6       0.100233        29.24575
2010    25      7       0.1109112       31.95655
2010    26      0       0.1363307       38.21796
2010    26      1       0.1166905       33.72287
2010    26      2       0.1218447       34.98768
2010    26      3       0.1097043       32.10917
2010    26      4       0.1011745       30.00111
2010    26      5       0.111671        32.59657
2010    26      6       0.1325194       37.50801
2010    26      7       0.1435054       39.99197
2010    27      0       0.1461792       40.69471
2010    27      1       0.1526683       42.04657
2010    27      2       0.1521037       41.69548
2010    27      3       0.1329388       37.20388
2010    27      4       0.1265876       35.6948
2010    27      5       0.1581758       42.72209
2010    27      6       0.2350421       58.596
2010    27      7       0.4101962       90.71804
2010    28      0       0.1315464       37.2727
2010    28      1       0.05114676      17.77522
2010    28      2       0.0379115       14.24173
2010    28      3       0.04191671      15.31868
2010    28      4       0.04456186      15.99473
2010    28      5       0.04858813      16.96499
2010    28      6       0.05655934      19.00953
2010    28      7       0.05892035      19.61805
2010    29      0       0.06029974      19.90688
2010    29      1       0.05634215      18.82278
2010    29      2       0.05804326      19.24853
2010    29      3       0.07367935      23.09521
2010    29      4       0.09860519      28.96831
2010    29      5       0.1345246       36.8804
2010    29      6       0.1302603       35.99244
2010    29      7       0.1527867       40.73451
2010    30      0       0.2127991       52.89646
2010    30      1       0.2582207       61.90478
2010    30      2       0.3499806       79.57725
2010    30      3       0.2960041       69.83395
2010    30      4       0.2481737       60.50773
2010    30      5       0.290098        68.37316
2010    30      6       0.4786686       101.0768
2010    30      7       0.3483799       80.02064
2010    31      0       0.2422588       59.93686
2010    31      1       0.2330128       58.08632
2010    31      2       0.144433        39.16161
2010    31      3       0.08631342      25.73241
2010    31      4       0.0765297       23.36976
2010    31      5       0.116262        32.30911
2010    31      6       0.1897656       48.19876
2010    31      7       0.1966428       49.8959
2011    1       0       0.04850221      16.7515
2011    1       1       0.05390405      18.08787
2011    1       2       0.05652657      18.77078
2011    1       3       0.05783045      19.09267
2011    1       4       0.05780787      19.08601
2011    1       5       0.05827895      19.17371
2011    1       6       0.06154233      19.95411
2011    1       7       0.06355453      20.40819
2011    2       0       0.06903551      21.67031
2011    2       1       0.07173281      22.26447
2011    2       2       0.07998473      24.249
2011    2       3       0.07798526      23.82546
2011    2       4       0.06954083      21.86617
2011    2       5       0.05977124      19.55523
2011    2       6       0.0564317       18.8161
2011    2       7       0.04724495      16.58113
2011    3       0       0.04063098      14.92084
2011    3       1       0.04012469      14.81152
2011    3       2       0.04021025      14.86345
2011    3       3       0.03327385      13.04662
2011    3       4       0.02867481      11.8095
2011    3       5       0.03273017      12.90026
2011    3       6       0.04987967      17.28159
2011    3       7       0.05430658      18.42743
2011    4       0       0.06390093      20.78271
2011    4       1       0.08784635      26.55191
2011    4       2       0.116798        33.33899
2011    4       3       0.1466308       40.03729
2011    4       4       0.1474928       40.08131
2011    4       5       0.1670958       44.46184
2011    4       6       0.1892643       49.43506
2011    4       7       0.1738573       46.33752
2011    5       0       0.1864625       49.11892
2011    5       1       0.2336082       59.11795
2011    5       2       0.2470665       62.1518
2011    5       3       0.2429637       61.46145
2011    5       4       0.200246        52.64543
2011    5       5       0.1815503       48.65769
2011    5       6       0.2032997       53.46351
2011    5       7       0.2057246       54.08437
2011    6       0       0.1815449       48.92116
2011    6       1       0.1538864       42.68789
2011    6       2       0.141169        39.66127
2011    6       3       0.1542126       42.57003
2011    6       4       0.1723179       46.69795
2011    6       5       0.1647892       45.14342
2011    6       6       0.1539188       42.69544
2011    6       7       0.1416413       39.92809
2011    7       0       0.1303017       37.36542
2011    7       1       0.1099802       32.56962
2011    7       2       0.08880416      27.44472
2011    7       3       0.07488444      24.028
2011    7       4       0.08780181      27.18581
2011    7       5       0.1193871       34.86136
2011    7       6       0.1339708       38.39856
2011    7       7       0.1468867       41.43152
2011    8       0       0.211045        55.9916
2011    8       1       0.2312266       59.57937
2011    8       2       0.2826653       69.75247
2011    8       3       0.2699923       67.05583
2011    8       4       0.327451        77.50119
2011    8       5       0.4054059       91.22809
2011    8       6       0.361789        84.20229
2011    8       7       0.3322952       79.33242
2011    9       0       0.3645097       85.61452
2011    9       1       0.4575796       102.5856
2011    9       2       0.5540324       117.7019
2011    9       3       0.7341623       143.4248
2011    9       4       0.8111027       152.9063
2011    9       5       0.6763102       135.74
2011    9       6       0.5970727       124.7111
2011    9       7       0.6011064       125.4516
2011    10      0       0.4045586       94.02229
2011    10      1       0.3498755       83.96983
2011    10      2       0.2808143       70.35366
2011    10      3       0.2432114       62.56843
2011    10      4       0.2219826       58.24201
2011    10      5       0.2103556       55.71343
2011    10      6       0.1943538       51.95834
2011    10      7       0.1699482       46.35283
2011    11      0       0.1499061       41.72912
2011    11      1       0.1688668       46.09675
2011    11      2       0.2048198       54.05015
2011    11      3       0.2165287       56.55928
2011    11      4       0.207976        54.54051
2011    11      5       0.2037959       53.31491
2011    11      6       0.1900005       50.27337
2011    11      7       0.1839028       48.85572
2011    12      0       0.2291437       58.35325
2011    12      1       0.2557701       63.86957
2011    12      2       0.2526742       63.54088
2011    12      3       0.2141543       55.94037
2011    12      4       0.1653029       45.27837
2011    12      5       0.1534085       42.34154
2011    12      6       0.1304019       37.04239
2011    12      7       0.1083702       31.9284
2011    13      0       0.1102141       32.36505
2011    13      1       0.08827337      26.83503
2011    13      2       0.08493494      26.056
2011    13      3       0.08490842      26.10403
2011    13      4       0.09997518      29.67166
2011    13      5       0.1005975       29.97943
2011    13      6       0.09421845      28.46614
2011    13      7       0.08862573      27.14923
2011    14      0       0.09484942      28.64169
2011    14      1       0.1011055       29.95389
2011    14      2       0.1111601       31.98491
2011    14      3       0.133851        37.04635
2011    14      4       0.1471813       39.94871
2011    14      5       0.1803392       47.27464
2011    14      6       0.3131677       74.21829
2011    14      7       0.4943752       105.4658
2011    15      0       0.4956515       105.4526
2011    15      1       0.5012639       105.9983
2011    15      2       0.5054654       106.466
2011    15      3       0.4605792       99.23988
2011    15      4       0.3619535       82.74561
2011    15      5       0.3485055       79.93751
2011    15      6       0.3230917       75.14411
2011    15      7       0.2135434       53.84775
2011    16      0       0.2468897       60.73657
2011    16      1       0.3074769       72.10823
2011    16      2       0.3738741       84.24572
2011    16      3       0.440005        95.70409
2011    16      4       0.4207142       92.77783
2011    16      5       0.3686079       83.73034
2011    16      6       0.2419238       59.86491
2011    16      7       0.1080985       31.24562
2011    17      0       0.08906985      26.85034
2011    17      1       0.07569807      23.64121
2011    17      2       0.06452915      20.71123
2011    17      3       0.05960105      19.50399
2011    17      4       0.04450426      15.76751
2011    17      5       0.0414506       15.05757
2011    17      6       0.05115893      17.50061
2011    17      7       0.05485176      18.38221
2011    18      0       0.05059732      17.30297
2011    18      1       0.05619166      18.7171
2011    18      2       0.121158        34.42335
2011    18      3       0.1262596       35.53347
2011    18      4       0.08357839      25.47758
2011    18      5       0.07058914      22.37087
2011    18      6       0.07328311      22.8597
2011    18      7       0.0624481       20.04024
2011    19      0       0.06992618      21.6758
2011    19      1       0.09842863      28.20387
2011    19      2       0.1313843       35.73821
2011    19      3       0.1251728       34.92035
2011    19      4       0.1189599       33.86624
2011    19      5       0.1030888       30.23387
2011    19      6       0.1058964       30.73293
2011    19      7       0.1162413       33.00706
2011    20      0       0.1256731       35.21457
2011    20      1       0.1389349       38.25513
2011    20      2       0.1539001       41.49447
2011    20      3       0.1675781       44.21439
2011    20      4       0.1754833       45.9895
2011    20      5       0.1782743       46.68429
2011    20      6       0.197786        51.07952
2011    20      7       0.2243891       56.82596
2011    21      0       0.2095795       53.78979
2011    21      1       0.2216708       56.22665
2011    21      2       0.2619159       64.75498
2011    21      3       0.2600773       64.50434
2011    21      4       0.2435004       61.33868
2011    21      5       0.2420371       61.54948
2011    21      6       0.2026855       53.35634
2011    21      7       0.1776814       47.84897
2011    22      0       0.1448009       40.3706
2011    22      1       0.1267683       36.07371
2011    22      2       0.1134247       33.05192
2011    22      3       0.1075116       31.62723
2011    22      4       0.1136626       33.02394
2011    22      5       0.1235933       35.37511
2011    22      6       0.1251165       35.77446
2011    22      7       0.1267867       36.11358
2011    23      0       0.1268141       36.02425
2011    23      1       0.1241701       35.48505
2011    23      2       0.1373767       38.54626
2011    23      3       0.136031        38.27475
2011    23      4       0.1658261       45.40581
2011    23      5       0.1275309       36.33624
2011    23      6       0.1226549       35.33252
2011    23      7       0.1054643       31.40246
2011    24      0       0.0863254       26.77938
2011    24      1       0.07966045      25.14314
2011    24      2       0.08418375      26.21664
2011    24      3       0.09282066      28.34866
2011    24      4       0.1048266       31.30357
2011    24      5       0.1182034       34.47074
2011    24      6       0.122114        35.36286
2011    24      7       0.1436971       40.29941
2011    25      0       0.1743225       47.04093
2011    25      1       0.3124901       75.42039
2011    25      2       0.4800855       103.5466
2011    25      3       0.5040346       105.909
2011    25      4       0.4610749       98.50122
2011    25      5       0.3845983       86.75334
2011    25      6       0.2580984       64.33911
2011    25      7       0.1601857       43.87706
2011    26      0       0.07918433      24.72947
2011    26      1       0.08510012      25.95814
2011    26      2       0.1040927       30.33221
2011    26      3       0.1188031       33.71754
2011    26      4       0.1308108       36.47201
2011    26      5       0.1392048       38.38832
2011    26      6       0.1252461       35.40994
2011    26      7       0.1220485       34.76926
2011    27      0       0.1422337       39.50551
2011    27      1       0.1443602       39.97704
2011    27      2       0.1393889       38.84822
2011    27      3       0.1392441       38.7914
2011    27      4       0.1246872       35.5144
2011    27      5       0.125241        35.60065
2011    27      6       0.1535213       41.83985
2011    27      7       0.1406408       38.78417
2011    28      0       0.1310127       36.79874
2011    28      1       0.1535791       41.70568
2011    28      2       0.1824599       48.03472
2011    28      3       0.2268338       57.48407
2011    28      4       0.2267935       57.31331
2011    28      5       0.2546304       62.98077
2011    28      6       0.4240926       94.58593
2011    28      7       0.4441472       98.57028
2011    29      0       0.3263432       77.36128
2011    29      1       0.2972301       71.82712
2011    29      2       0.235755        59.47481
2011    29      3       0.1894671       49.64678
2011    29      4       0.1373069       38.16346
2011    29      5       0.1422757       39.20348
2011    29      6       0.1460054       39.83597
2011    29      7       0.2048105       52.50175
2011    30      0       0.27052         65.27124
2011    30      1       0.2706834       64.91133
2011    30      2       0.3425022       78.3436
2011    30      3       0.4146522       90.85057
2011    30      4       0.4519122       96.90131
2011    30      5       0.4771344       100.8292
2011    30      6       0.5867847       117.1938
2011    30      7       0.5348359       110.0549
2011    31      0       0.4751921       100.8853
2011    31      1       0.3834588       85.63536
2011    31      2       0.3336213       77.00136
2011    31      3       0.371757        83.75113
2011    31      4       0.3246491       75.52125
2011    31      5       0.2394127       59.2165
2011    31      6       0.2319923       58.01669
2011    31      7       0.2603015       63.94108
2012    1       0       0.9471798       167.1548
2012    1       1       0.7504641       144.5455
2012    1       2       0.755966        145.0039
2012    1       3       0.5816932       120.4999
2012    1       4       0.3525246       82.09996
2012    1       5       0.3257935       77.34386
2012    1       6       0.326037        77.0966
2012    1       7       0.3064016       72.92525
2012    2       0       0.3389647       78.49181
2012    2       1       0.3946015       88.0241
2012    2       2       0.3802083       85.70382
2012    2       3       0.2323042       58.60153
2012    2       4       0.1671481       44.92535
2012    2       5       0.1392483       38.68622
2012    2       6       0.1260345       35.87242
2012    2       7       0.1029037       30.63654
2012    3       0       0.08552311      26.43474
2012    3       1       0.04468238      16.10957
2012    3       2       0.0268137       11.28681
2012    3       3       0.02531394      10.86527
2012    3       4       0.02677043      11.23543
2012    3       5       0.03187863      12.57115
2012    3       6       0.04318631      15.45973
2012    3       7       0.0507096       17.22566
2012    4       0       0.04370574      15.70732
2012    4       1       0.05079981      17.4479
2012    4       2       0.07511165      23.07181
2012    4       3       0.2903347       68.42923
2012    4       4       0.4100677       91.20583
2012    4       5       0.3942607       88.84093
2012    4       6       0.3496338       81.03397
2012    4       7       0.3338187       78.1136
2012    5       0       0.2278945       57.44813
2012    5       1       0.08246748      25.01745
2012    5       2       0.06525738      20.40434
2012    5       3       0.08292385      24.41109
2012    5       4       0.1021164       28.71585
2012    5       5       0.2126904       52.38079
2012    5       6       0.310147        71.6388
2012    5       7       0.2274657       56.04081
2012    6       0       0.1210032       33.78153
2012    6       1       0.09049323      26.79532
2012    6       2       0.09608333      27.96086
2012    6       3       0.09779025      28.36353
2012    6       4       0.1294341       35.23864
2012    6       5       0.1411189       38.15931
2012    6       6       0.1378099       37.67533
2012    6       7       0.1313877       36.44847
2012    7       0       0.1141814       32.80602
2012    7       1       0.09413831      28.18103
2012    7       2       0.08194613      25.32075
2012    7       3       0.09260084      27.61405
2012    7       4       0.09633104      28.31222
2012    7       5       0.09095094      27.1902
2012    7       6       0.08211463      25.42562
2012    7       7       0.09075068      27.47874
2012    8       0       0.1112004       32.27281
2012    8       1       0.1348706       37.72514
2012    8       2       0.1510258       41.2542
2012    8       3       0.173132        46.35436
2012    8       4       0.1813394       48.43483
2012    8       5       0.1666061       45.22285
2012    8       6       0.1546348       42.34591
2012    8       7       0.1605194       43.47687
2012    9       0       0.1598493       43.39213
2012    9       1       0.1552723       42.39402
2012    9       2       0.1734863       46.38286
2012    9       3       0.2153055       55.44511
2012    9       4       0.2201221       56.29077
2012    9       5       0.262652        64.99547
2012    9       6       0.3285726       77.25344
2012    9       7       0.4035258       90.17602
2012    10      0       0.3853581       86.98208
2012    10      1       0.3816354       86.27224
2012    10      2       0.2575875       63.68125
2012    10      3       0.1433029       39.78707
2012    10      4       0.06832386      22.1197
2012    10      5       0.05555899      18.82205
2012    10      6       0.07352429      23.18684
2012    10      7       0.09168532      27.48818
2012    11      0       0.08702339      26.25894
2012    11      1       0.08885861      26.73771
2012    11      2       0.1032731       30.25761
2012    11      3       0.1174173       33.48675
2012    11      4       0.1449064       39.63058
2012    11      5       0.188793        49.70802
2012    11      6       0.2310829       59.10775
2012    11      7       0.1768233       47.3283
2012    12      0       0.1342564       37.48391
2012    12      1       0.1376873       38.02112
2012    12      2       0.1459922       39.97466
2012    12      3       0.1768352       46.99127
2012    12      4       0.2238508       57.28045
2012    12      5       0.2234973       57.35061
2012    12      6       0.2256184       58.28385
2012    12      7       0.1999702       53.1103
2012    13      0       0.1704975       46.76446
2012    13      1       0.1361568       39.13892
2012    13      2       0.1422721       40.38294
2012    13      3       0.1791902       48.56227
2012    13      4       0.2091191       55.03089
2012    13      5       0.2175076       56.63316
2012    13      6       0.1876334       50.10094
2012    13      7       0.1604084       44.07645
2012    14      0       0.1774098       47.83787
2012    14      1       0.1910977       51.02438
2012    14      2       0.1906283       50.89013
2012    14      3       0.1978671       52.24369
2012    14      4       0.2069107       54.03214
2012    14      5       0.21601         55.67442
2012    14      6       0.2516566       62.76395
2012    14      7       0.2456766       61.35064
2012    15      0       0.2210353       55.94456
2012    15      1       0.2413635       59.88781
2012    15      2       0.2643018       64.73883
2012    15      3       0.2796848       68.03636
2012    15      4       0.2412922       60.64044
2012    15      5       0.211653        54.54671
2012    15      6       0.1921677       50.59102
2012    15      7       0.1822515       48.58692
2012    16      0       0.1509545       41.76099
2012    16      1       0.1174181       34.16643
2012    16      2       0.09707236      29.22649
2012    16      3       0.08732737      26.69898
2012    16      4       0.09042665      27.46523
2012    16      5       0.1351266       38.09868
2012    16      6       0.1599385       43.86529
2012    16      7       0.1314643       37.80505
2012    17      0       0.1346363       38.85945
2012    17      1       0.1113793       33.43197
2012    17      2       0.08654316      27.17531
2012    17      3       0.129243        36.96882
2012    17      4       0.1280156       36.71418
2012    17      5       0.112285        32.85209
2012    17      6       0.1161531       33.70522
2012    17      7       0.1093516       32.52052
2012    18      0       0.1317213       38.04287
2012    18      1       0.1597844       44.45578
2012    18      2       0.1662105       45.79826
2012    18      3       0.1812235       48.92554
2012    18      4       0.206305        53.85143
2012    18      5       0.2080905       54.10565
2012    18      6       0.223166        57.11627
2012    18      7       0.233421        59.06303
2012    19      0       0.2117231       54.43391
2012    19      1       0.1516684       41.75555
2012    19      2       0.1546246       42.16851
2012    19      3       0.1543178       42.09091
2012    19      4       0.1333216       37.0683
2012    19      5       0.170478        44.94118
2012    19      6       0.1554225       41.96359
2012    19      7       0.1477968       40.27368
2012    20      0       0.1468996       40.39043
2012    20      1       0.1430865       39.4363
2012    20      2       0.1540295       42.02422
2012    20      3       0.177796        47.76446
2012    20      4       0.1726601       46.71913
2012    20      5       0.1577505       43.38903
2012    20      6       0.1475117       41.00288
2012    20      7       0.1750103       46.89394
2012    21      0       0.2327459       59.07233
2012    21      1       0.2751234       67.97408
2012    21      2       0.462907        102.6343
2012    21      3       0.5946044       123.2257
2012    21      4       0.6963475       137.1027
2012    21      5       0.745884        143.0825
2012    21      6       0.5804642       120.7771
2012    21      7       0.4052463       92.09128
2012    22      0       0.3935848       89.96134
2012    22      1       0.2800999       68.93726
2012    22      2       0.2036133       53.342
2012    22      3       0.1849141       49.44284
2012    22      4       0.1509248       41.97559
2012    22      5       0.1108672       32.60992
2012    22      6       0.1138909       33.1935
2012    22      7       0.1026403       30.42714
2012    23      0       0.1087058       31.76051
2012    23      1       0.1191619       34.18718
2012    23      2       0.1157288       33.33548
2012    23      3       0.1210503       34.53836
2012    23      4       0.1301429       36.56146
2012    23      5       0.1380178       38.32234
2012    23      6       0.1499318       41.06601
2012    23      7       0.1676866       44.85847
2012    24      0       0.2383941       59.43504
2012    24      1       0.2120538       54.40136
2012    24      2       0.150549        41.37093
2012    24      3       0.1110579       32.44345
2012    24      4       0.1026297       30.53734
2012    24      5       0.1083428       31.99525
2012    24      6       0.118874        34.54434
2012    24      7       0.109265        32.33639
2012    25      0       0.08745958      27.14836
2012    25      1       0.0647532       21.4876
2012    25      2       0.05604447      19.25293
2012    25      3       0.05395516      18.73239
2012    25      4       0.05618384      19.32161
2012    25      5       0.0557593       19.20843
2012    25      6       0.06566839      21.77034
2012    25      7       0.0783908       25.00141
2012    26      0       0.07370245      23.81024
2012    26      1       0.07839808      24.90286
2012    26      2       0.1057542       31.2936
2012    26      3       0.12772         36.03105
2012    26      4       0.1316585       37.22966
2012    26      5       0.1252376       35.89349
2012    26      6       0.137769        38.80291
2012    26      7       0.1370431       38.55558
2012    27      0       0.1236229       35.55117
2012    27      1       0.1111409       32.67044
2012    27      2       0.103517        30.90769
2012    27      3       0.09678336      29.23726
2012    27      4       0.09586621      28.97348
2012    27      5       0.1078139       31.74572
2012    27      6       0.1222152       35.16473
2012    27      7       0.1256218       35.95192
2012    28      0       0.1275397       36.37412
2012    28      1       0.1398757       39.16771
2012    28      2       0.1457803       40.28993
2012    28      3       0.145072        39.96243
2012    28      4       0.157951        42.70112
2012    28      5       0.1595476       42.98109
2012    28      6       0.1349619       37.54141
2012    28      7       0.1063194       30.95775
2012    29      0       0.131166        36.67458
2012    29      1       0.1171021       33.37587
2012    29      2       0.08653158      26.12705
2012    29      3       0.06897254      21.81606
2012    29      4       0.06289516      20.21123
2012    29      5       0.06244542      20.12948
2012    29      6       0.06804319      21.56895
2012    29      7       0.06532201      20.99069
2012    30      0       0.06365543      20.61968
2012    30      1       0.06467832      20.90752
2012    30      2       0.07646965      23.90435
2012    30      3       0.1020504       30.05116
2012    30      4       0.1194679       34.01313
2012    30      5       0.1290569       36.16156
2012    30      6       0.1634549       43.66417
2012    30      7       0.1961096       50.49905
2012    31      0       0.1929316       50.02056
2012    31      1       0.2236758       56.69025
2012    31      2       0.2448774       61.14487
2012    31      3       0.2056267       53.00927
2012    31      4       0.1756422       46.7195
2012    31      5       0.1585759       42.99203
2012    31      6       0.1489317       40.93277
2012    31      7       0.1525449       41.82693
2013    1       0       0.1429605       39.20173
2013    1       1       0.183436        48.03122
2013    1       2       0.2147239       54.86802
2013    1       3       0.2552956       63.07252
2013    1       4       0.2817877       69.06618
2013    1       5       0.3097332       74.67221
2013    1       6       0.339563        80.06419
2013    1       7       0.2934309       71.3064
2013    2       0       0.2169619       55.95729
2013    2       1       0.1949034       51.52862
2013    2       2       0.210038        54.58943
2013    2       3       0.2498432       62.78658
2013    2       4       0.256764        64.64367
2013    2       5       0.2767462       68.47989
2013    2       6       0.2875855       70.21132
2013    2       7       0.300651        72.79685
2013    3       0       0.2604401       65.05367
2013    3       1       0.2540454       63.90228
2013    3       2       0.3036803       73.43577
2013    3       3       0.4237807       94.65835
2013    3       4       0.4291128       95.78868
2013    3       5       0.4078815       92.05132
2013    3       6       0.4147586       92.64551
2013    3       7       0.4680504       101.407
2013    4       0       0.4416042       96.91639
2013    4       1       0.4469091       97.85274
2013    4       2       0.5048169       107.2143
2013    4       3       0.543148        113.0194
2013    4       4       0.4544796       99.20355
2013    4       5       0.3640287       83.50964
2013    4       6       0.3691125       84.43997
2013    4       7       0.3854997       87.53342
2013    5       0       0.3622675       83.45181
2013    5       1       0.4002935       90.23016
2013    5       2       0.4528743       99.02195
2013    5       3       0.5279612       110.3539
2013    5       4       0.5852053       118.8136
2013    5       5       0.6969089       133.5364
2013    5       6       0.6204547       125.5359
2013    5       7       0.6899916       134.6302
2013    6       0       0.6449299       128.9624
2013    6       1       0.51803         110.225
2013    6       2       0.3569531       82.12509
2013    6       3       0.3028437       71.60286
2013    6       4       0.2987102       70.62256
2013    6       5       0.4160016       91.33728
2013    6       6       0.3359779       77.54536
2013    6       7       0.2728541       65.83568
2013    7       0       0.2295529       57.68266
2013    7       1       0.2155535       55.53339
2013    7       2       0.2458562       62.04556
2013    7       3       0.2683327       66.64722
2013    7       4       0.269307        66.95334
2013    7       5       0.2743245       67.97348
2013    7       6       0.2515338       63.53323
2013    7       7       0.213224        55.52643
2013    8       0       0.1919793       50.91539
2013    8       1       0.1690291       45.93152
2013    8       2       0.150618        41.65499
2013    8       3       0.134545        37.98228
2013    8       4       0.1491829       41.38729
2013    8       5       0.1639502       44.68189
2013    8       6       0.1661846       45.04376
2013    8       7       0.2085805       54.05549
2013    9       0       0.2322046       59.04559
2013    9       1       0.3019342       73.36551
2013    9       2       0.4374125       98.19366
2013    9       3       0.3840507       88.5081
2013    9       4       0.3561576       83.4853
2013    9       5       0.3257014       77.73176
2013    9       6       0.334421        78.6616
2013    9       7       0.2733827       66.29756
2013    10      0       0.2542232       63.19213
2013    10      1       0.2899386       69.84727
2013    10      2       0.235509        59.39997
2013    10      3       0.2283831       58.35222
2013    10      4       0.2440155       60.53472
2013    10      5       0.275352        66.82414
2013    10      6       0.3293328       77.77097
2013    10      7       0.2543569       63.43868
2013    11      0       0.2198061       56.35984
2013    11      1       0.2004461       52.18095
2013    11      2       0.1584189       43.13688
2013    11      3       0.1624301       44.14578
2013    11      4       0.1419669       39.45242
2013    11      5       0.1296121       36.78694
2013    11      6       0.08439494      26.16018
2013    11      7       0.05138985      17.74591
2013    12      0       0.05249462      17.9197
2013    12      1       0.05650096      18.88419
2013    12      2       0.06236563      20.29021
2013    12      3       0.0691069       21.91848
2013    12      4       0.07710354      24.14912
2013    12      5       0.09444023      28.4156
2013    12      6       0.09922203      29.398
2013    12      7       0.08664476      26.41627
2013    13      0       0.08551088      26.12582
2013    13      1       0.1045476       30.56057
2013    13      2       0.120383        33.99348
2013    13      3       0.1861126       48.86045
2013    13      4       0.2682338       66.69056
2013    13      5       0.2875544       70.74316
2013    13      6       0.3123023       75.61329
2013    13      7       0.3441218       81.78719
2013    14      0       0.3527991       83.38852
2013    14      1       0.3992826       91.75482
2013    14      2       0.4178757       95.19033
2013    14      3       0.4333536       98.04573
2013    14      4       0.396061        91.8879
2013    14      5       0.3710023       87.19621
2013    14      6       0.3611708       85.33
2013    14      7       0.2580283       65.09252
2013    15      0       0.2228443       57.94581
2013    15      1       0.2038945       53.92257
2013    15      2       0.2163208       57.07017
2013    15      3       0.2127404       56.51576
2013    15      4       0.1913525       52.01681
2013    15      5       0.1457559       41.72903
2013    15      6       0.1142705       34.22184
2013    15      7       0.08236596      26.23667
2013    16      0       0.05911446      20.08869
2013    16      1       0.05699486      19.37285
2013    16      2       0.06112567      20.39269
2013    16      3       0.05837572      19.62605
2013    16      4       0.0457209       16.305
2013    16      5       0.04681599      16.64175
2013    16      6       0.05440469      18.62618
2013    16      7       0.05477533      18.75366
2013    17      0       0.0581422       19.63357
2013    17      1       0.06289515      20.85191
2013    17      2       0.06687557      21.80271
2013    17      3       0.06832102      22.15601
2013    17      4       0.0675308       22.03803
2013    17      5       0.08198857      25.57356
2013    17      6       0.100126        30.07962
2013    17      7       0.1199953       34.81262
2013    18      0       0.1392279       39.32421
2013    18      1       0.1575822       43.18924
2013    18      2       0.2123565       54.79964
2013    18      3       0.3017936       72.70702
2013    18      4       0.360114        84.09977
2013    18      5       0.3857463       89.1635
2013    18      6       0.4382314       97.92611
2013    18      7       0.5453748       114.8714
2013    19      0       0.4647792       101.8618
2013    19      1       0.4206202       94.28961
2013    19      2       0.5016797       107.4491
2013    19      3       0.5610721       117.0028
2013    19      4       0.5324895       112.2465
2013    19      5       0.5195611       109.7928
2013    19      6       0.4913319       104.7341
2013    19      7       0.3577816       82.35857
2013    20      0       0.263037        65.02631
2013    20      1       0.2431448       61.26179
2013    20      2       0.221199        56.58968
2013    20      3       0.1427333       39.27155
2013    20      4       0.06411785      20.88441
2013    20      5       0.06912705      22.05782
2013    20      6       0.1030685       30.13392
2013    20      7       0.1192678       33.76941
2013    21      0       0.1512951       40.79513
2013    21      1       0.1045841       30.14895
2013    21      2       0.1095256       31.17021
2013    21      3       0.156882        41.70575
2013    21      4       0.08047329      24.40493
2013    21      5       0.1103545       31.21059
2013    21      6       0.08896121      26.36819
2013    21      7       0.1092916       31.13591
2013    22      0       0.08288745      25.08512
2013    22      1       0.08691065      26.08293
2013    22      2       0.0715478       22.54038
2013    22      3       0.06045076      19.82498
2013    22      4       0.05455314      18.2022
2013    22      5       0.07374601      22.9395
2013    22      6       0.1201902       33.95664
2013    22      7       0.1519026       41.1674
2013    23      0       0.1989811       51.40186
2013    23      1       0.225018        57.27115
2013    23      2       0.2339032       59.55555
2013    23      3       0.2260858       57.99663
2013    23      4       0.2092582       54.51537
2013    23      5       0.1802573       48.46344
2013    23      6       0.1481772       41.29192
2013    23      7       0.1339803       38.03821
2013    24      0       0.1045706       31.22592
2013    24      1       0.1019705       30.49233
2013    24      2       0.09335126      28.49872
2013    24      3       0.08804595      27.17698
2013    24      4       0.09023198      27.68548
2013    24      5       0.09431573      28.69179
2013    24      6       0.1062279       31.67454
2013    24      7       0.1014251       30.54046
2013    25      0       0.09482642      28.95924
2013    25      1       0.1003564       30.35113
2013    25      2       0.1093458       32.56205
2013    25      3       0.109967        32.6767
2013    25      4       0.110774        32.81238
2013    25      5       0.1192077       34.86004
2013    25      6       0.1334392       38.04778
2013    25      7       0.1255305       36.20713
2013    26      0       0.1329028       37.62211
2013    26      1       0.1375812       38.58881
2013    26      2       0.2540397       63.62965
2013    26      3       0.4869915       105.1706
2013    26      4       0.5660933       117.5084
2013    26      5       0.2893832       70.83515
2013    26      6       0.2589907       64.07361
2013    26      7       0.1951404       50.88108
2013    27      0       0.1653234       44.5872
2013    27      1       0.1516713       41.39865
2013    27      2       0.1780757       47.35112
2013    27      3       0.2431233       61.53081
2013    27      4       0.1922289       51.08426
2013    27      5       0.1769274       47.74672
2013    27      6       0.2108011       55.25181
2013    27      7       0.2099213       54.9328
2013    28      0       0.1759609       47.20852
2013    28      1       0.1701943       45.74334
2013    28      2       0.2029911       52.38482
2013    28      3       0.2334257       58.57079
2013    28      4       0.2642957       64.83673
2013    28      5       0.3137889       74.39587
2013    28      6       0.3532992       81.8751
2013    28      7       0.3214924       76.44035
2013    29      0       0.2333895       59.58923
2013    29      1       0.1932502       51.29159
2013    29      2       0.1891507       49.98089
2013    29      3       0.1797237       47.88468
2013    29      4       0.1633043       44.15401
2013    29      5       0.1631835       44.0177
2013    29      6       0.1525893       41.73414
2013    29      7       0.174944        46.88443
2013    30      0       0.2120859       54.56864
2013    30      1       0.2042365       52.7788
2013    30      2       0.2079718       53.50411
2013    30      3       0.1802782       47.93881
2013    30      4       0.1537192       42.13632
2013    30      5       0.1081902       31.7329
2013    30      6       0.1102486       32.10747
2013    30      7       0.113933        32.71395
2013    31      0       0.1238932       34.99562
2013    31      1       0.13093         36.67504
2013    31      2       0.1454344       40.00063
2013    31      3       0.155003        42.16334
2013    31      4       0.1729982       46.14698
2013    31      5       0.1740613       46.40847
2013    31      6       0.1361046       38.06577
2013    31      7       0.1049665       30.87659
2014    1       0       0.1992031       52.02817
2014    1       1       0.1592517       43.73006
2014    1       2       0.1450619       40.35902
2014    1       3       0.1587726       43.01255
2014    1       4       0.1683904       44.44126
2014    1       5       0.148354        40.25085
2014    1       6       0.1361744       37.96495
2014    1       7       0.1302014       36.6686
2014    2       0       0.131165        36.80117
2014    2       1       0.1707837       45.394
2014    2       2       0.1793756       47.37339
2014    2       3       0.3654072       83.4503
2014    2       4       0.4253786       94.2391
2014    2       5       0.3250066       76.63124
2014    2       6       0.1765722       47.04766
2014    2       7       0.0673734       21.35721
2014    3       0       0.06645263      20.69303
2014    3       1       0.08836073      25.73475
2014    3       2       0.06809567      21.10111
2014    3       3       0.0894981       26.43094
2014    3       4       0.1319295       35.79124
2014    3       5       0.1369867       36.74953
2014    3       6       0.1020424       29.22565
2014    3       7       0.09402519      27.59928
2014    4       0       0.2062123       51.34186
2014    4       1       0.2719192       64.49023
2014    4       2       0.2195216       54.22935
2014    4       3       0.2357532       57.64052
2014    4       4       0.2510058       60.63944
2014    4       5       0.2282342       56.32387
2014    4       6       0.2810911       67.01114
2014    4       7       0.3323964       76.938
2014    5       0       0.2921112       69.61141
2014    5       1       0.2189605       55.16098
2014    5       2       0.1707475       45.24162
2014    5       3       0.1877978       48.98652
2014    5       4       0.1246604       35.14276
2014    5       5       0.1095268       31.42929
2014    5       6       0.2110151       53.63151
2014    5       7       0.1854429       48.16722
2014    6       0       0.167684        44.1799
2014    6       1       0.1841273       47.90921
2014    6       2       0.1992276       51.33724
2014    6       3       0.2154922       54.92667
2014    6       4       0.2629681       65.02029
2014    6       5       0.2650189       65.68065
2014    6       6       0.2397624       60.68537
2014    6       7       0.2092663       54.52243
2014    7       0       0.1725607       46.71166
2014    7       1       0.1474855       41.1114
2014    7       2       0.1384747       39.01793
2014    7       3       0.1395685       39.18904
2014    7       4       0.136175        38.38554
2014    7       5       0.137742        38.67503
2014    7       6       0.1318676       37.33517
2014    7       7       0.1138957       33.24177
2014    8       0       0.1050918       31.08786
2014    8       1       0.1041022       30.86449
2014    8       2       0.1079472       31.78318
2014    8       3       0.121299        34.91147
2014    8       4       0.1238559       35.63029
2014    8       5       0.09621462      29.05532
2014    8       6       0.09932359      29.50017
2014    8       7       0.1169976       33.31847
2014    9       0       0.1180156       33.48232
2014    9       1       0.1190794       33.73397
2014    9       2       0.1422794       38.6288
2014    9       3       0.1359288       37.26652
2014    9       4       0.1621397       43.16096
2014    9       5       0.1720595       45.51997
2014    9       6       0.1814189       47.51956
2014    9       7       0.1644795       44.07797
2014    10      0       0.1396983       38.85188
2014    10      1       0.1184711       34.16973
2014    10      2       0.1046594       30.92053
2014    10      3       0.09275026      27.97294
2014    10      4       0.08703878      26.53332
2014    10      5       0.0855577       26.25522
2014    10      6       0.07486262      23.72403
2014    10      7       0.0630304       20.89483
2014    11      0       0.07222092      23.15206
2014    11      1       0.07954765      24.92874
2014    11      2       0.07513192      23.84984
2014    11      3       0.06947995      22.31563
2014    11      4       0.08559308      26.11258
2014    11      5       0.1057319       30.88853
2014    11      6       0.1136971       32.68574
2014    11      7       0.1231013       34.6459
2014    12      0       0.1479756       40.24279
2014    12      1       0.1653796       44.10292
2014    12      2       0.1600938       43.09266
2014    12      3       0.1411357       39.11794
2014    12      4       0.1140763       33.06616
2014    12      5       0.09734883      28.9113
2014    12      6       0.1210357       33.81345
2014    12      7       0.1021256       29.61203
2014    13      0       0.1396578       38.16022
2014    13      1       0.1364726       37.68934
2014    13      2       0.117885        33.56269
2014    13      3       0.1444532       39.50553
2014    13      4       0.1618517       43.53427
2014    13      5       0.187935        49.71382
2014    13      6       0.2138073       55.32152
2014    13      7       0.2108561       54.51992
2014    14      0       0.2069992       53.61975
2014    14      1       0.2557239       63.43208
2014    14      2       0.368043        84.58317
2014    14      3       0.3679427       85.24719
2014    14      4       0.4685524       102.6699
2014    14      5       0.5592027       116.9725
2014    14      6       0.6126049       124.3712
2014    14      7       0.5891291       120.5886
2014    15      0       0.495056        106.3189
2014    15      1       0.4087043       92.28018
2014    15      2       0.2142567       55.37753
2014    15      3       0.1135452       32.86982
2014    15      4       0.09501642      27.98174
2014    15      5       0.1445145       39.13022
2014    15      6       0.1840756       47.79765
2014    15      7       0.1985247       50.82632
2014    16      0       0.3817139       85.35095
2014    16      1       0.5732081       118.0631
2014    16      2       0.541236        114.4725
2014    16      3       0.4782611       105.1618
2014    16      4       0.3088824       75.00164
2014    16      5       0.3564501       83.99207
2014    16      6       0.4103181       93.28474
2014    16      7       0.3537556       84.22313
2014    17      0       0.3323057       79.65724
2014    17      1       0.1939284       51.05073
2014    17      2       0.1360669       37.85603
2014    17      3       0.1305017       36.77632
2014    17      4       0.1357277       38.06384
2014    17      5       0.1408989       39.25545
2014    17      6       0.1267632       35.51617
2014    17      7       0.1652551       44.85795
2014    18      0       0.1800911       48.53578
2014    18      1       0.1800301       48.91252
2014    18      2       0.1802141       48.87798
2014    18      3       0.1729047       47.30658
2014    18      4       0.1492166       41.94314
2014    18      5       0.1393019       39.22587
2014    18      6       0.1269014       36.46651
2014    18      7       0.1089212       32.23565
2014    19      0       0.08561835      26.56139
2014    19      1       0.07387425      23.47052
2014    19      2       0.05966366      20.05721
2014    19      3       0.05643091      19.15277
2014    19      4       0.05483614      18.72456
2014    19      5       0.05419683      18.54621
2014    19      6       0.06142159      20.46754
2014    19      7       0.05913677      19.8287
2014    20      0       0.05837564      19.61685
2014    20      1       0.06331469      20.90935
2014    20      2       0.08069132      25.3367
2014    20      3       0.09048671      27.94516
2014    20      4       0.06872618      22.66224
2014    20      5       0.07327873      23.78132
2014    20      6       0.1012017       30.64139
2014    20      7       0.1209991       35.17731
2014    21      0       0.1432466       40.39176
2014    21      1       0.1553212       43.24392
2014    21      2       0.1749453       47.2122
2014    21      3       0.2227722       57.35712
2014    21      4       0.2467737       61.95347
2014    21      5       0.2673716       65.75362
2014    21      6       0.3475218       80.40024
2014    21      7       0.4041339       90.19578
2014    22      0       0.393032        88.40276
2014    22      1       0.3377193       78.92004
2014    22      2       0.3025454       72.6046
2014    22      3       0.291396        70.29812
2014    22      4       0.230967        58.33021
2014    22      5       0.1915031       50.05195
2014    22      6       0.1876559       48.9531
2014    22      7       0.1547455       41.74225
2014    23      0       0.1029164       30.19188
2014    23      1       0.1012764       29.83325
2014    23      2       0.1120341       32.28839
2014    23      3       0.1088219       31.47674
2014    23      4       0.08029283      24.68414
2014    23      5       0.06739219      21.54478
2014    23      6       0.07844609      24.26819
2014    23      7       0.07535349      23.58575
2014    24      0       0.05390239      18.25594
2014    24      1       0.06788745      21.65929
2014    24      2       0.08055091      24.70543
2014    24      3       0.08829107      26.33812
2014    24      4       0.09923294      28.60499
2014    24      5       0.1032578       29.72856
2014    24      6       0.1331138       36.5601
2014    24      7       0.1719549       45.25773
2014    25      0       0.2117383       53.95503
2014    25      1       0.257439        63.51232
2014    25      2       0.3093317       73.55747
2014    25      3       0.296463        71.30258
2014    25      4       0.2483062       62.25208
2014    25      5       0.1967024       51.66892
2014    25      6       0.1823071       48.3002
2014    25      7       0.2023631       52.27285
2014    26      0       0.2363129       58.29379
2014    26      1       0.2293869       57.26873
2014    26      2       0.1891665       49.44701
2014    26      3       0.1925639       50.02891
2014    26      4       0.2559265       62.30727
2014    26      5       0.3053296       71.96366
2014    26      6       0.5231698       109.169
2014    26      7       0.5345974       111.9732
2014    27      0       0.4500951       97.80003
2014    27      1       0.5263541       109.1077
2014    27      2       0.6050657       120.9158
2014    27      3       0.5687392       117.3659
2014    27      4       0.4635015       101.631
2014    27      5       0.4976293       107.1111
2014    27      6       0.5528933       115.4594
2014    27      7       0.5734343       118.6302
2014    28      0       0.6029029       123.0791
2014    28      1       0.576886        119.8815
2014    28      2       0.6337431       127.9516
2014    28      3       0.7044384       137.2803
2014    28      4       0.6598581       131.1872
2014    28      5       0.5396228       114.3995
2014    28      6       0.4961093       107.9313
2014    28      7       0.4235295       95.22513
2014    29      0       0.4005294       91.10994
2014    29      1       0.3379703       79.47302
2014    29      2       0.3475207       81.33662
2014    29      3       0.4240594       94.03035
2014    29      4       0.3583764       83.52715
2014    29      5       0.1475213       41.08869
2014    29      6       0.086722        26.26631
2014    29      7       0.122335        34.22464
2014    30      0       0.2077386       52.87673
2014    30      1       0.4213828       92.94591
2014    30      2       0.5539588       114.7151
2014    30      3       0.6056872       122.8452
2014    30      4       0.5028156       107.7739
2014    30      5       0.510978        109.5884
2014    30      6       0.6114735       124.3371
2014    30      7       0.4682435       102.4851
2014    31      0       0.3524309       82.1714
2014    31      1       0.3726658       86.04164
2014    31      2       0.5202072       109.8669
2014    31      3       0.5024462       107.5832
2014    31      4       0.5488073       114.4557
2014    31      5       0.578062        118.83
2014    31      6       0.5631506       117.7243
2014    31      7       0.4784459       104.6117
2015    1       0       0.2505502       62.20252
2015    1       1       0.2729567       66.80439
2015    1       2       0.3045021       72.95504
2015    1       3       0.3533642       81.97502
2015    1       4       0.3871409       87.95474
2015    1       5       0.4065037       91.2565
2015    1       6       0.4088615       91.60806
2015    1       7       0.3896056       88.41696
2015    2       0       0.3258773       77.12654
2015    2       1       0.3017071       72.57382
2015    2       2       0.3284262       77.65262
2015    2       3       0.3850821       87.85394
2015    2       4       0.3546918       82.43694
2015    2       5       0.3021703       72.65002
2015    2       6       0.2606384       64.81354
2015    2       7       0.1859296       49.50112
2015    3       0       0.1111818       32.57717
2015    3       1       0.0498735       17.38586
2015    3       2       0.03401586      13.23932
2015    3       3       0.03351133      12.9907
2015    3       4       0.04353142      15.5676
2015    3       5       0.05005938      17.31305
2015    3       6       0.04871501      17.02326
2015    3       7       0.04649352      16.4475
2015    4       0       0.04776398      16.68999
2015    4       1       0.05122991      17.40437
2015    4       2       0.04932976      16.91212
2015    4       3       0.04916695      16.81611
2015    4       4       0.08694805      25.89265
2015    4       5       0.0963027       28.43808
2015    4       6       0.09602257      28.37123
2015    4       7       0.1228289       34.78594
2015    5       0       0.1466094       40.37476
2015    5       1       0.1695353       44.97361
2015    5       2       0.2273128       56.72085
2015    5       3       0.2876974       68.31504
2015    5       4       0.3932425       87.77837
2015    5       5       0.6035575       121.7065
2015    5       6       0.71622         137.5926
2015    5       7       0.6614912       131.8746
2015    6       0       0.4906892       106.037
2015    6       1       0.3170581       75.8927
2015    6       2       0.2142206       55.25102
2015    6       3       0.1805718       47.77136
2015    6       4       0.1730803       45.78882
2015    6       5       0.2384995       59.34805
2015    6       6       0.3651083       83.14657
2015    6       7       0.3536741       81.21581
2015    7       0       0.2609303       63.88404
2015    7       1       0.2087784       53.34814
2015    7       2       0.1629662       43.47664
2015    7       3       0.154051        41.31685
2015    7       4       0.14986         40.32353
2015    7       5       0.1815937       47.05767
2015    7       6       0.224256        56.20464
2015    7       7       0.2441458       60.33556
2015    8       0       0.2078399       53.26719
2015    8       1       0.1716537       45.91203
2015    8       2       0.1813918       48.04708
2015    8       3       0.240414        60.48835
2015    8       4       0.3128803       74.86616
2015    8       5       0.3867588       88.66826
2015    8       6       0.3161384       75.8196
2015    8       7       0.3237993       77.18955
2015    9       0       0.3112275       74.78547
2015    9       1       0.3147441       75.12018
2015    9       2       0.2815524       69.26498
2015    9       3       0.3110311       75.26901
2015    9       4       0.2689659       66.52323
2015    9       5       0.2233732       56.68157
2015    9       6       0.2380591       59.25579
2015    9       7       0.3107044       73.10545
2015    10      0       0.339332        78.52435
2015    10      1       0.3699252       83.9677
2015    10      2       0.351988        81.29738
2015    10      3       0.4015425       89.82524
2015    10      4       0.5299852       110.5346
2015    10      5       0.5826631       118.6756
2015    10      6       0.5246629       110.6094
2015    10      7       0.5648159       116.7824
2015    11      0       0.5845962       119.6279
2015    11      1       0.588729        120.3566
2015    11      2       0.6700052       131.4964
2015    11      3       0.6825908       133.4044
2015    11      4       0.6719648       131.9687
2015    11      5       0.6696025       131.1077
2015    11      6       0.6169745       123.0161
2015    11      7       0.6320211       124.8799
2015    12      0       0.6501985       127.6705
2015    12      1       0.707184        135.7418
2015    12      2       0.7179077       137.3563
2015    12      3       0.6424332       126.8696
2015    12      4       0.554662        115.1853
2015    12      5       0.5589902       115.7139
2015    12      6       0.6358291       125.8013
2015    12      7       0.5877812       119.0276
2015    13      0       0.4799887       102.6586
2015    13      1       0.4056883       90.47588
2015    13      2       0.3224776       75.41357
2015    13      3       0.2023211       51.74481
2015    13      4       0.1282848       35.68455
2015    13      5       0.1085483       31.1499
2015    13      6       0.1502048       40.32813
2015    13      7       0.1419887       38.21212
2015    14      0       0.1147985       31.91718
2015    14      1       0.09762952      28.35036
2015    14      2       0.08528968      25.68949
2015    14      3       0.1215134       34.23237
2015    14      4       0.07393626      23.04419
2015    14      5       0.07327763      22.54516
2015    14      6       0.09170323      26.83446
2015    14      7       0.1140249       32.05357
2015    15      0       0.1259671       34.89369
2015    15      1       0.1377975       37.56614
2015    15      2       0.1687176       44.318
2015    15      3       0.2433462       59.35352
2015    15      4       0.2565583       62.09341
2015    15      5       0.2592017       62.63734
2015    15      6       0.247379        60.26867
2015    15      7       0.2269717       56.11987
2015    16      0       0.1734265       45.50136
2015    16      1       0.1782126       46.22502
2015    16      2       0.1712158       44.9295
2015    16      3       0.1761586       46.42228
2015    16      4       0.1586347       42.87666
2015    16      5       0.09870344      29.06117
2015    16      6       0.1140012       32.51293
2015    16      7       0.1304689       35.97155
2015    17      0       0.1648976       43.63323
2015    17      1       0.1843025       48.0525
2015    17      2       0.2137709       53.91663
2015    17      3       0.1707791       44.45429
2015    17      4       0.1467811       39.21017
2015    17      5       0.1293753       35.8809
2015    17      6       0.1416022       38.86837
2015    17      7       0.1602658       43.38991
2015    18      0       0.1824392       48.49584
2015    18      1       0.2056451       53.64487
2015    18      2       0.2386708       60.62238
2015    18      3       0.2662719       66.26243
2015    18      4       0.2489929       62.89497
2015    18      5       0.2331635       59.52978
2015    18      6       0.2783332       68.52287
2015    18      7       0.3852541       88.00027
2015    19      0       0.4020501       90.43877
2015    19      1       0.2617214       64.40277
2015    19      2       0.12847         36.61169
2015    19      3       0.1022239       30.1385
2015    19      4       0.1435962       38.46744
2015    19      5       0.1183033       33.35462
2015    19      6       0.1214758       34.48871
2015    19      7       0.1442416       39.69511
2015    20      0       0.1494475       40.83821
2015    20      1       0.08598844      26.22056
2015    20      2       0.03976604      14.69725
2015    20      3       0.0312026       12.43383
2015    20      4       0.04219554      15.18417
2015    20      5       0.05644068      18.77033
2015    20      6       0.07313951      22.91319
2015    20      7       0.08136547      24.98014
2015    21      0       0.08432834      25.81025
2015    21      1       0.1065704       30.96798
2015    21      2       0.129667        36.026
2015    21      3       0.1559917       41.9373
2015    21      4       0.2074688       53.27729
2015    21      5       0.2503863       62.46707
2015    21      6       0.2757424       67.60386
2015    21      7       0.2736413       67.46499
2015    22      0       0.2195452       56.7211
2015    22      1       0.2004604       52.74506
2015    22      2       0.2274826       58.05879
2015    22      3       0.2676092       65.74763
2015    22      4       0.3012744       71.6421
2015    22      5       0.2801868       67.74593
2015    22      6       0.2532539       62.92357
2015    22      7       0.2061668       53.68185
2015    23      0       0.1921503       50.73078
2015    23      1       0.1732392       46.72757
2015    23      2       0.1543637       42.54757
2015    23      3       0.1493067       41.3764
2015    23      4       0.1323504       37.4529
2015    23      5       0.1312355       37.18446
2015    23      6       0.152926        42.02835
2015    23      7       0.1668418       45.27412
2015    24      0       0.159362        43.81569
2015    24      1       0.1426912       40.11691
2015    24      2       0.128711        36.93441
2015    24      3       0.128985        36.95328
2015    24      4       0.1431598       39.96116
2015    24      5       0.139049        39.00076
2015    24      6       0.1453223       40.39121
2015    24      7       0.1428723       39.90658
2015    25      0       0.1442453       40.11483
2015    25      1       0.1301279       36.65466
2015    25      2       0.1666709       44.61985
2015    25      3       0.2947521       70.38383
2015    25      4       0.3328479       78.57859
2015    25      5       0.3268705       77.73391
2015    25      6       0.2951124       72.09014
2015    25      7       0.2380377       60.96037
2015    26      0       0.1866435       50.06609
2015    26      1       0.171229        46.53713
2015    26      2       0.1745569       47.145
2015    26      3       0.1908231       50.78854
2015    26      4       0.2210645       57.42736
2015    26      5       0.2613643       65.96068
2015    26      6       0.2627866       66.09769
2015    26      7       0.2511534       63.5242
2015    27      0       0.2459444       62.19026
2015    27      1       0.2553509       64.04371
2015    27      2       0.2730598       67.63861
2015    27      3       0.2781671       68.81131
2015    27      4       0.2847382       70.01911
2015    27      5       0.2954726       71.89352
2015    27      6       0.3080937       74.07242
2015    27      7       0.3306221       78.07194
2015    28      0       0.411176        92.00679
2015    28      1       0.448341        98.78505
2015    28      2       0.3318858       78.9485
2015    28      3       0.27183         67.17798
2015    28      4       0.3020823       72.70761
2015    28      5       0.3500766       81.41606
2015    28      6       0.3789351       86.96078
2015    28      7       0.428347        95.29593
2015    29      0       0.3608993       83.71772
2015    29      1       0.3554849       82.99971
2015    29      2       0.3541163       83.21334
2015    29      3       0.3462005       81.9937
2015    29      4       0.277996        69.17439
2015    29      5       0.2365669       60.79142
2015    29      6       0.2175591       56.7863
2015    29      7       0.2067882       54.45691
2015    30      0       0.1815469       48.60892
2015    30      1       0.1807959       48.31048
2015    30      2       0.1887797       50.04542
2015    30      3       0.2138253       55.33346
2015    30      4       0.2370915       59.97683
2015    30      5       0.3290552       77.14985
2015    30      6       0.3913207       87.96826
2015    30      7       0.3567973       82.33518
2015    31      0       0.3480013       80.8922
2015    31      1       0.4375236       95.49519
2015    31      2       0.3183768       75.3693
2015    31      3       0.1885011       49.6965
2015    31      4       0.1361201       37.5011
2015    31      5       0.212175        54.03514
2015    31      6       0.2690542       65.42648
2015    31      7       0.3624624       81.91362
2016    1       0       0.4318517       95.6136
2016    1       1       0.3637187       84.28557
2016    1       2       0.3535793       82.75019
2016    1       3       0.3517582       82.72046
2016    1       4       0.3023333       73.57104
2016    1       5       0.2527313       63.96916
2016    1       6       0.2534085       64.10691
2016    1       7       0.2892877       71.28986
2016    2       0       0.3592538       84.06975
2016    2       1       0.3909108       89.60948
2016    2       2       0.4136536       93.73936
2016    2       3       0.4143876       94.28171
2016    2       4       0.3837878       88.75758
2016    2       5       0.3209357       76.91713
2016    2       6       0.3152027       75.62051
2016    2       7       0.34247         80.95208
2016    3       0       0.3437476       81.26107
2016    3       1       0.4233553       95.48404
2016    3       2       0.3916252       89.54881
2016    3       3       0.3838536       88.08817
2016    3       4       0.3544566       82.44168
2016    3       5       0.3467995       80.45612
2016    3       6       0.538201        111.6989
2016    3       7       0.4718634       101.2312
2016    4       0       0.3363421       78.11367
2016    4       1       0.2437943       60.53392
2016    4       2       0.2387451       59.64554
2016    4       3       0.2247679       56.83144
2016    4       4       0.228032        57.59789
2016    4       5       0.2216362       56.42372
2016    4       6       0.220191        56.06021
2016    4       7       0.2088345       53.6102
2016    5       0       0.1774912       46.74224
2016    5       1       0.1566939       42.0436
2016    5       2       0.1640728       43.66467
2016    5       3       0.171358        45.28778
2016    5       4       0.1708171       45.2767
2016    5       5       0.1825524       48.04487
2016    5       6       0.1872739       49.26947
2016    5       7       0.1914799       50.27192
2016    6       0       0.1531652       41.83036
2016    6       1       0.1604873       43.56033
2016    6       2       0.1859808       49.0297
2016    6       3       0.1987349       52.01488
2016    6       4       0.1671443       45.13508
2016    6       5       0.1681108       45.10205
2016    6       6       0.147783        40.72881
2016    6       7       0.1486291       41.1631
2016    7       0       0.1330964       37.67019
2016    7       1       0.1233012       35.41616
2016    7       2       0.1317414       37.41836
2016    7       3       0.1368904       38.49885
2016    7       4       0.1212836       34.78603
2016    7       5       0.1109786       32.4794
2016    7       6       0.09580193      28.73842
2016    7       7       0.08979962      27.11105
2016    8       0       0.1118907       32.32039
2016    8       1       0.1359591       37.71321
2016    8       2       0.1492241       40.83239
2016    8       3       0.13489         37.97394
2016    8       4       0.116532        33.77266
2016    8       5       0.1205348       34.62004
2016    8       6       0.1242904       35.0639
2016    8       7       0.1476653       40.08924
2016    9       0       0.2040158       51.87089
2016    9       1       0.3685266       83.26397
2016    9       2       0.2735917       66.01409
2016    9       3       0.196312        50.31605
2016    9       4       0.2260721       56.33785
2016    9       5       0.2112967       53.70766
2016    9       6       0.189522        49.41785
2016    9       7       0.174009        46.22036
2016    10      0       0.1703666       45.42178
2016    10      1       0.1895705       49.16549
2016    10      2       0.2570235       62.43432
2016    10      3       0.2390785       59.12409
2016    10      4       0.2644412       63.90687
2016    10      5       0.2767695       66.63079
2016    10      6       0.4385034       96.88642
2016    10      7       0.4363314       95.59443
2016    11      0       0.4935801       105.3171
2016    11      1       0.4979657       106.6446
2016    11      2       0.6674214       131.7883
2016    11      3       0.599879        122.532
2016    11      4       0.5858714       119.4262
2016    11      5       0.4801667       103.1498
2016    11      6       0.4127339       92.12863
2016    11      7       0.3361898       78.45021
2016    12      0       0.2402056       59.33867
2016    12      1       0.1509187       40.42804
2016    12      2       0.1310811       36.54449
2016    12      3       0.1308946       36.21529
2016    12      4       0.1840958       47.17132
2016    12      5       0.2903745       68.65819
2016    12      6       0.3938693       87.60924
2016    12      7       0.4657383       99.92356
2016    13      0       0.4243947       94.02042
2016    13      1       0.4146574       92.83316
2016    13      2       0.4071271       92.04632
2016    13      3       0.5021368       108.2641
2016    13      4       0.5172102       110.8111
2016    13      5       0.5710619       118.7453
2016    13      6       0.5679062       117.7759
2016    13      7       0.6636319       131.0808
2016    14      0       0.560157        115.6152
2016    14      1       0.6415366       127.0128
2016    14      2       0.5154218       108.7009
2016    14      3       0.4978741       106.4511
2016    14      4       0.2383251       60.0317
2016    14      5       0.1798147       47.84065
2016    14      6       0.1210127       34.4077
2016    14      7       0.09688728      28.57023
2016    15      0       0.07337226      22.70209
2016    15      1       0.08337285      25.04216
2016    15      2       0.103582        29.76065
2016    15      3       0.1212337       33.92241
2016    15      4       0.1383086       37.93279
2016    15      5       0.1287862       35.95631
2016    15      6       0.1011119       29.6606
2016    15      7       0.107996        31.54016
2016    16      0       0.07343768      23.26434
2016    16      1       0.07693665      24.00409
2016    16      2       0.08556857      25.92126
2016    16      3       0.1015069       29.44615
2016    16      4       0.1664777       43.33585
2016    16      5       0.2550091       61.50361
2016    16      6       0.2457037       59.9254
2016    16      7       0.1700848       44.65427
2016    17      0       0.1998157       50.9183
2016    17      1       0.1995989       50.59231
2016    17      2       0.1228364       34.22821
2016    17      3       0.1125971       31.9276
2016    17      4       0.120393        33.72866
2016    17      5       0.2026978       50.98236
2016    17      6       0.292304        68.66122
2016    17      7       0.3681242       83.18339
2016    18      0       0.5224528       109.8408
2016    18      1       0.4575383       100.9617
2016    18      2       0.3344262       79.58614
2016    18      3       0.2324519       59.50548
2016    18      4       0.206008        53.89289
2016    18      5       0.1184419       34.10786
2016    18      6       0.1052582       31.26197
2016    18      7       0.1479656       41.11618
2016    19      0       0.1346937       38.17061
2016    19      1       0.1565085       42.10557
2016    19      2       0.1835702       47.53494
2016    19      3       0.2547222       62.26657
2016    19      4       0.2731938       66.07758
2016    19      5       0.3247301       76.66789
2016    19      6       0.3716051       85.09763
2016    19      7       0.3664463       84.31779
2016    20      0       0.3615536       82.7966
2016    20      1       0.3202739       75.28201
2016    20      2       0.256563        63.10889
2016    20      3       0.2678842       65.48923
2016    20      4       0.3842          87.49922
2016    20      5       0.4085209       92.15525
2016    20      6       0.4122703       93.2156
2016    20      7       0.4075917       92.36975
2016    21      0       0.3561166       83.34144
2016    21      1       0.2947996       72.08131
2016    21      2       0.2614248       65.46473
2016    21      3       0.2124805       55.43053
2016    21      4       0.2219402       57.4667
2016    21      5       0.239513        61.07141
2016    21      6       0.2634287       65.75983
2016    21      7       0.2923212       71.62561
2016    22      0       0.3137133       75.97654
2016    22      1       0.3384487       80.57636
2016    22      2       0.3246577       78.22914
2016    22      3       0.3157211       76.31393
2016    22      4       0.2887578       70.96812
2016    22      5       0.2776099       68.54608
2016    22      6       0.2753371       67.91473
2016    22      7       0.2811593       68.62681
2016    23      0       0.3633421       82.88917
2016    23      1       0.4837025       103.1105
2016    23      2       0.4990564       106.7047
2016    23      3       0.5763173       118.4443
2016    23      4       0.5771421       118.8713
2016    23      5       0.4582852       100.4404
2016    23      6       0.42553         95.17976
2016    23      7       0.4538779       99.99225
2016    24      0       0.4822636       104.5868
2016    24      1       0.388836        88.79608
2016    24      2       0.3312595       78.16476
2016    24      3       0.3533509       82.09487
2016    24      4       0.418743        93.7003
2016    24      5       0.5038357       107.4828
2016    24      6       0.6392177       127.6665
2016    24      7       0.7229344       139.0692
2016    25      0       0.7984152       148.439
2016    25      1       0.7293679       139.7361
2016    25      2       0.6095676       122.9065
2016    25      3       0.5985321       121.3237
2016    25      4       0.5446897       113.1817
2016    25      5       0.370492        85.26907
2016    25      6       0.2769764       67.13964
2016    25      7       0.2209076       56.20424
2016    26      0       0.123728        34.95707
2016    26      1       0.09334152      27.79169
2016    26      2       0.09269741      27.72895
2016    26      3       0.1169608       33.24112
2016    26      4       0.1666025       44.41686
2016    26      5       0.2143111       55.00593
2016    26      6       0.2402218       60.72126
2016    26      7       0.2793922       68.20322
2016    27      0       0.3320295       78.01424
2016    27      1       0.3231047       75.52673
2016    27      2       0.2623104       64.17938
2016    27      3       0.3258939       75.75508
2016    27      4       0.2434649       59.86829
2016    27      5       0.1655481       44.87323
2016    27      6       0.1578937       43.44672
2016    27      7       0.1859462       49.36094
2016    28      0       0.2315729       58.4902
2016    28      1       0.2624063       64.36398
2016    28      2       0.209493        54.34055
2016    28      3       0.1936532       51.07777
2016    28      4       0.2174342       55.96412
2016    28      5       0.241064        60.68873
2016    28      6       0.2481301       62.25358
2016    28      7       0.2384547       60.24981
2016    29      0       0.2098545       54.22319
2016    29      1       0.1913618       50.30922
2016    29      2       0.178597        47.65161
2016    29      3       0.1810465       48.07144
2016    29      4       0.1893181       49.58767
2016    29      5       0.1915529       50.22641
2016    29      6       0.1826751       48.45623
2016    29      7       0.1781464       47.56387
2016    30      0       0.1702829       45.83579
2016    30      1       0.1640694       44.53745
2016    30      2       0.1713376       46.18973
2016    30      3       0.1672386       45.23278
2016    30      4       0.1679876       45.29537
2016    30      5       0.1929876       50.71638
2016    30      6       0.2290997       58.24755
2016    30      7       0.2584237       63.85132
2016    31      0       0.2755088       66.81679
2016    31      1       0.3138721       73.72023
2016    31      2       0.3559851       81.47259
2016    31      3       0.5214865       109.0512
2016    31      4       0.4736575       101.9952
2016    31      5       0.3106378       74.09987
2016    31      6       0.2737032       66.88208
2016    31      7       0.1958978       51.31366
2017    1       0       0.1543904       43.26627
2017    1       1       0.1180836       34.62616
2017    1       2       0.1156536       34.00943
2017    1       3       0.1136677       33.67967
2017    1       4       0.07473636      24.13244
2017    1       5       0.06687638      22.15036
2017    1       6       0.06386298      21.35713
2017    1       7       0.0647009       21.56948
2017    2       0       0.05265458      18.4102
2017    2       1       0.05433306      18.80848
2017    2       2       0.0680301       22.23963
2017    2       3       0.08215231      25.67308
2017    2       4       0.09449292      28.44882
2017    2       5       0.1034098       30.6561
2017    2       6       0.1161203       33.64367
2017    2       7       0.12272         35.35379
2017    3       0       0.1289124       36.8084
2017    3       1       0.1210592       34.75893
2017    3       2       0.1280908       36.35316
2017    3       3       0.129919        36.78155
2017    3       4       0.1283188       36.38955
2017    3       5       0.1450164       40.2537
2017    3       6       0.1539754       42.14205
2017    3       7       0.1368916       38.51608
2017    4       0       0.1361369       38.5242
2017    4       1       0.1758606       47.61982
2017    4       2       0.2433298       61.66021
2017    4       3       0.3094618       74.45659
2017    4       4       0.4802637       103.3453
2017    4       5       0.5641558       114.6128
2017    4       6       0.5278588       109.0611
2017    4       7       0.3462204       79.21133
2017    5       0       0.2059932       52.69503
2017    5       1       0.1075317       31.15899
2017    5       2       0.1202607       33.88448
2017    5       3       0.2262082       56.45639
2017    5       4       0.3543988       80.37854
2017    5       5       0.3838696       86.02853
2017    5       6       0.4303431       94.24222
2017    5       7       0.4645903       99.84063
2017    6       0       0.36831         84.00907
2017    6       1       0.3560877       81.98899
2017    6       2       0.3713225       85.42919
2017    6       3       0.2220302       57.12717
2017    6       4       0.197926        52.03227
2017    6       5       0.189953        50.17756
2017    6       6       0.186224        48.98321
2017    6       7       0.2099405       53.96101
2017    7       0       0.3918177       88.52762
2017    7       1       0.4636235       101.734
2017    7       2       0.4298326       96.71478
2017    7       3       0.3909019       90.11767
2017    7       4       0.2942979       72.48158
2017    7       5       0.1077469       31.99942
2017    7       6       0.05669638      19.23878
2017    7       7       0.04961193      16.8821
2017    8       0       0.05678774      18.53326
2017    8       1       0.08639525      25.54207
2017    8       2       0.122162        33.74091
2017    8       3       0.1634787       42.89368
2017    8       4       0.1912194       49.3092
2017    8       5       0.2011566       51.92069
2017    8       6       0.2331638       58.82316
2017    8       7       0.2738353       67.31961
2017    9       0       0.3178295       76.21483
2017    9       1       0.324023        77.73015
2017    9       2       0.3362545       79.77491
2017    9       3       0.3466725       81.56972
2017    9       4       0.3533873       82.84564
2017    9       5       0.3474489       81.93865
2017    9       6       0.3142927       75.50408
2017    9       7       0.2952472       71.71763
2017    10      0       0.2960248       72.0009
2017    10      1       0.3057691       74.07977
2017    10      2       0.3151332       75.8121
2017    10      3       0.30006         72.86953
2017    10      4       0.2771152       68.33726
2017    10      5       0.2669715       66.32272
2017    10      6       0.2496347       62.88112
2017    10      7       0.2100188       54.70743
2017    11      0       0.1860072       49.55766
2017    11      1       0.1716253       46.2702
2017    11      2       0.1587191       43.36967
2017    11      3       0.1394637       39.10786
2017    11      4       0.1273722       36.35681
2017    11      5       0.1112605       32.72715
2017    11      6       0.118684        34.40371
2017    11      7       0.1309873       37.00197
2017    12      0       0.1502407       41.23242
2017    12      1       0.2132386       54.35815
2017    12      2       0.2535589       62.70859
2017    12      3       0.2223825       56.59739
2017    12      4       0.1920846       50.51596
2017    12      5       0.1785169       47.67839
2017    12      6       0.2054554       53.55051
2017    12      7       0.2157588       55.61491
2017    13      0       0.2191271       56.19617
2017    13      1       0.2137694       55.00171
2017    13      2       0.219634        56.44382
2017    13      3       0.2743149       67.56037
2017    13      4       0.2991745       72.34117
2017    13      5       0.352013        82.22355
2017    13      6       0.3073309       73.97806
2017    13      7       0.1328271       37.25972
2017    14      0       0.07873488      24.12135
2017    14      1       0.065257        20.69706
2017    14      2       0.07356743      22.61894
2017    14      3       0.07469932      22.87846
2017    14      4       0.05052994      17.33543
2017    14      5       0.04069648      14.96488
2017    14      6       0.05640345      18.94551
2017    14      7       0.06392402      20.54715
2017    15      0       0.08309037      25.13814
2017    15      1       0.2638735       64.78038
2017    15      2       0.3991251       88.92185
2017    15      3       0.3328825       76.28893
2017    15      4       0.3550388       80.21692
2017    15      5       0.4031209       88.41339
2017    15      6       0.349763        79.10007
2017    15      7       0.3632638       81.60477
2017    16      0       0.3022363       70.7335
2017    16      1       0.2737693       65.21241
2017    16      2       0.2665103       63.72022
2017    16      3       0.201248        50.80631
2017    16      4       0.1355823       36.96896
2017    16      5       0.1104888       31.53411
2017    16      6       0.0887372       26.72363
2017    16      7       0.07672779      23.97148
2017    17      0       0.05511389      18.66367
2017    17      1       0.05918292      19.5847
2017    17      2       0.05879585      19.62136
2017    17      3       0.06254013      20.60832
2017    17      4       0.07072883      22.51034
2017    17      5       0.08890021      26.9089
2017    17      6       0.09241525      27.93584
2017    17      7       0.1090937       31.82582
2017    18      0       0.1364916       38.41028
2017    18      1       0.1563584       43.24472
2017    18      2       0.1637647       45.004
2017    18      3       0.1675907       45.94584
2017    18      4       0.1550189       42.97738
2017    18      5       0.1476394       41.00007
2017    18      6       0.1328505       37.55288
2017    18      7       0.1087879       32.24515
2017    19      0       0.1069549       31.68751
2017    19      1       0.1031518       30.81433
2017    19      2       0.08749106      27.09632
2017    19      3       0.07063258      22.89094
2017    19      4       0.06696688      21.96234
2017    19      5       0.06377861      21.25087
2017    19      6       0.08168507      25.86689
2017    19      7       0.08413952      26.46397
2017    20      0       0.07173115      23.37345
2017    20      1       0.06583589      21.84886
2017    20      2       0.05937216      20.15839
2017    20      3       0.06165907      20.67678
2017    20      4       0.1044311       31.34861
2017    20      5       0.126199        36.79253
2017    20      6       0.1727959       47.55863
2017    20      7       0.2950228       72.70092
2017    21      0       0.2993988       73.85359
2017    21      1       0.2716522       68.35552
2017    21      2       0.2482152       63.44362
2017    21      3       0.2252367       58.52739
2017    21      4       0.2142719       56.35316
2017    21      5       0.1992353       53.43938
2017    21      6       0.1830759       50.18753
2017    21      7       0.1629096       45.70235
2017    22      0       0.1462431       41.83011
2017    22      1       0.1255687       36.76953
2017    22      2       0.1127861       33.45016
2017    22      3       0.100864        30.31917
2017    22      4       0.1245983       35.98177
2017    22      5       0.1740379       47.39571
2017    22      6       0.1884205       50.52989
2017    22      7       0.1936902       51.65452
2017    23      0       0.2034635       53.86455
2017    23      1       0.2596666       65.74771
2017    23      2       0.2914509       71.93298
2017    23      3       0.3542003       83.69669
2017    23      4       0.4277283       96.47082
2017    23      5       0.5302362       113.2636
2017    23      6       0.5044503       109.2053
2017    23      7       0.363479        84.92393
2017    24      0       0.2716871       67.29851
2017    24      1       0.2038748       53.26974
2017    24      2       0.1609107       43.83183
2017    24      3       0.1221082       34.83012
2017    24      4       0.09931579      29.29079
2017    24      5       0.09204837      27.46488
2017    24      6       0.1112611       32.10775
2017    24      7       0.1102187       31.96455
2017    25      0       0.1041626       30.59261
2017    25      1       0.0894499       27.156
2017    25      2       0.08746626      26.59267
2017    25      3       0.08957929      27.06224
2017    25      4       0.1033823       30.34012
2017    25      5       0.1266957       35.97254
2017    25      6       0.1567033       43.05329
2017    25      7       0.1201777       34.80737
2017    26      0       0.07450445      23.78146
2017    26      1       0.06890826      22.26564
2017    26      2       0.06260896      20.71375
2017    26      3       0.06234498      20.62029
2017    26      4       0.0613089       20.39647
2017    26      5       0.07127875      22.93616
2017    26      6       0.08408671      26.12252
2017    26      7       0.08875424      27.07359
2017    27      0       0.09370453      28.34052
2017    27      1       0.08641129      26.74467
2017    27      2       0.07739446      24.45309
2017    27      3       0.07238087      23.10509
2017    27      4       0.07724932      24.30363
2017    27      5       0.09103272      27.56987
2017    27      6       0.08336783      25.93436
2017    27      7       0.08133425      25.34387
2017    28      0       0.08733087      26.65667
2017    28      1       0.08695695      26.60864
2017    28      2       0.1048219       30.69685
2017    28      3       0.1133123       32.73061
2017    28      4       0.1074777       31.33626
2017    28      5       0.1040615       30.43944
2017    28      6       0.1108698       31.814
2017    28      7       0.1126163       32.11585
2017    29      0       0.1198962       33.70345
2017    29      1       0.1264606       35.40459
2017    29      2       0.1280099       35.77031
2017    29      3       0.1271368       35.68735
2017    29      4       0.1337919       37.28111
2017    29      5       0.1462281       40.17628
2017    29      6       0.1507222       41.16751
2017    29      7       0.1592366       43.02634
2017    30      0       0.168463        44.96111
2017    30      1       0.1840333       48.35387
2017    30      2       0.2121019       54.4598
2017    30      3       0.2392807       60.00974
2017    30      4       0.227845        57.60798
2017    30      5       0.2046564       52.71905
2017    30      6       0.210529        53.90859
2017    30      7       0.2300013       57.73208
2017    31      0       0.2460655       60.9308
2017    31      1       0.2223407       56.39906
2017    31      2       0.1965008       51.22283
2017    31      3       0.2005841       52.00391
2017    31      4       0.2249293       56.91184
2017    31      5       0.2428026       60.54824
2017    31      6       0.2069634       53.43545
2017    31      7       0.2291502       57.94071
2018    1       0       0.1742833       47.01785
2018    1       1       0.1495307       41.30405
2018    1       2       0.1387546       38.8312
2018    1       3       0.149559        41.28356
2018    1       4       0.2540832       62.46706
2018    1       5       0.4122628       91.50849
2018    1       6       0.5535164       114.6708
2018    1       7       0.5868296       119.4718
2018    2       0       0.6252029       125.4231
2018    2       1       0.4809045       104.2781
2018    2       2       0.4490547       99.24298
2018    2       3       0.3410258       80.44982
2018    2       4       0.2466576       62.02041
2018    2       5       0.2280922       57.47203
2018    2       6       0.2115788       53.6965
2018    2       7       0.2287607       56.95507
2018    3       0       0.2626736       63.868
2018    3       1       0.1649245       44.35174
2018    3       2       0.1639783       44.32732
2018    3       3       0.2454955       61.56293
2018    3       4       0.3957039       88.82317
2018    3       5       0.4097888       91.7382
2018    3       6       0.6040824       122.1529
2018    3       7       0.4412154       97.61959
2018    4       0       0.387143        87.49456
2018    4       1       0.4176631       92.64854
2018    4       2       0.3843114       86.45982
2018    4       3       0.5190727       108.7495
2018    4       4       0.3810008       86.53804
2018    4       5       0.5240503       110.368
2018    4       6       0.5999096       122.0964
2018    4       7       0.6127328       124.1865
2018    5       0       0.5805384       119.4866
2018    5       1       0.5270175       111.7051
2018    5       2       0.5165001       110.5648
2018    5       3       0.5850331       121.1082
2018    5       4       0.5096706       109.7805
2018    5       5       0.4893703       106.2313
2018    5       6       0.5117551       108.6902
2018    5       7       0.6870504       132.9705
2018    6       0       0.6734813       131.4975
2018    6       1       0.6074223       122.8874
2018    6       2       0.6291205       125.5489
2018    6       3       0.6759692       130.8902
2018    6       4       0.5883947       119.6417
2018    6       5       0.5860946       119.3084
2018    6       6       0.5728727       117.4816
2018    6       7       0.4284194       94.88821
2018    7       0       0.3142345       74.63191
2018    7       1       0.1782889       47.35834
2018    7       2       0.1498764       41.09204
2018    7       3       0.1626076       43.89846
2018    7       4       0.1055329       31.00004
2018    7       5       0.06797992      21.84521
2018    7       6       0.06537273      21.04195
2018    7       7       0.07190374      22.47673
2018    8       0       0.09437143      27.69179
2018    8       1       0.1386479       37.33838
2018    8       2       0.1471108       39.08799
2018    8       3       0.1313004       35.90029
2018    8       4       0.1436102       38.88929
2018    8       5       0.107023        31.15575
2018    8       6       0.074843        23.82433
2018    8       7       0.06956058      22.57058
2018    9       0       0.06159022      20.64029
2018    9       1       0.05758869      19.52787
2018    9       2       0.05404645      18.54733
2018    9       3       0.05044301      17.57211
2018    9       4       0.04740184      16.76126
2018    9       5       0.04789592      16.96357
2018    9       6       0.05495171      18.83252
2018    9       7       0.06046794      20.26251
2018    10      0       0.05904942      19.87919
2018    10      1       0.05914742      19.87115
2018    10      2       0.05705165      19.30108
2018    10      3       0.0536661       18.4427
2018    10      4       0.06989713      22.6837
2018    10      5       0.07502131      23.97837
2018    10      6       0.1131659       33.52524
2018    10      7       0.1266625       36.62853
2018    11      0       0.1443631       40.63009
2018    11      1       0.1653266       45.15724
2018    11      2       0.1785152       48.09146
2018    11      3       0.1945709       51.56302
2018    11      4       0.1676869       45.81889
2018    11      5       0.1555269       42.78494
2018    11      6       0.1524249       42.30822
2018    11      7       0.1475168       41.16528
2018    12      0       0.1505114       41.58648
2018    12      1       0.1765633       47.28596
2018    12      2       0.2014379       52.55172
2018    12      3       0.2306206       58.81347
2018    12      4       0.2629579       65.59242
2018    12      5       0.2742501       67.76269
2018    12      6       0.3427487       80.83566
2018    12      7       0.3617874       84.96459
2018    13      0       0.3494241       82.69849
2018    13      1       0.455954        100.5857
2018    13      2       0.3805894       88.72966
2018    13      3       0.3628266       85.44331
2018    13      4       0.3837961       88.37743
2018    13      5       0.3134932       76.06585
2018    13      6       0.2530441       64.41029
2018    13      7       0.2315217       59.51853
2018    14      0       0.2371803       60.86436
2018    14      1       0.2554881       64.67901
2018    14      2       0.2545342       64.43829
2018    14      3       0.2456067       62.6365
2018    14      4       0.2321507       59.5881
2018    14      5       0.2478947       62.62431
2018    14      6       0.2422884       61.22073
2018    14      7       0.2028186       52.81107
2018    15      0       0.2155699       55.9707
2018    15      1       0.2538132       63.93373
2018    15      2       0.2470169       62.23348
2018    15      3       0.2169569       55.65375
2018    15      4       0.1853324       48.94342
2018    15      5       0.1817017       48.1336
2018    15      6       0.1721968       46.07234
2018    15      7       0.1683938       45.0983
2018    16      0       0.1557644       42.38448
2018    16      1       0.1322307       37.24905
2018    16      2       0.1364108       38.32403
2018    16      3       0.1516488       41.70165
2018    16      4       0.1714462       46.14046
2018    16      5       0.2104127       54.66239
2018    16      6       0.2787279       68.63847
2018    16      7       0.3662934       84.85049
2018    17      0       0.421594        94.47792
2018    17      1       0.4589257       100.7883
2018    17      2       0.4164852       93.47517
2018    17      3       0.3334968       78.6062
2018    17      4       0.3158584       75.1466
2018    17      5       0.2924702       70.68479
2018    17      6       0.2964961       71.37763
2018    17      7       0.2998888       72.09969
2018    18      0       0.27435         67.14391
2018    18      1       0.2420138       60.7137
2018    18      2       0.2008695       51.97183
2018    18      3       0.1504149       40.87166
2018    18      4       0.1162236       33.04547
2018    18      5       0.1311067       36.29923
2018    18      6       0.1055876       30.51687
2018    18      7       0.1006504       29.37807
2018    19      0       0.06886498      21.87709
2018    19      1       0.06639915      21.2606
2018    19      2       0.06428907      20.70443
2018    19      3       0.07883377      24.14087
2018    19      4       0.1111559       31.36739
2018    19      5       0.162484        42.21328
2018    19      6       0.1882188       47.66328
2018    19      7       0.1725587       44.81001
2018    20      0       0.1256146       34.83162
2018    20      1       0.1095326       31.29211
2018    20      2       0.1079688       31.02606
2018    20      3       0.1007727       29.43026
2018    20      4       0.09470223      28.0825
2018    20      5       0.1127614       32.35092
2018    20      6       0.1235578       34.84243
2018    20      7       0.1431636       39.27201
2018    21      0       0.1607195       43.62589
2018    21      1       0.1885381       49.47105
2018    21      2       0.1902607       49.92358
2018    21      3       0.165974        44.60143
2018    21      4       0.1487907       40.56316
2018    21      5       0.1341837       37.30771
2018    21      6       0.1079853       31.1393
2018    21      7       0.1297058       36.09954
2018    22      0       0.1379199       37.68565
2018    22      1       0.1665148       43.91234
2018    22      2       0.1802136       47.32166
2018    22      3       0.1438774       39.46101
2018    22      4       0.09446755      27.99071
2018    22      5       0.06191306      20.16582
2018    22      6       0.05305075      18.01413
2018    22      7       0.04862134      16.92079
2018    23      0       0.04553168      16.08147
2018    23      1       0.04568153      16.12544
2018    23      2       0.04575659      16.22037
2018    23      3       0.04335075      15.65268
2018    23      4       0.03967603      14.71841
2018    23      5       0.0431888       15.65842
2018    23      6       0.05760544      19.42125
2018    23      7       0.08834967      27.15525
2018    24      0       0.1156074       33.71325
2018    24      1       0.1776297       48.04326
2018    24      2       0.2575254       65.10866
2018    24      3       0.2257242       58.30194
2018    24      4       0.1699053       46.04112
2018    24      5       0.1680718       45.59657
2018    24      6       0.152877        42.15993
2018    24      7       0.1453346       40.41071
2018    25      0       0.08251915      25.52817
2018    25      1       0.06128874      20.30414
2018    25      2       0.05752049      19.43147
2018    25      3       0.06653327      21.73535
2018    25      4       0.05702052      19.25191
2018    25      5       0.04541971      16.18457
2018    25      6       0.05126989      17.67019
2018    25      7       0.06785552      21.93422
2018    26      0       0.08832575      27.01802
2018    26      1       0.08726194      26.75288
2018    26      2       0.09561959      28.80424
2018    26      3       0.1056278       31.43777
2018    26      4       0.1275168       36.77308
2018    26      5       0.1438582       40.59409
2018    26      6       0.2180467       57.37562
2018    26      7       0.317543        77.26385
2018    27      0       0.3426097       81.70671
2018    27      1       0.3539104       83.38956
2018    27      2       0.3486511       81.98189
2018    27      3       0.34954         81.81773
2018    27      4       0.4046005       91.17141
2018    27      5       0.4556678       99.56032
2018    27      6       0.5002346       106.2657
2018    27      7       0.4821982       103.3046
2018    28      0       0.316118        74.4131
2018    28      1       0.17623         45.90937
2018    28      2       0.1680693       44.17866
2018    28      3       0.1587613       42.32751
2018    28      4       0.1382934       38.13741
2018    28      5       0.1290502       36.2164
2018    28      6       0.1312365       36.63479
2018    28      7       0.1229423       34.63929
2018    29      0       0.1312379       36.17762
2018    29      1       0.1362709       37.41168
2018    29      2       0.1331893       36.76856
2018    29      3       0.123654        34.49168
2018    29      4       0.1147086       32.54654
2018    29      5       0.1221268       34.36232
2018    29      6       0.09482308      28.28256
2018    29      7       0.08393448      25.80428
2018    30      0       0.09521761      28.55127
2018    30      1       0.08463621      26.07548
2018    30      2       0.081354        25.23137
2018    30      3       0.06008924      19.88035
2018    30      4       0.04810969      16.81963
2018    30      5       0.0511558       17.61888
2018    30      6       0.05982659      19.87687
2018    30      7       0.06730174      21.82455
2018    31      0       0.0748063       23.67041
2018    31      1       0.07797342      24.29815
2018    31      2       0.08614344      26.29578
2018    31      3       0.0952115       28.39675
2018    31      4       0.09018388      27.16495
2018    31      5       0.08957478      27.0626
2018    31      6       0.09231776      27.74654
2018    31      7       0.08775633      26.60541
