####################################################################################################
# Month: 11Nov                                                                                     #
# Station: SUF                                                                                     #
# Frequency: 230 GHz                                                                               #
# Columns are: year    day     tau     Tb (K)                                                      #
####################################################################################################
2009    1       0.64888549      129.286725
2009    2       0.66638784      128.66855375
2009    3       0.34278961      81.8774425
2009    4       0.51947244      111.47382875
2009    5       0.39122924      90.60557625
2009    6       0.3939327       89.79616625
2009    7       0.4527357       98.92487125
2009    8       0.26417914      64.56185625
2009    9       0.15884635      42.13515875
2009    10      0.10051808      29.1340525
2009    11      0.16849422      45.03476125
2009    12      0.14226236      39.26945
2009    13      0.24810361      60.65416125
2009    14      0.16104194      41.99075375
2009    15      0.05016098      17.29039875
2009    16      0.14872942      40.31856875
2009    17      0.08464774      25.68724875
2009    18      0.051556        17.62948
2009    19      0.04028292      14.66757375
2009    20      0.25853496      63.27376875
2009    21      0.28875082      69.36592875
2009    22      0.46703849      99.96018
2009    23      0.14922518      39.83613625
2009    24      0.41819094      90.59547625
2009    25      0.29021257      67.710865
2009    26      0.10196374      28.76475875
2009    27      0.4749311       102.05438625
2009    28      0.33535788      75.4866125
2009    29      0.12468147      34.89967875
2009    30      0.37553238      82.91932375
2010    1       0.51780355      109.13756
2010    2       0.64446311      128.338
2010    3       0.3568202       75.94411625
2010    4       0.08136302      24.951805
2010    5       0.23854564      58.96976625
2010    6       0.24071665      60.09065125
2010    7       0.12872091      36.12931625
2010    8       0.11258295      33.31755
2010    9       0.11879538      35.08609625
2010    10      0.09867066      29.88128375
2010    11      0.10144957      30.10313875
2010    12      0.14065777      39.02591625
2010    13      0.14069166      39.39372375
2010    14      0.12580169      35.9675225
2010    15      0.07352126      22.914715
2010    16      0.23197456      58.6206775
2010    17      0.17746642      47.5250625
2010    18      0.14409151      40.18873875
2010    19      0.21293524      54.7767425
2010    20      0.26857191      65.22394625
2010    21      0.24808312      60.82727875
2010    22      0.15890585      42.63111875
2010    23      0.1162498       33.221395
2010    24      0.16193564      43.127955
2010    25      0.22640871      56.32286875
2010    26      0.12382473      34.57970125
2010    27      0.07935052      24.1947925
2010    28      0.11040476      31.35620625
2010    29      0.20946041      53.62443375
2010    30      0.24479675      61.01025625
2011    1       0.45542628      98.7246875
2011    2       0.41220156      91.99248625
2011    3       0.46309981      100.0882475
2011    4       0.29743915      70.137515
2011    5       0.31213871      73.7168825
2011    6       0.37495279      85.24070875
2011    7       0.67081042      131.0703125
2011    8       0.39291684      86.9468925
2011    9       0.2840628       68.06576375
2011    10      0.1888122       49.10081125
2011    11      0.22217741      56.3044125
2011    12      0.26391931      64.2831125
2011    13      0.36665521      82.59445
2011    14      0.34075311      74.62431875
2011    15      0.2049569       50.0576475
2011    16      0.40774236      90.92650875
2011    17      0.63171116      122.73656125
2011    18      0.51320788      107.09194625
2011    19      0.35859026      81.7685525
2011    20      0.40024361      87.1171875
2011    21      0.78989731      147.675825
2011    22      0.71502535      137.075625
2011    23      0.58554855      119.3738125
2011    24      0.31714664      74.4312325
2011    25      0.4344724       93.2118075
2011    26      0.46091495      98.99776375
2011    27      0.26707492      64.17429875
2011    28      0.18795966      47.79689
2011    29      0.14062868      38.52545875
2011    30      0.21169052      53.79740875
2012    1       0.83155439      152.528875
2012    2       0.58082871      119.363865
2012    3       0.60882674      122.4180375
2012    4       0.37209515      79.7283
2012    5       0.0742073       23.05487875
2012    6       0.06135138      20.00335625
2012    7       0.08146798      24.95735875
2012    8       0.15117244      41.6605875
2012    9       0.26812567      66.72571
2012    10      0.21631109      56.16494875
2012    11      0.18812752      49.98463
2012    12      0.45795681      98.848525
2012    13      0.10988357      31.01423375
2012    14      0.07359192      22.9145675
2012    15      0.49625366      105.57695375
2012    16      0.20237541      51.24969875
2012    17      0.20089842      51.23108875
2012    18      0.19401034      49.861645
2012    19      0.13459623      36.6381225
2012    20      0.0449634       15.75124875
2012    21      0.0321453       12.5273075
2012    22      0.06279553      20.0307975
2012    23      0.07942773      23.88277625
2012    24      0.07307078      22.8573825
2012    25      0.09747994      27.87958375
2012    26      0.34306032      78.59586625
2012    27      0.33229775      76.18644625
2012    28      0.44943868      95.06596125
2012    29      0.18688795      47.6650425
2012    30      0.17114716      45.30164375
2013    1       0.29493257      69.0117825
2013    2       0.15302846      41.32760625
2013    3       0.11350902      32.50992125
2013    4       0.32162694      75.44816
2013    5       0.26741502      65.76405875
2013    6       0.2107179       54.25465375
2013    7       0.13780617      38.43120375
2013    8       0.07672202      24.02623125
2013    9       0.08786378      26.21931625
2013    10      0.270177        65.5370475
2013    11      0.10814536      31.085985
2013    12      0.0692527       22.10621625
2013    13      0.05870224      19.53382
2013    14      0.05547523      18.61141125
2013    15      0.24341883      58.70657125
2013    16      0.37484925      85.179735
2013    17      0.38101435      87.08201375
2013    18      0.55260822      114.896595
2013    19      0.41202442      91.83027
2013    20      0.11135944      29.91297875
2013    21      0.05160725      17.52619625
2013    22      0.17073128      43.66131125
2013    23      0.44737589      98.15878625
2013    24      0.56182489      115.60994375
2013    25      0.53108457      110.73059625
2013    26      0.38479945      86.227785
2013    27      0.21031608      54.12112
2013    28      0.22611342      57.02645625
2013    29      0.5821026       118.84389
2013    30      0.43844741      97.25634625
2014    1       0.33877099      77.35095375
2014    2       0.69958806      135.6319125
2014    3       0.44173494      95.68597125
2014    4       0.37490586      85.020075
2014    5       0.58158461      118.36891375
2014    6       0.38770789      85.4329225
2014    7       0.3334193       75.62076125
2014    8       0.2312419       54.85444375
2014    9       0.16335609      43.0116825
2014    10      0.24751891      61.711135
2014    11      0.20878368      53.95057
2014    12      0.22933209      58.1278125
2014    13      0.17360225      45.7428075
2014    14      0.24144148      58.86726625
2014    15      0.1279112       35.07175375
2014    16      0.12179585      34.16762375
2014    17      0.33053524      76.90230125
2014    18      0.52275001      109.794135
2014    19      0.5447093       112.4341375
2014    20      0.51251989      107.24697625
2014    21      0.28800598      68.34774125
2014    22      0.10067387      29.176675
2014    23      0.32457665      75.6405625
2014    24      0.28544232      66.66704125
2014    25      0.15644858      41.56435125
2014    26      0.46928091      97.06941375
2014    27      0.43553086      93.89658625
2014    28      0.16613119      44.20640625
2014    29      0.25093974      61.7652625
2014    30      0.33190942      76.04191125
2015    1       0.52812831      109.36254875
2015    2       0.18268989      45.18835375
2015    3       0.38035548      83.16645875
2015    4       0.23033403      55.16478625
2015    5       0.19472758      49.61258625
2015    6       0.14406677      39.35826875
2015    7       0.21160379      54.13348875
2015    8       0.16223522      42.92489375
2015    9       0.14960585      40.46769625
2015    10      0.52642189      110.7510675
2015    11      0.53311028      111.95232375
2015    12      0.49139012      101.95315375
2015    13      0.25854228      60.69222625
2015    14      0.17939412      45.85990375
2015    15      0.19636455      48.251985
2015    16      0.19350108      49.74240375
2015    17      0.36942071      81.84497
2015    18      0.43641804      95.47624
2015    19      0.54470984      113.13761
2015    20      0.30064802      72.2804275
2015    21      0.4100813       91.072425
2015    22      0.23423559      58.97425375
2015    23      0.28647074      69.6658175
2015    24      0.30414679      73.1867675
2015    25      0.19765105      51.36493375
2015    26      0.10188389      29.94909
2015    27      0.15424568      40.41269625
2015    28      0.20347032      51.8274
2015    29      0.26503494      64.04745625
2015    30      0.23791125      59.4356525
2016    1       0.40020516      90.75982625
2016    2       0.3820907       88.72659875
2016    3       0.35861799      80.9451625
2016    4       0.08172959      24.66382625
2016    5       0.09957926      29.01872125
2016    6       0.12707507      35.82241
2016    7       0.16884259      45.12320375
2016    8       0.09118952      27.25737625
2016    9       0.41816209      92.6058325
2016    10      0.324834        77.038635
2016    11      0.23591021      59.8323025
2016    12      0.16249569      43.588495
2016    13      0.22536646      57.177005
2016    14      0.23002182      58.1824225
2016    15      0.25021772      62.47313625
2016    16      0.64198522      126.9529175
2016    17      0.63882792      126.589675
2016    18      0.36837665      84.7230775
2016    19      0.59179884      118.740845
2016    20      0.17003086      44.5880875
2016    21      0.15981394      41.8065075
2016    22      0.1081374       30.58120625
2016    23      0.15464074      40.5928525
2016    24      0.17009954      44.11671875
2016    25      0.32214361      73.85864375
2016    26      0.10189813      28.74965
2016    27      0.07697596      23.62064375
2016    28      0.16030051      43.19425375
2016    29      0.31581226      73.45935875
2016    30      0.18113118      47.71430125
2017    1       0.29513002      72.88277125
2017    2       0.27010944      67.43829125
2017    3       0.4503576       99.67871875
2017    4       0.37142339      85.70356
2017    5       0.44208625      98.71570625
2017    6       0.28800683      70.5856425
2017    7       0.15700079      42.6386025
2017    8       0.20756256      52.3751075
2017    9       0.40637316      90.92924125
2017    10      0.13795471      38.73631125
2017    11      0.33266985      78.4420025
2017    12      0.29161684      70.53685125
2017    13      0.33791244      79.272575
2017    14      0.48244899      102.83893
2017    15      0.28981948      67.3686725
2017    16      0.05828773      19.06227125
2017    17      0.05970763      19.34813125
2017    18      0.10750964      30.700545
2017    19      0.06937308      21.82508125
2017    20      0.063993        20.4945
2017    21      0.07802108      24.07054375
2017    22      0.08372568      25.40698
2017    23      0.23269081      56.92193125
2017    24      0.51884658      108.81835625
2017    25      0.36563082      82.7480075
2017    26      0.21917202      53.00089875
2017    27      0.07434582      22.9519725
2017    28      0.1934438       49.43503125
2017    29      0.20759455      52.2960225
2017    30      0.23289012      55.460765
2018    1       0.2891248       68.81541125
2018    2       0.18295638      46.8564
2018    3       0.1258342       34.66193875
2018    4       0.12618761      35.16647
2018    5       0.08251054      25.21443
2018    6       0.28255142      66.60872875
2018    7       0.54230137      109.12179
2018    8       0.10286658      29.97839625
2018    9       0.20511996      53.03158875
2018    10      0.24646396      61.134735
2018    11      0.25831799      63.28089375
2018    12      0.21437484      53.74576125
2018    13      0.06998573      21.73191
2018    14      0.1280635       34.38599625
2018    15      0.14025752      38.203605
2018    16      0.05623319      18.64492875
2018    17      0.2228837       54.53824625
2018    18      0.2445722       60.86144375
2018    19      0.37659271      84.2155225
2018    20      0.17306133      44.00246
2018    21      0.35113895      77.21312375
2018    22      0.47415148      101.59321625
2018    23      0.57667175      118.3052125
2018    24      0.50536041      101.34617625
2018    25      0.11471354      32.09846125
2018    26      0.62380159      124.3375225
2018    27      0.41307789      91.38260625
2018    28      0.21184689      53.91776375
2018    29      0.12355837      34.8343075
2018    30      0.41494096      90.21310625
