####################################################################################################
# Month: 04Apr                                                                                     #
# Station: KVNYS                                                                                   #
# Frequency: 230 GHz                                                                               #
# Columns are: year    day     segment         tau     Tb (K)                                      #
####################################################################################################
2009    1       0       0.5581261       114.1956
2009    1       1       0.5399488       111.5609
2009    1       2       0.5247839       109.5274
2009    1       3       0.4206066       93.79035
2009    1       4       0.3649815       84.67378
2009    1       5       0.3592135       83.79833
2009    1       6       0.3571668       83.61984
2009    1       7       0.3527942       82.88996
2009    2       0       0.3228057       77.50081
2009    2       1       0.38336         89.13609
2009    2       2       0.4052908       93.65003
2009    2       3       0.4105765       94.72077
2009    2       4       0.3784828       88.69644
2009    2       5       0.3469425       82.34294
2009    2       6       0.3731563       86.21063
2009    2       7       0.3997781       90.24178
2009    3       0       0.5348711       111.7329
2009    3       1       0.7027591       135.9245
2009    3       2       0.7216944       139.1826
2009    3       3       0.6308165       127.9851
2009    3       4       0.4687964       103.0734
2009    3       5       0.5149897       109.827
2009    3       6       0.5108986       109.7401
2009    3       7       0.4908358       106.8293
2009    4       0       0.6895472       135.9297
2009    4       1       0.7481771       144.0162
2009    4       2       0.6993391       138.5892
2009    4       3       0.6632117       133.7789
2009    4       4       0.6593459       132.7799
2009    4       5       0.6552248       132.0068
2009    4       6       0.6789074       135.3659
2009    4       7       0.6704098       134.7417
2009    5       0       0.6780174       135.9159
2009    5       1       0.6182366       127.7597
2009    5       2       0.5317427       115.0764
2009    5       3       0.4827423       107.1793
2009    5       4       0.409705        94.49019
2009    5       5       0.3799972       89.16204
2009    5       6       0.4274347       97.70391
2009    5       7       0.4395321       99.92198
2009    6       0       0.42414         97.28774
2009    6       1       0.5376648       115.7549
2009    6       2       0.591971        124.1689
2009    6       3       0.6473094       131.8651
2009    6       4       0.4971859       108.8306
2009    6       5       0.4334669       98.468
2009    6       6       0.4334039       98.9561
2009    6       7       0.4921695       109.2718
2009    7       0       0.5312171       115.6832
2009    7       1       0.6239368       129.9303
2009    7       2       0.6482436       133.9961
2009    7       3       0.6362999       132.3092
2009    7       4       0.6237133       129.9243
2009    7       5       0.5500152       118.2946
2009    7       6       0.4979429       109.8212
2009    7       7       0.4543028       102.835
2009    8       0       0.4449478       101.6491
2009    8       1       0.5694504       122.3953
2009    8       2       0.5918947       126.4249
2009    8       3       0.5890118       126.1813
2009    8       4       0.5511042       120.2806
2009    8       5       0.5322905       117.0439
2009    8       6       0.5482694       119.4964
2009    8       7       0.5752071       123.9088
2009    9       0       0.6110675       129.5164
2009    9       1       0.7573745       149.9661
2009    9       2       0.7674643       151.8054
2009    9       3       0.7238681       146.1745
2009    9       4       0.6653572       138.3013
2009    9       5       0.6425307       135.0548
2009    9       6       0.6020829       128.8875
2009    9       7       0.4072894       96.33719
2009    10      0       0.5146937       114.9329
2009    10      1       0.7243334       145.9469
2009    10      2       0.6979593       143.0453
2009    10      3       0.5997587       129.053
2009    10      4       0.5366421       119.0557
2009    10      5       0.4981928       112.5135
2009    10      6       0.4835585       109.8225
2009    10      7       0.4615292       105.8364
2009    11      0       0.4474893       103.3108
2009    11      1       0.5785772       124.9037
2009    11      2       0.5974237       127.8275
2009    11      3       0.5753668       123.8923
2009    11      4       0.5706912       122.2165
2009    11      5       0.5400873       117.3047
2009    11      6       0.6005036       125.2396
2009    11      7       0.6727281       134.6277
2009    12      0       0.6592654       133.278
2009    12      1       0.8060676       153.8163
2009    12      2       0.7989471       154.2556
2009    12      3       0.920997        168.6996
2009    12      4       0.9266527       169.0504
2009    12      5       0.9118332       168.1111
2009    12      6       0.943929        171.845
2009    12      7       0.9857831       176.3969
2009    13      0       1.157753        192.4243
2009    13      1       1.566785        221.2776
2009    13      2       1.730976        230.4823
2009    13      3       1.897593        237.0985
2009    13      4       1.929721        238.1146
2009    13      5       1.758284        230.1302
2009    13      6       1.148893        189.6527
2009    13      7       0.8135949       154.2014
2009    14      0       0.693675        139.0564
2009    14      1       0.6888605       139.439
2009    14      2       0.7597752       149.2714
2009    14      3       0.7414082       146.8995
2009    14      4       0.7339463       145.8543
2009    14      5       0.8429448       159.171
2009    14      6       0.8736326       162.6336
2009    14      7       0.9024331       165.4545
2009    15      0       0.8675204       160.747
2009    15      1       1.291015        197.3674
2009    15      2       1.687727        222.7493
2009    15      3       1.839695        229.576
2009    15      4       0.9085078       163.9434
2009    15      5       0.7487352       145.1109
2009    15      6       0.7659494       146.9474
2009    15      7       0.8132928       152.1069
2009    16      0       0.8098698       151.4452
2009    16      1       0.755065        145.3668
2009    16      2       0.7231232       141.3413
2009    16      3       0.6523632       131.8528
2009    16      4       0.4883086       107.5039
2009    16      5       0.3747706       88.14844
2009    16      6       0.3259482       78.8071
2009    16      7       0.33132         79.68441
2009    17      0       0.3686774       86.75161
2009    17      1       0.5035578       110.607
2009    17      2       0.5842256       124.0377
2009    17      3       0.5946425       125.8461
2009    17      4       0.5637437       121.0919
2009    17      5       0.4728306       105.8974
2009    17      6       0.3871553       90.55635
2009    17      7       0.3906978       91.48184
2009    18      0       0.4178546       96.6039
2009    18      1       0.6081077       128.5493
2009    18      2       0.7788          152.442
2009    18      3       0.845896        160.1596
2009    18      4       0.7073901       143.3333
2009    18      5       0.6177726       130.7885
2009    18      6       0.4925844       110.7997
2009    18      7       0.4691008       106.1115
2009    19      0       0.5153781       114.5251
2009    19      1       0.8252033       159.2446
2009    19      2       0.990273        176.9639
2009    19      3       0.9196805       168.8016
2009    19      4       1.085603        185.9869
2009    19      5       1.370705        208.1394
2009    19      6       1.524093        216.4779
2009    19      7       1.825404        231.5239
2009    20      0       1.803243        229.6744
2009    20      1       1.781292        228.8948
2009    20      2       2.023162        239.9237
2009    20      3       2.038639        241.2729
2009    20      4       2.321543        251.8172
2009    20      5       3.203037        268.0788
2009    20      6       2.386307        251.3379
2009    20      7       1.768341        226.3943
2009    21      0       2.27871         245.7574
2009    21      1       1.341521        202.7574
2009    21      2       1.530285        213.9479
2009    21      3       1.351209        202.1178
2009    21      4       1.017234        174.6126
2009    21      5       0.8734683       159.8357
2009    21      6       0.8483472       156.8922
2009    21      7       0.9408573       166.3533
2009    22      0       1.025983        174.6661
2009    22      1       0.8346841       155.5594
2009    22      2       0.7771005       148.8642
2009    22      3       0.7745712       148.4451
2009    22      4       0.6760975       136.171
2009    22      5       0.6397189       131.2945
2009    22      6       0.592844        124.082
2009    22      7       0.6090426       126.0971
2009    23      0       0.7053668       139.0852
2009    23      1       0.8619358       158.2502
2009    23      2       0.9866073       171.2967
2009    23      3       1.015214        175.0337
2009    23      4       1.012614        175.7513
2009    23      5       0.9835722       173.9769
2009    23      6       1.007408        175.8915
2009    23      7       1.210771        193.0664
2009    24      0       1.252335        195.4915
2009    24      1       1.333776        201.8674
2009    24      2       1.452788        210.5576
2009    24      3       1.832225        229.8998
2009    24      4       1.720806        226.0989
2009    24      5       2.014793        239.2612
2009    24      6       2.76884         259.3083
2009    24      7       2.435395        251.5045
2009    25      0       2.352193        247.6694
2009    25      1       1.23384         193.9065
2009    25      2       1.067409        179.4775
2009    25      3       1.287085        195.2835
2009    25      4       0.92828         162.7807
2009    25      5       0.8036689       149.3723
2009    25      6       0.7825278       147.786
2009    25      7       0.7847504       148.3626
2009    26      0       0.8986817       161.238
2009    26      1       1.045139        176.3415
2009    26      2       1.168463        186.6829
2009    26      3       1.197044        188.6864
2009    26      4       1.053132        176.1736
2009    26      5       0.9359287       164.7251
2009    26      6       0.6740742       133.7514
2009    26      7       0.5904741       122.2173
2009    27      0       0.6376382       129.0734
2009    27      1       0.7978896       149.6209
2009    27      2       0.7143911       139.5271
2009    27      3       0.6606061       133.0472
2009    27      4       0.6421278       130.6473
2009    27      5       0.6675204       133.7598
2009    27      6       0.6674366       133.7968
2009    27      7       0.6400691       130.2078
2009    28      0       0.5854587       122.8119
2009    28      1       0.7365493       143.8909
2009    28      2       0.7722439       148.3993
2009    28      3       0.6931318       138.88
2009    28      4       0.6156767       128.5952
2009    28      5       0.556676        119.7366
2009    28      6       0.4934166       109.6036
2009    28      7       0.4666827       105.3628
2009    29      0       0.4478317       102.3889
2009    29      1       0.6035425       127.7163
2009    29      2       0.6444891       134.1236
2009    29      3       0.5632308       121.9522
2009    29      4       0.371727        89.07456
2009    29      5       0.2959831       74.26671
2009    29      6       0.3461927       84.16131
2009    29      7       0.3742144       89.5096
2009    30      0       0.4642263       104.169
2009    30      1       0.7649816       146.2165
2009    30      2       0.9939034       172.0847
2009    30      3       0.7785925       149.0606
2009    30      4       0.5800581       122.3393
2009    30      5       0.4876859       107.6864
2009    30      6       0.4576301       103.0988
2009    30      7       0.4600372       104.0392
2010    1       0       2.279366        244.5563
2010    1       1       1.634789        218.1393
2010    1       2       1.080481        177.4103
2010    1       3       0.4554714       99.5446
2010    1       4       0.2436665       61.71203
2010    1       5       0.2068139       53.81801
2010    1       6       0.1503862       41.02787
2010    1       7       0.1279954       35.85729
2010    2       0       0.141881        38.87792
2010    2       1       0.2614364       64.17816
2010    2       2       0.3264509       76.7146
2010    2       3       0.4336718       95.65964
2010    2       4       0.3999543       89.94139
2010    2       5       0.189029        49.13115
2010    2       6       0.1964038       50.55808
2010    2       7       0.176967        46.58609
2010    3       0       0.2300412       58.03494
2010    3       1       0.2898486       70.36325
2010    3       2       0.3324216       79.01171
2010    3       3       0.3565292       83.50954
2010    3       4       0.3165603       76.09007
2010    3       5       0.2717391       67.12987
2010    3       6       0.2702391       66.38575
2010    3       7       0.2602483       64.11435
2010    4       0       0.2826186       68.44037
2010    4       1       0.3708022       85.26082
2010    4       2       0.5381196       114.2382
2010    4       3       0.533784        113.7856
2010    4       4       0.5054825       109.0153
2010    4       5       0.5280923       112.6169
2010    4       6       0.5014267       108.1152
2010    4       7       0.3133922       75.32038
2010    5       0       0.2436683       61.50525
2010    5       1       0.524276        112.6555
2010    5       2       0.7951194       148.6841
2010    5       3       0.8200683       152.7055
2010    5       4       0.8228311       153.9683
2010    5       5       0.8903903       161.9056
2010    5       6       1.140484        185.4822
2010    5       7       1.585474        215.7978
2010    6       0       0.9680893       168.5032
2010    6       1       0.6279041       128.0318
2010    6       2       0.4183369       94.98722
2010    6       3       0.3558094       83.5119
2010    6       4       0.3296073       78.39814
2010    6       5       0.3564935       83.05695
2010    6       6       0.4248608       95.05428
2010    6       7       0.5127997       109.524
2010    7       0       0.5468113       114.6337
2010    7       1       0.4815327       104.8293
2010    7       2       0.4539305       100.7286
2010    7       3       0.3873152       89.27178
2010    7       4       0.3295513       78.58379
2010    7       5       0.2881919       70.55043
2010    7       6       0.2631795       65.45434
2010    7       7       0.3176784       76.08351
2010    8       0       0.3075043       74.3569
2010    8       1       0.4410376       98.86138
2010    8       2       0.5123295       111.0877
2010    8       3       0.5445855       116.2176
2010    8       4       0.5172043       112.5315
2010    8       5       0.5936118       124.3231
2010    8       6       0.5619889       119.2453
2010    8       7       0.6924575       137.4019
2010    9       0       0.7835121       149.062
2010    9       1       0.8082944       152.7525
2010    9       2       0.7946081       151.562
2010    9       3       0.7864464       150.4702
2010    9       4       0.3462764       82.3352
2010    9       5       0.4198344       94.75821
2010    9       6       0.5249947       113.337
2010    9       7       0.7786022       150.0387
2010    10      0       1.052368        179.0946
2010    10      1       1.263314        196.9096
2010    10      2       1.709256        224.725
2010    10      3       1.704752        224.1069
2010    10      4       0.9374902       166.9007
2010    10      5       0.2894241       71.03337
2010    10      6       0.154957        42.78542
2010    10      7       0.2078301       54.55974
2010    11      0       0.2883732       71.24226
2010    11      1       0.6790452       136.4275
2010    11      2       0.8689623       160.2091
2010    11      3       1.167628        189.1798
2010    11      4       1.255405        196.9151
2010    11      5       1.080115        181.3267
2010    11      6       0.9799018       171.5984
2010    11      7       0.8875224       163.2842
2010    12      0       0.911184        165.4739
2010    12      1       1.034694        179.0771
2010    12      2       1.131485        188.5359
2010    12      3       1.460616        212.6443
2010    12      4       1.901825        233.067
2010    12      5       1.875962        230.561
2010    12      6       1.733209        223.2653
2010    12      7       0.5197468       111.3142
2010    13      0       0.4509296       98.5213
2010    13      1       0.3633247       83.31712
2010    13      2       0.3028663       72.12711
2010    13      3       0.3023516       71.64372
2010    13      4       0.2975196       70.79475
2010    13      5       0.255262        62.62977
2010    13      6       0.2083123       53.20224
2010    13      7       0.2313086       57.74006
2010    14      0       0.2793213       67.45199
2010    14      1       0.3899715       87.29117
2010    14      2       0.4985855       104.59
2010    14      3       0.5346203       110.2066
2010    14      4       0.3732105       84.49079
2010    14      5       0.2968769       70.75877
2010    14      6       0.2531335       62.26948
2010    14      7       0.2360275       58.95248
2010    15      0       0.2522071       62.4864
2010    15      1       0.3113991       74.36073
2010    15      2       0.3709923       85.29741
2010    15      3       0.3894824       88.74179
2010    15      4       0.4067268       91.50914
2010    15      5       0.4341463       96.05087
2010    15      6       0.4520165       98.94492
2010    15      7       0.4352225       96.09701
2010    16      0       0.4345115       95.87974
2010    16      1       0.4318553       95.77303
2010    16      2       0.4178101       93.66043
2010    16      3       0.3789505       86.88598
2010    16      4       0.3388202       79.65807
2010    16      5       0.3394565       79.54445
2010    16      6       0.3868995       87.12669
2010    16      7       0.3391452       78.98371
2010    17      0       0.5200382       110.4427
2010    17      1       0.8401289       154.087
2010    17      2       0.8930153       160.5528
2010    17      3       0.8700195       158.492
2010    17      4       0.853696        156.7974
2010    17      5       0.8150837       152.3053
2010    17      6       0.7552974       144.8821
2010    17      7       0.812297        151.4873
2010    18      0       1.0021          171.6183
2010    18      1       0.8738192       158.5326
2010    18      2       0.9417358       165.7723
2010    18      3       1.145559        186.1999
2010    18      4       0.7680454       148.0457
2010    18      5       0.8074689       153.6098
2010    18      6       1.036743        178.6141
2010    18      7       1.157934        189.768
2010    19      0       1.366218        206.0922
2010    19      1       1.653531        223.8366
2010    19      2       1.63479         223.2391
2010    19      3       1.550149        219.5386
2010    19      4       1.530031        218.7307
2010    19      5       1.500981        216.4571
2010    19      6       1.591982        221.2577
2010    19      7       1.813774        232.1765
2010    20      0       1.481559        215.1969
2010    20      1       1.701508        228.0608
2010    20      2       1.521213        218.6685
2010    20      3       1.341432        206.6782
2010    20      4       1.144923        190.5564
2010    20      5       1.157367        191.1089
2010    20      6       1.221684        196.2101
2010    20      7       1.528289        216.4746
2010    21      0       1.450256        210.5691
2010    21      1       1.402974        206.2551
2010    21      2       1.575051        216.7061
2010    21      3       1.675205        221.6956
2010    21      4       1.598836        217.4941
2010    21      5       1.495679        211.6234
2010    21      6       1.310428        199.7435
2010    21      7       1.118907        184.3434
2010    22      0       1.194191        190.2753
2010    22      1       1.074958        180.4975
2010    22      2       1.023168        175.5358
2010    22      3       0.917584        164.6209
2010    22      4       0.9334083       164.6065
2010    22      5       0.9320701       163.7362
2010    22      6       0.9726511       167.7865
2010    22      7       0.9259576       162.4252
2010    23      0       0.873319        156.9046
2010    23      1       0.9622716       165.7986
2010    23      2       0.9578908       165.3287
2010    23      3       0.8405371       153.2474
2010    23      4       0.5452054       114.8332
2010    23      5       0.4410235       98.45232
2010    23      6       0.4789104       104.9306
2010    23      7       0.4614875       102.2773
2010    24      0       0.3951539       90.99107
2010    24      1       0.4419849       99.37436
2010    24      2       0.4598591       102.664
2010    24      3       0.4470162       100.6118
2010    24      4       0.4182821       95.59847
2010    24      5       0.4006445       92.17473
2010    24      6       0.4125774       93.90456
2010    24      7       0.4212165       95.60734
2010    25      0       0.4349372       98.42865
2010    25      1       0.5357974       115.6302
2010    25      2       0.5758596       122.1577
2010    25      3       0.5444902       117.2617
2010    25      4       0.5418646       116.79
2010    25      5       0.61882         127.8132
2010    25      6       0.6992062       137.8258
2010    25      7       0.8601487       156.5342
2010    26      0       0.9434152       165.3619
2010    26      1       1.329029        199.0137
2010    26      2       1.834034        228.593
2010    26      3       1.725092        224.3004
2010    26      4       1.778465        228.1478
2010    26      5       2.150078        243.4856
2010    26      6       1.959902        235.6118
2010    26      7       1.679552        221.5119
2010    27      0       1.695465        221.4403
2010    27      1       0.7941948       148.5262
2010    27      2       0.8865632       158.3385
2010    27      3       0.7774134       145.7093
2010    27      4       1.204215        187.3661
2010    27      5       0.7735695       145.2757
2010    27      6       0.5245537       111.6471
2010    27      7       0.4064588       91.56045
2010    28      0       0.7213077       137.9859
2010    28      1       1.039321        172.8463
2010    28      2       1.171835        185.9048
2010    28      3       1.956097        231.4567
2010    28      4       1.500803        207.607
2010    28      5       1.662638        216.3913
2010    28      6       0.7803129       145.7742
2010    28      7       0.6053934       123.2027
2010    29      0       0.6850593       134.3543
2010    29      1       0.7576412       144.2211
2010    29      2       0.6433986       129.8442
2010    29      3       0.6189151       126.1611
2010    29      4       0.539833        113.8983
2010    29      5       0.5374945       112.7724
2010    29      6       0.5362223       113.2797
2010    29      7       0.8301234       152.082
2010    30      0       0.8854049       158.2679
2010    30      1       1.001209        170.179
2010    30      2       0.814182        151.8722
2010    30      3       0.7476627       144.5627
2010    30      4       0.6834877       136.1841
2010    30      5       0.6023691       124.3702
2010    30      6       0.6000829       124.071
2010    30      7       0.5983954       124.116
2011    1       0       0.3658112       86.09193
2011    1       1       0.505151        110.1214
2011    1       2       0.6482511       131.943
2011    1       3       0.8271594       154.5698
2011    1       4       0.7067445       138.8803
2011    1       5       0.5191711       110.8002
2011    1       6       0.6236779       125.6993
2011    1       7       0.7963806       147.5986
2011    2       0       0.8736801       156.4135
2011    2       1       0.9398231       163.4887
2011    2       2       0.906825        160.7785
2011    2       3       0.7529963       144.024
2011    2       4       0.6511957       130.8529
2011    2       5       0.5659789       118.7241
2011    2       6       0.6131806       125.7246
2011    2       7       0.7169393       139.7227
2011    3       0       0.7135658       138.9536
2011    3       1       0.5837834       121.4796
2011    3       2       0.5563387       117.9221
2011    3       3       0.5799069       121.5898
2011    3       4       0.6133117       126.2503
2011    3       5       0.611523        125.7163
2011    3       6       0.575844        120.3488
2011    3       7       0.5186958       111.5975
2011    4       0       0.4813557       105.6713
2011    4       1       0.5209184       112.3201
2011    4       2       0.5287901       114.02
2011    4       3       0.5385635       115.6879
2011    4       4       0.5079066       110.8846
2011    4       5       0.480491        106.4393
2011    4       6       0.4396232       99.52206
2011    4       7       0.3886382       90.53883
2011    5       0       0.3691668       86.90784
2011    5       1       0.4610445       103.0448
2011    5       2       0.4553935       102.3874
2011    5       3       0.4387452       99.57278
2011    5       4       0.4017173       93.21755
2011    5       5       0.344308        82.63122
2011    5       6       0.2769947       69.31596
2011    5       7       0.2347074       60.25595
2011    6       0       0.2722793       67.5312
2011    6       1       0.475047        103.8143
2011    6       2       0.6876462       134.2474
2011    6       3       0.674764        133.1052
2011    6       4       0.6711975       132.8188
2011    6       5       0.8758516       159.1819
2011    6       6       0.7522921       145.4979
2011    6       7       0.7386738       144.3426
2011    7       0       0.9390965       167.5484
2011    7       1       1.165604        189.2058
2011    7       2       1.227423        194.8276
2011    7       3       1.212559        193.8769
2011    7       4       1.18685         191.5364
2011    7       5       1.129113        184.8768
2011    7       6       0.9521262       168.3973
2011    7       7       0.3060461       75.06611
2011    8       0       0.2838284       70.62471
2011    8       1       0.3696786       87.31825
2011    8       2       0.4598855       103.1289
2011    8       3       0.5401332       115.7234
2011    8       4       0.5050066       110.4945
2011    8       5       0.4376536       99.10449
2011    8       6       0.3676649       86.60274
2011    8       7       0.3903151       90.758
2011    9       0       0.4999048       109.2435
2011    9       1       0.6477092       131.3281
2011    9       2       0.5916735       123.8639
2011    9       3       0.4385667       99.46271
2011    9       4       0.4600911       103.3455
2011    9       5       0.5726831       121.3707
2011    9       6       0.5924963       124.0557
2011    9       7       0.6103753       126.6198
2011    10      0       0.7241361       142.2242
2011    10      1       0.9874539       171.8206
2011    10      2       1.208068        191.9568
2011    10      3       1.316946        198.5994
2011    10      4       0.5954349       122.2773
2011    10      5       0.3633752       84.10053
2011    10      6       0.2737503       67.72112
2011    10      7       0.2482683       62.60227
2011    11      0       0.2481376       62.32487
2011    11      1       0.2985849       72.57518
2011    11      2       0.3100213       75.27793
2011    11      3       0.3300759       79.24925
2011    11      4       0.333346        79.90004
2011    11      5       0.2966247       72.91585
2011    11      6       0.2642956       66.37985
2011    11      7       0.2555984       64.55913
2011    12      0       0.249801        63.08544
2011    12      1       0.3567007       84.03214
2011    12      2       0.395071        91.70144
2011    12      3       0.2982851       73.72893
2011    12      4       0.2045302       54.13389
2011    12      5       0.2027771       53.48567
2011    12      6       0.3147227       76.483
2011    12      7       0.3551087       84.27495
2011    13      0       0.3870147       90.35753
2011    13      1       0.5570749       119.2117
2011    13      2       0.680486        137.4663
2011    13      3       0.6294639       130.4786
2011    13      4       0.5384352       117.0906
2011    13      5       0.5195308       113.9214
2011    13      6       0.5069735       111.6113
2011    13      7       0.4790744       106.5584
2011    14      0       0.536455        114.8539
2011    14      1       0.6394192       129.8682
2011    14      2       0.6864709       137.1211
2011    14      3       0.5616333       119.3137
2011    14      4       0.5342224       113.1584
2011    14      5       0.4557269       101.5039
2011    14      6       1.11665         186.1181
2011    14      7       3.108462        264.9597
2011    15      0       2.56381         255.927
2011    15      1       2.717234        259.0858
2011    15      2       1.969275        239.064
2011    15      3       1.876394        233.3949
2011    15      4       0.6725431       136.6489
2011    15      5       0.4360369       99.15243
2011    15      6       0.3422601       81.91936
2011    15      7       0.4471818       100.8153
2011    16      0       0.5351141       115.0832
2011    16      1       0.4751463       106.0386
2011    16      2       0.4110276       95.48521
2011    16      3       0.3706976       88.22886
2011    16      4       0.3653262       87.07026
2011    16      5       0.3857632       90.71306
2011    16      6       0.4368882       99.70657
2011    16      7       0.5186057       113.1185
2011    17      0       0.6063368       126.1327
2011    17      1       0.7293294       143.3854
2011    17      2       0.7560761       147.3123
2011    17      3       0.8774637       160.3935
2011    17      4       1.064435        177.7291
2011    17      5       1.179217        186.3363
2011    17      6       1.206924        188.3077
2011    17      7       1.164072        185.054
2011    18      0       1.305513        195.7227
2011    18      1       0.9766896       167.9159
2011    18      2       1.020856        171.6906
2011    18      3       0.7986244       147.6405
2011    18      4       0.4715127       100.9392
2011    18      5       0.6034387       121.4108
2011    18      6       0.6254101       125.0144
2011    18      7       0.6042353       122.5985
2011    19      0       0.6612433       131.0412
2011    19      1       0.6481694       130.8248
2011    19      2       0.6830083       136.6193
2011    19      3       0.7425136       144.815
2011    19      4       0.7422717       144.8958
2011    19      5       0.7028869       139.6911
2011    19      6       0.6579931       133.44
2011    19      7       0.5752012       121.4102
2011    20      0       0.5566981       118.1377
2011    20      1       0.7652893       146.8554
2011    20      2       0.7252621       142.4113
2011    20      3       0.7249827       142.4353
2011    20      4       0.6167257       127.8178
2011    20      5       0.5450659       117.0243
2011    20      6       0.4578471       102.8326
2011    20      7       0.4458587       100.663
2011    21      0       0.4556627       101.9789
2011    21      1       0.5607737       117.9765
2011    21      2       0.7204031       140.261
2011    21      3       0.8517825       155.9672
2011    21      4       0.7150595       139.8383
2011    21      5       0.9673879       168.896
2011    21      6       1.137083        184.4948
2011    21      7       1.393942        204.3166
2011    22      0       1.392913        204.9051
2011    22      1       1.552827        215.2356
2011    22      2       1.17374         189.2226
2011    22      3       0.8069238       151.7683
2011    22      4       0.7601927       145.811
2011    22      5       0.7623229       145.8901
2011    22      6       0.7636553       145.8315
2011    22      7       0.7415407       142.6313
2011    23      0       0.6881664       135.1914
2011    23      1       0.6519855       130.7724
2011    23      2       0.6161762       126.0736
2011    23      3       0.6415474       129.391
2011    23      4       0.6363653       128.4425
2011    23      5       0.659712        131.5419
2011    23      6       0.6560462       131.0203
2011    23      7       0.6782332       134.1289
2011    24      0       0.6927378       135.6131
2011    24      1       0.8735337       156.3558
2011    24      2       1.019247        171.2791
2011    24      3       0.8712649       157.1524
2011    24      4       0.7176891       138.9651
2011    24      5       0.7374561       141.4059
2011    24      6       0.7409713       142.1609
2011    24      7       0.6480014       129.9322
2011    25      0       0.7838121       147.8975
2011    25      1       0.7593146       146.676
2011    25      2       0.7228513       142.617
2011    25      3       0.711988        140.3993
2011    25      4       0.8918341       160.567
2011    25      5       1.397701        203.8389
2011    25      6       1.406606        205.1853
2011    25      7       1.317782        199.2775
2011    26      0       1.118593        184.4182
2011    26      1       1.160991        188.7999
2011    26      2       1.330782        202.3872
2011    26      3       1.419081        208.8476
2011    26      4       1.503886        214.7342
2011    26      5       1.318888        202.6449
2011    26      6       1.689441        225.5649
2011    26      7       2.016656        238.9402
2011    27      0       1.784523        228.1837
2011    27      1       1.83805         229.8483
2011    27      2       1.425645        207.6845
2011    27      3       1.212122        191.1187
2011    27      4       1.035204        174.4459
2011    27      5       1.041238        174.5461
2011    27      6       0.9901938       169.7247
2011    27      7       0.8781215       158.4865
2011    28      0       0.8357622       154.0304
2011    28      1       0.7440691       143.7821
2011    28      2       0.6248639       128.0099
2011    28      3       0.5909077       123.1084
2011    28      4       0.5839658       121.8171
2011    28      5       0.5723353       119.8978
2011    28      6       0.6783763       134.3215
2011    28      7       0.9383326       165.1512
2011    29      0       1.100299        180.828
2011    29      1       0.9874638       170.6106
2011    29      2       0.9380413       164.7981
2011    29      3       0.9613437       169.2908
2011    29      4       1.462406        213.0264
2011    29      5       2.04561         241.3047
2011    29      6       2.514282        256.9504
2011    29      7       3.104379        269.3452
2011    30      0       3.397131        271.8363
2011    30      1       3.210034        268.858
2011    30      2       1.952102        239.1622
2011    30      3       2.473537        255.622
2011    30      4       2.222434        248.6653
2011    30      5       1.933051        238.2601
2011    30      6       2.094008        243.9493
2011    30      7       1.634802        222.3837
2012    1       0       0.2813599       67.67703
2012    1       1       0.3260064       76.48125
2012    1       2       1.051896        175.2747
2012    1       3       0.4236798       94.22868
2012    1       4       0.4657939       100.9176
2012    1       5       0.4857389       104.2686
2012    1       6       0.5029294       106.7209
2012    1       7       0.5581914       115.415
2012    2       0       0.5855308       121.6817
2012    2       1       0.7742842       146.8728
2012    2       2       1.145285        184.9899
2012    2       3       1.596349        217.7943
2012    2       4       1.874551        232.4101
2012    2       5       1.943964        234.297
2012    2       6       1.634934        219.4915
2012    2       7       1.307883        197.3297
2012    3       0       0.9971603       168.0624
2012    3       1       0.8353033       150.5083
2012    3       2       0.4657409       101.376
2012    3       3       0.3558512       82.65564
2012    3       4       0.3341331       78.34619
2012    3       5       0.3162125       75.00217
2012    3       6       0.3281467       77.23393
2012    3       7       0.360286        83.11931
2012    4       0       0.5657322       116.9439
2012    4       1       0.810824        150.7657
2012    4       2       0.6718742       133.8978
2012    4       3       0.50832         109.4851
2012    4       4       0.4469638       99.44101
2012    4       5       0.4912142       106.2521
2012    4       6       0.3878892       88.07416
2012    4       7       0.3438709       79.90039
2012    5       0       0.4017115       90.15389
2012    5       1       0.4699706       101.7563
2012    5       2       0.3968681       89.71887
2012    5       3       0.4482661       98.07877
2012    5       4       0.3617336       83.19529
2012    5       5       0.3334306       77.87261
2012    5       6       0.3351268       77.87842
2012    5       7       0.3374489       78.19356
2012    6       0       0.5718331       116.4851
2012    6       1       0.3311053       77.45455
2012    6       2       0.3348752       78.37303
2012    6       3       0.3166032       75.02406
2012    6       4       0.2854078       68.89846
2012    6       5       0.269695        65.72385
2012    6       6       0.2735773       66.42302
2012    6       7       0.2397592       59.76633
2012    7       0       0.2638073       64.53441
2012    7       1       0.357895        82.76509
2012    7       2       0.4451827       98.67208
2012    7       3       0.4666409       102.8393
2012    7       4       0.4048671       92.38612
2012    7       5       0.3395258       80.52553
2012    7       6       0.503646        109.4458
2012    7       7       0.7404817       144.0783
2012    8       0       0.9231962       165.6682
2012    8       1       1.062325        179.7476
2012    8       2       0.9929483       173.7246
2012    8       3       0.9456047       167.6283
2012    8       4       1.189158        191.5591
2012    8       5       1.145099        188.2835
2012    8       6       0.9884631       173.7753
2012    8       7       0.490858        108.882
2012    9       0       0.3476386       83.36145
2012    9       1       0.4301069       98.65208
2012    9       2       0.5763121       122.9582
2012    9       3       0.6137529       128.6829
2012    9       4       0.5269171       115.3093
2012    9       5       0.3873632       90.97223
2012    9       6       0.864736        161.2944
2012    9       7       1.152735        189.43
2012    10      0       1.278601        199.0863
2012    10      1       1.507414        213.3311
2012    10      2       1.74283         226.146
2012    10      3       1.64007         223.2129
2012    10      4       1.886432        235.3114
2012    10      5       2.871586        262.874
2012    10      6       2.477217        253.8004
2012    10      7       1.933833        236.0949
2012    11      0       1.284584        199.5862
2012    11      1       1.201165        194.1532
2012    11      2       1.107486        186.1603
2012    11      3       0.6721984       137.0217
2012    11      4       0.5271651       115.244
2012    11      5       0.344799        83.22307
2012    11      6       0.2659264       67.12915
2012    11      7       0.2832108       69.92784
2012    12      0       0.368836        85.49667
2012    12      1       0.522767        110.7525
2012    12      2       0.5118101       110.1235
2012    12      3       0.5181917       112.9313
2012    12      4       0.4851947       107.6827
2012    12      5       0.582332        123.0986
2012    12      6       0.4243245       96.43165
2012    12      7       0.4574849       101.3173
2012    13      0       0.5298807       112.6488
2012    13      1       0.6795858       135.9291
2012    13      2       0.8326376       154.8227
2012    13      3       0.9201494       164.2182
2012    13      4       0.7914276       150.5335
2012    13      5       0.7168854       141.495
2012    13      6       0.6886567       137.9926
2012    13      7       0.6768306       136.5423
2012    14      0       0.5333019       115.5308
2012    14      1       0.6650678       134.9512
2012    14      2       0.8427003       158.0845
2012    14      3       0.8938328       164.0609
2012    14      4       0.7685278       149.5793
2012    14      5       0.6318164       131.2308
2012    14      6       0.5805708       123.2164
2012    14      7       0.6107651       127.5302
2012    15      0       0.6426203       132.4382
2012    15      1       0.7083464       141.9513
2012    15      2       0.8145748       155.8722
2012    15      3       0.7826578       151.8715
2012    15      4       0.6691571       136.264
2012    15      5       0.7544454       147.1964
2012    15      6       1.233996        195.2937
2012    15      7       1.192033        191.7956
2012    16      0       0.6153986       127.8913
2012    16      1       0.5612671       120.0469
2012    16      2       0.5036966       110.8499
2012    16      3       0.5095653       111.7134
2012    16      4       0.4879203       107.97
2012    16      5       0.5243969       113.7636
2012    16      6       0.606607        126.3302
2012    16      7       0.636207        130.5817
2012    17      0       0.6358864       130.4067
2012    17      1       0.7010246       139.9403
2012    17      2       0.6927747       139.5352
2012    17      3       0.7148055       142.7541
2012    17      4       0.7728448       149.638
2012    17      5       0.8125908       154.2673
2012    17      6       0.7368562       144.4695
2012    17      7       0.6301155       129.7028
2012    18      0       0.589097        123.7688
2012    18      1       0.7554916       146.9862
2012    18      2       0.8129575       154.6585
2012    18      3       0.88371         163.1136
2012    18      4       0.8571571       160.0153
2012    18      5       0.8510454       159.1635
2012    18      6       0.8269058       156.1706
2012    18      7       0.7511533       145.8313
2012    19      0       0.7801454       148.6416
2012    19      1       0.9895728       172.1665
2012    19      2       0.9447993       168.3378
2012    19      3       0.8798159       162.017
2012    19      4       1.082129        182.5567
2012    19      5       1.335721        203.1281
2012    19      6       1.320021        202.0848
2012    19      7       1.246689        196.8773
2012    20      0       1.216512        195.2036
2012    20      1       1.15715         191.3528
2012    20      2       1.240178        199.2169
2012    20      3       1.280803        201.9578
2012    20      4       1.081994        184.5184
2012    20      5       0.7724713       150.3835
2012    20      6       0.7173678       142.561
2012    20      7       1.003636        176.0155
2012    21      0       1.722583        226.2916
2012    21      1       1.769544        227.2985
2012    21      2       1.643597        221.6623
2012    21      3       1.957701        237.8845
2012    21      4       2.141385        245.2327
2012    21      5       2.038676        242.8624
2012    21      6       2.414136        255.2137
2012    21      7       2.839766        261.4371
2012    22      0       3.527944        268.5263
2012    22      1       3.252171        263.6029
2012    22      2       2.394575        248.6834
2012    22      3       2.641719        254.7258
2012    22      4       2.582008        254.3734
2012    22      5       1.729988        226.5468
2012    22      6       1.984851        238.2977
2012    22      7       1.473907        213.7051
2012    23      0       1.284631        201.4292
2012    23      1       1.373019        208.0437
2012    23      2       1.71185         229.4069
2012    23      3       1.514351        218.7968
2012    23      4       1.122729        189.7706
2012    23      5       1.092754        187.2779
2012    23      6       0.9861026       176.8169
2012    23      7       0.9832545       176.2144
2012    24      0       1.018158        180.4428
2012    24      1       1.234015        200.6312
2012    24      2       1.393156        213.5263
2012    24      3       1.267506        204.8511
2012    24      4       1.214487        200.9844
2012    24      5       1.280251        204.9221
2012    24      6       1.002081        176.9079
2012    24      7       1.076737        181.5428
2012    25      0       1.576549        219.9892
2012    25      1       2.109155        244.5087
2012    25      2       2.691299        260.8043
2012    25      3       2.856109        265.4379
2012    25      4       2.867959        265.3741
2012    25      5       3.093604        266.8364
2012    25      6       2.789628        260.9082
2012    25      7       1.034175        177.8272
2012    26      0       0.5562134       118.4371
2012    26      1       0.4784944       106.581
2012    26      2       0.4225088       97.75734
2012    26      3       0.4131957       96.02224
2012    26      4       0.4408319       100.0691
2012    26      5       0.4308469       97.21643
2012    26      6       0.3608663       84.65696
2012    26      7       0.3366087       80.40056
2012    27      0       0.5137578       109.5334
2012    27      1       0.6444844       132.3364
2012    27      2       0.6632982       135.7533
2012    27      3       0.4715551       106.2215
2012    27      4       0.3622416       86.01098
2012    27      5       0.3682161       87.473
2012    27      6       0.7239896       144.2084
2012    27      7       0.8804761       162.8466
2012    28      0       1.132334        188.0316
2012    28      1       1.396439        209.2978
2012    28      2       1.507883        217.7189
2012    28      3       1.512691        218.4911
2012    28      4       1.367328        208.3602
2012    28      5       0.9349916       170.2036
2012    28      6       0.7383645       146.1575
2012    28      7       0.5726989       122.2125
2012    29      0       0.5722804       122.5765
2012    29      1       1.023024        179.2675
2012    29      2       1.101351        187.6505
2012    29      3       1.128609        190.6552
2012    29      4       1.057638        184.3637
2012    29      5       1.009869        180.2602
2012    29      6       1.042328        183.5609
2012    29      7       1.031596        181.8396
2012    30      0       1.017938        180.3512
2012    30      1       1.247908        201.6137
2012    30      2       1.268429        204.4503
2012    30      3       1.315176        208.3661
2012    30      4       1.317644        208.4564
2012    30      5       1.278225        205.4874
2012    30      6       1.21428         200.0866
2012    30      7       1.229802        200.696
2013    1       0       0.431814        95.61507
2013    1       1       0.716655        137.5995
2013    1       2       0.9655659       166.6457
2013    1       3       1.038501        173.8804
2013    1       4       1.046071        174.8092
2013    1       5       0.9243757       164.5409
2013    1       6       0.974696        169.7967
2013    1       7       1.485794        208.9631
2013    2       0       1.328034        197.7494
2013    2       1       1.241565        190.4672
2013    2       2       0.9773655       168.3447
2013    2       3       0.8686169       158.0125
2013    2       4       0.7114724       139.8426
2013    2       5       0.6759274       135.4139
2013    2       6       0.7139818       140.4506
2013    2       7       0.5269971       113.6735
2013    3       0       0.3104064       75.92895
2013    3       1       0.4732972       105.4626
2013    3       2       0.6300091       130.2239
2013    3       3       0.6093836       127.3932
2013    3       4       0.5245854       114.2566
2013    3       5       0.5235498       113.7917
2013    3       6       0.5706042       120.8153
2013    3       7       0.6188575       127.4398
2013    4       0       0.5831835       122.4872
2013    4       1       0.7248334       142.9649
2013    4       2       0.7869333       151.8694
2013    4       3       0.8451075       158.7929
2013    4       4       0.8499497       159.2304
2013    4       5       0.8504455       159.0991
2013    4       6       0.9116          165.7259
2013    4       7       0.9126558       165.6742
2013    5       0       0.8486579       158.7101
2013    5       1       0.9820106       172.5036
2013    5       2       1.074312        182.6511
2013    5       3       1.091182        184.5804
2013    5       4       0.9961014       175.182
2013    5       5       1.003502        174.7324
2013    5       6       1.25709         195.0741
2013    5       7       1.426692        206.9239
2013    6       0       1.647136        219.6172
2013    6       1       1.822849        228.3151
2013    6       2       1.67142         219.8687
2013    6       3       1.156574        183.5407
2013    6       4       0.9075264       159.3908
2013    6       5       0.8218278       149.0682
2013    6       6       0.7635505       142.3248
2013    6       7       0.6563984       129.7824
2013    7       0       0.548018        115.1226
2013    7       1       0.4716443       103.9076
2013    7       2       0.4437477       99.61221
2013    7       3       0.4500965       100.5944
2013    7       4       0.4367288       97.98847
2013    7       5       0.4241211       95.68849
2013    7       6       0.4458524       99.13555
2013    7       7       0.4520531       100.1591
2013    8       0       0.4679491       103.0125
2013    8       1       0.6503852       131.0769
2013    8       2       0.6781842       135.0092
2013    8       3       1.020427        173.9941
2013    8       4       1.102807        180.3918
2013    8       5       0.7772813       145.0173
2013    8       6       0.3567237       83.00139
2013    8       7       0.3385555       79.06493
2013    9       0       0.5993026       120.7898
2013    9       1       0.7368434       138.1021
2013    9       2       0.6642181       129.0166
2013    9       3       0.5080158       107.1469
2013    9       4       0.4478062       98.09103
2013    9       5       0.3843293       87.47049
2013    9       6       0.3747375       85.55112
2013    9       7       0.3609951       82.95145
2013    10      0       0.4272789       94.2807
2013    10      1       0.4993971       105.9889
2013    10      2       0.5466398       112.7209
2013    10      3       0.5493946       113.3208
2013    10      4       0.5606916       114.9951
2013    10      5       0.4358114       95.19998
2013    10      6       0.4405459       96.01692
2013    10      7       0.4184783       92.34496
2013    11      0       0.5041325       105.8185
2013    11      1       0.6375054       125.6552
2013    11      2       0.4243132       94.42846
2013    11      3       0.42059         93.76646
2013    11      4       0.4364011       96.11467
2013    11      5       0.4638466       100.6821
2013    11      6       0.4730379       102.1092
2013    11      7       0.4591018       99.86004
2013    12      0       0.4397253       97.20862
2013    12      1       0.4977355       107.0845
2013    12      2       0.4845857       105.5626
2013    12      3       0.4614959       102.0525
2013    12      4       0.3901872       89.664
2013    12      5       0.3575546       83.82339
2013    12      6       0.3517079       82.66445
2013    12      7       0.3500541       82.26755
2013    13      0       0.4036174       92.05
2013    13      1       0.6033347       124.9552
2013    13      2       0.6559503       133.3687
2013    13      3       0.6018368       126.1345
2013    13      4       0.9313261       167.6436
2013    13      5       1.377776        205.3933
2013    13      6       1.423836        206.647
2013    13      7       0.3822441       87.05394
2013    14      0       0.2841481       69.19008
2013    14      1       0.2631896       65.29437
2013    14      2       0.2817335       68.83019
2013    14      3       0.3146131       75.41373
2013    14      4       0.3229293       76.67974
2013    14      5       0.3566303       82.56962
2013    14      6       0.4076614       91.48306
2013    14      7       0.4225065       94.1071
2013    15      0       0.4566198       100.5731
2013    15      1       0.4990236       108.4196
2013    15      2       0.6284858       128.516
2013    15      3       0.6576099       132.8562
2013    15      4       0.6073216       125.9468
2013    15      5       0.4778977       106.2034
2013    15      6       0.7041033       141.0994
2013    15      7       2.236443        248.6958
2013    16      0       1.490538        214.9029
2013    16      1       1.580269        220.419
2013    16      2       1.747263        228.7393
2013    16      3       1.989837        238.8777
2013    16      4       1.59039         219.8553
2013    16      5       1.35432         205.5539
2013    16      6       1.562898        218.4989
2013    16      7       1.481264        213.1024
2013    17      0       1.443824        210.1181
2013    17      1       1.400057        206.5852
2013    17      2       1.308911        201.2501
2013    17      3       1.36672         205.6268
2013    17      4       1.398433        207.9144
2013    17      5       1.436812        210.418
2013    17      6       1.472388        212.6186
2013    17      7       1.431046        208.7905
2013    18      0       1.120972        184.1593
2013    18      1       0.7764559       149.2258
2013    18      2       0.4696376       105.0425
2013    18      3       0.3863422       90.2805
2013    18      4       0.3408655       81.50854
2013    18      5       0.3277993       78.73033
2013    18      6       0.3347731       79.6344
2013    18      7       0.3208393       76.31708
2013    19      0       0.3390225       79.62125
2013    19      1       0.4251706       95.02164
2013    19      2       0.5287731       112.2565
2013    19      3       0.551594        115.9159
2013    19      4       0.6282194       126.4387
2013    19      5       0.7771148       145.1896
2013    19      6       0.921432        161.6914
2013    19      7       1.106552        179.4519
2013    20      0       1.165356        183.8939
2013    20      1       1.009441        170.3392
2013    20      2       0.8229329       152.0337
2013    20      3       0.7688565       145.8628
2013    20      4       0.7863125       147.4575
2013    20      5       0.6413098       129.3006
2013    20      6       0.4229212       95.28769
2013    20      7       0.3364405       79.57429
2013    21      0       0.2752537       67.88936
2013    21      1       0.3841104       88.80178
2013    21      2       0.4234497       96.18307
2013    21      3       0.4268183       97.07678
2013    21      4       0.3874258       89.91798
2013    21      5       0.3425626       81.48721
2013    21      6       0.3556218       83.81288
2013    21      7       0.4085585       93.67574
2013    22      0       0.4111617       94.37745
2013    22      1       0.6013011       125.4325
2013    22      2       0.5979354       125.4595
2013    22      3       0.6114766       126.5704
2013    22      4       0.5853488       121.8735
2013    22      5       0.6223358       126.2928
2013    22      6       0.7284104       140.0387
2013    22      7       0.8165023       150.9186
2013    23      0       0.9079125       162.3092
2013    23      1       0.8041417       152.4477
2013    23      2       1.130944        186.7912
2013    23      3       1.414019        208.8269
2013    23      4       1.509862        215.0107
2013    23      5       1.737027        228.4168
2013    23      6       1.364379        206.1756
2013    23      7       0.9604613       170.4197
2013    24      0       0.9621818       170.0823
2013    24      1       0.9605451       171.0746
2013    24      2       0.7826673       151.3373
2013    24      3       0.7038806       140.6518
2013    24      4       0.6546271       133.0453
2013    24      5       0.6167943       127.3404
2013    24      6       0.7945671       150.5388
2013    24      7       1.431192        206.0717
2013    25      0       1.640711        218.4076
2013    25      1       1.26945         195.0034
2013    25      2       1.188771        188.5569
2013    25      3       0.9585561       167.5335
2013    25      4       0.7310259       141.3345
2013    25      5       0.8598098       156.6202
2013    25      6       0.8280052       152.7568
2013    25      7       0.8188283       151.7213
2013    26      0       0.8440006       154.6202
2013    26      1       1.106983        179.9503
2013    26      2       0.8307518       153.7335
2013    26      3       0.7839972       149.4408
2013    26      4       0.7482753       145.3297
2013    26      5       0.7192384       141.6549
2013    26      6       0.7104859       140.3788
2013    26      7       0.7372893       143.6711
2013    27      0       0.7355413       142.8261
2013    27      1       0.7185112       141.3258
2013    27      2       0.7083983       140.9077
2013    27      3       0.7015481       140.4799
2013    27      4       0.62948         130.7291
2013    27      5       0.6394752       132.3293
2013    27      6       0.6985689       140.543
2013    27      7       0.6795003       138.212
2013    28      0       0.5747525       122.4886
2013    28      1       1.063568        181.6313
2013    28      2       1.819516        233.0088
2013    28      3       1.916999        237.4707
2013    28      4       1.729665        230.1385
2013    28      5       1.618934        224.984
2013    28      6       1.880731        237.2867
2013    28      7       2.148779        246.0777
2013    29      0       1.688241        226.7434
2013    29      1       0.96683         173.57
2013    29      2       0.6920154       140.472
2013    29      3       0.5672346       121.4598
2013    29      4       0.4013615       93.56272
2013    29      5       0.373498        88.46882
2013    29      6       0.4316282       98.6814
2013    29      7       0.4713607       105.5965
2013    30      0       0.5499876       118.364
2013    30      1       0.7038747       141.1661
2013    30      2       0.6599173       134.9299
2013    30      3       0.8437323       157.7088
2013    30      4       1.153978        187.457
2013    30      5       1.071732        179.5223
2013    30      6       1.117644        183.8561
2013    30      7       1.040576        176.7508
2014    1       0       0.5909728       123.1085
2014    1       1       0.5701254       120.0318
2014    1       2       0.5589854       118.563
2014    1       3       0.60013         123.4921
2014    1       4       0.5852965       120.9464
2014    1       5       0.4998634       108.2094
2014    1       6       0.4605036       101.8469
2014    1       7       0.4370222       98.16612
2014    2       0       0.3465007       82.74158
2014    2       1       0.4750015       105.2628
2014    2       2       0.5185537       112.8681
2014    2       3       0.4356597       99.21457
2014    2       4       0.4087437       93.44857
2014    2       5       0.4284256       96.37749
2014    2       6       1.298868        199.8594
2014    2       7       1.12247         183.4321
2014    3       0       1.279926        195.2154
2014    3       1       1.175284        186.3695
2014    3       2       0.983317        168.2979
2014    3       3       0.5228275       110.5786
2014    3       4       0.5264562       111.6024
2014    3       5       0.5347101       111.4083
2014    3       6       0.4970643       105.9176
2014    3       7       0.4554188       99.96894
2014    4       0       0.4476535       98.55641
2014    4       1       0.3733299       85.43452
2014    4       2       0.4719203       101.7182
2014    4       3       0.4517361       98.69266
2014    4       4       0.415465        92.77924
2014    4       5       0.4395557       96.54802
2014    4       6       0.4350446       95.90174
2014    4       7       0.4447944       97.53346
2014    5       0       0.5120221       108.3327
2014    5       1       0.6077304       122.7293
2014    5       2       0.6296933       125.5315
2014    5       3       0.440507        97.29103
2014    5       4       0.3846442       87.54402
2014    5       5       0.3466998       80.27816
2014    5       6       0.2976073       71.03591
2014    5       7       0.2959775       71.18718
2014    6       0       0.3367775       79.6471
2014    6       1       0.3400171       81.1453
2014    6       2       0.3601358       85.6271
2014    6       3       0.4010185       93.2924
2014    6       4       0.4410743       100.1124
2014    6       5       0.3333088       80.73008
2014    6       6       0.3971077       92.59617
2014    6       7       0.4616925       103.8083
2014    7       0       0.4846146       107.9055
2014    7       1       0.7009497       140.033
2014    7       2       0.740881        145.5986
2014    7       3       0.6264054       129.7542
2014    7       4       0.4698666       105.1853
2014    7       5       0.4084719       94.51455
2014    7       6       0.3761677       88.55558
2014    7       7       0.3105305       76.14771
2014    8       0       0.3338541       80.59911
2014    8       1       0.5121206       112.3161
2014    8       2       0.5888878       124.7657
2014    8       3       0.6161742       128.8131
2014    8       4       0.616571        129.02
2014    8       5       0.6433645       132.6265
2014    8       6       0.5969789       125.6375
2014    8       7       0.5209089       113.5695
2014    9       0       0.5042691       110.595
2014    9       1       0.6262898       129.2109
2014    9       2       0.759479        147.4636
2014    9       3       0.646379        131.485
2014    9       4       0.5589029       117.6991
2014    9       5       0.5976603       124.2041
2014    9       6       0.9681057       171.2326
2014    9       7       1.137623        187.6129
2014    10      0       1.088092        182.6816
2014    10      1       0.9581034       170.5904
2014    10      2       0.8271066       156.8296
2014    10      3       0.7488214       146.7192
2014    10      4       0.6692659       135.7654
2014    10      5       0.6831601       137.1145
2014    10      6       0.7981759       151.7861
2014    10      7       0.8003125       151.9938
2014    11      0       0.824854        154.7636
2014    11      1       0.9346454       167.6625
2014    11      2       1.134101        187.3978
2014    11      3       1.316455        202.0534
2014    11      4       1.304313        201.3881
2014    11      5       1.235668        195.9332
2014    11      6       1.29659         199.8765
2014    11      7       1.375041        205.1748
2014    12      0       1.522962        214.8068
2014    12      1       1.397697        207.4043
2014    12      2       1.499986        214.19
2014    12      3       1.505791        214.2088
2014    12      4       1.49979         214.066
2014    12      5       1.454575        211.4633
2014    12      6       1.413201        208.7648
2014    12      7       1.370952        205.9241
2014    13      0       1.302714        201.204
2014    13      1       1.100757        185.2373
2014    13      2       0.9203076       167.7917
2014    13      3       0.8537627       160.1897
2014    13      4       0.8254425       156.4218
2014    13      5       0.805294        154.0427
2014    13      6       0.9287652       168.273
2014    13      7       1.012624        177.0236
2014    14      0       0.9015991       165.657
2014    14      1       0.9309921       169.3386
2014    14      2       0.9064654       167.5589
2014    14      3       0.8652536       163.0512
2014    14      4       0.7192882       144.9401
2014    14      5       0.7401545       147.6135
2014    14      6       0.783923        152.7153
2014    14      7       0.9512582       171.7462
2014    15      0       1.032133        180.1971
2014    15      1       1.306166        203.6713
2014    15      2       1.417039        212.2914
2014    15      3       1.336691        206.8301
2014    15      4       1.350348        208.3305
2014    15      5       1.357077        208.505
2014    15      6       1.088511        185.3487
2014    15      7       0.9810976       173.2679
2014    16      0       0.846698        158.1372
2014    16      1       1.030077        178.683
2014    16      2       0.9698633       174.0002
2014    16      3       1.166717        193.2046
2014    16      4       1.267537        201.1948
2014    16      5       1.29624         203.0078
2014    16      6       1.149272        190.4706
2014    16      7       0.8833026       163.9614
2014    17      0       0.825223        157.0457
2014    17      1       1.032143        179.1949
2014    17      2       1.236688        196.5499
2014    17      3       1.294592        199.7405
2014    17      4       1.476761        212.2439
2014    17      5       1.52532         216.0755
2014    17      6       1.258662        198.7584
2014    17      7       0.8747279       162.9585
2014    18      0       0.6252503       130.4418
2014    18      1       0.7182624       143.4629
2014    18      2       0.7095273       143.1364
2014    18      3       0.7060957       143.4129
2014    18      4       0.7787624       152.5154
2014    18      5       0.8348506       158.4835
2014    18      6       0.8599142       160.8771
2014    18      7       0.8485508       158.7785
2014    19      0       0.8469032       158.0839
2014    19      1       0.9234515       166.0505
2014    19      2       0.9460738       168.9128
2014    19      3       0.9515474       169.3409
2014    19      4       0.9048365       164.0888
2014    19      5       0.9287778       165.6585
2014    19      6       0.9262582       165.454
2014    19      7       0.8200374       154.0399
2014    20      0       0.7806261       149.4214
2014    20      1       0.9141665       166.0086
2014    20      2       0.9288182       168.1699
2014    20      3       0.9613629       171.6326
2014    20      4       0.9354686       168.8999
2014    20      5       1.057522        180.5216
2014    20      6       1.014898        175.6632
2014    20      7       0.8991959       163.691
2014    21      0       0.8202339       154.7962
2014    21      1       0.7229738       143.0725
2014    21      2       0.683779        138.2317
2014    21      3       0.6500155       133.6633
2014    21      4       0.5887573       124.5697
2014    21      5       0.5582621       120.0769
2014    21      6       0.5623326       120.5189
2014    21      7       0.5613524       120.1359
2014    22      0       0.5457379       117.8907
2014    22      1       0.50393         111.3076
2014    22      2       0.559838        119.939
2014    22      3       0.6254769       129.5466
2014    22      4       0.51631         113.234
2014    22      5       0.4618594       104.0817
2014    22      6       0.5991022       126.0523
2014    22      7       0.7115946       141.8651
2014    23      0       0.6628361       135.2486
2014    23      1       0.7070474       141.3546
2014    23      2       0.6899989       139.7061
2014    23      3       0.7143289       143.1769
2014    23      4       0.6556627       134.9736
2014    23      5       0.7168323       143.3825
2014    23      6       0.8907129       164.7602
2014    23      7       0.5375725       117.202
2014    24      0       0.4923699       109.7499
2014    24      1       0.6102779       128.5639
2014    24      2       0.6209932       130.3614
2014    24      3       0.5845185       124.6676
2014    24      4       0.5614139       120.321
2014    24      5       0.5380327       116.8162
2014    24      6       0.6366075       131.2189
2014    24      7       0.63582         131.8869
2014    25      0       0.6273283       130.8094
2014    25      1       0.6333866       132.3885
2014    25      2       0.5850749       126.0174
2014    25      3       0.5265774       116.9035
2014    25      4       0.4626295       106.2238
2014    25      5       0.4754073       108.6338
2014    25      6       0.4855692       110.2153
2014    25      7       0.4343049       101.1701
2014    26      0       0.4673571       106.3976
2014    26      1       0.6138805       128.9015
2014    26      2       0.775806        150.7088
2014    26      3       0.9020152       165.7655
2014    26      4       1.661033        225.6772
2014    26      5       1.615485        223.2263
2014    26      6       1.967236        238.115
2014    26      7       2.064247        240.7214
2014    27      0       1.537048        215.1658
2014    27      1       1.97588         237.5215
2014    27      2       1.992732        238.2037
2014    27      3       1.971916        237.0073
2014    27      4       1.776796        228.0808
2014    27      5       1.727985        225.8519
2014    27      6       1.549831        215.404
2014    27      7       1.583733        217.2855
2014    28      0       1.390329        206.2476
2014    28      1       1.580674        218.2546
2014    28      2       1.642217        221.4016
2014    28      3       1.657706        221.6778
2014    28      4       1.584554        217.7334
2014    28      5       1.500691        213.0419
2014    28      6       1.52991         215.2001
2014    28      7       1.667531        223.1893
2014    29      0       1.763184        227.7306
2014    29      1       1.524971        215.8593
2014    29      2       1.468558        211.9753
2014    29      3       1.302375        200.1562
2014    29      4       1.32216         202.1949
2014    29      5       1.326717        202.7701
2014    29      6       1.302757        200.7654
2014    29      7       1.252022        197.0876
2014    30      0       1.206618        193.1781
2014    30      1       1.096766        184.9962
2014    30      2       1.036648        180.5441
2014    30      3       1.082125        185.0615
2014    30      4       1.128713        188.8186
2014    30      5       1.040138        179.9473
2014    30      6       0.8984321       165.63
2014    30      7       0.8346901       158.5959
2015    1       0       0.9885816       172.9852
2015    1       1       0.7610136       148.3646
2015    1       2       0.7482725       147.5779
2015    1       3       0.7239845       143.8526
2015    1       4       0.6428344       132.6333
2015    1       5       0.7861216       151.3759
2015    1       6       1.075861        183.1624
2015    1       7       1.201941        194.3805
2015    2       0       1.145284        189.968
2015    2       1       1.456203        213.1324
2015    2       2       2.336149        252.6215
2015    2       3       2.966151        268.0235
2015    2       4       3.418269        274.7795
2015    2       5       2.399786        253.4895
2015    2       6       1.662286        234.7226
2015    2       7       2.28765         260.6386
2015    3       0       1.041589        188.7898
2015    3       1       0.6904129       148.2882
2015    3       2       0.8239962       159.502
2015    3       3       0.8902609       167.4399
2015    3       4       0.8429529       160.9276
2015    3       5       0.5127337       119.107
2015    3       6       0.4006992       98.3718
2015    3       7       0.4442142       102.5228
2015    4       0       0.4737356       112.2051
2015    4       1       0.7557345       148.5428
2015    4       2       1.056429        181.5152
2015    4       3       1.284383        200.1214
2015    4       4       1.325268        203.3527
2015    4       5       1.359999        205.8006
2015    4       6       1.382102        207.3369
2015    4       7       1.266471        199.3088
2015    5       0       1.250208        197.9804
2015    5       1       1.522469        215.6763
2015    5       2       1.357568        206.177
2015    5       3       1.530006        217.3101
2015    5       4       1.447823        211.5673
2015    5       5       1.274916        199.3922
2015    5       6       0.9138482       166.4172
2015    5       7       0.6546232       133.2272
2015    6       0       0.5979876       123.7097
2015    6       1       0.5596073       118.3848
2015    6       2       0.5850824       120.6944
2015    6       3       0.4935305       106.9478
2015    6       4       0.7516306       144.1247
2015    6       5       0.8947022       160.5504
2015    6       6       0.8517951       155.3329
2015    6       7       0.721127        139.448
2015    7       0       0.5887521       121.1752
2015    7       1       0.6422306       129.3796
2015    7       2       0.5760588       120.1103
2015    7       3       0.4432228       98.91957
2015    7       4       0.4450812       99.17268
2015    7       5       0.593868        122.4142
2015    7       6       0.6377238       128.4434
2015    7       7       0.6638352       131.9404
2015    8       0       0.646411        129.3251
2015    8       1       0.6068471       123.9912
2015    8       2       0.5923782       122.2175
2015    8       3       0.5273971       112.7629
2015    8       4       0.4393839       98.37487
2015    8       5       0.423527        95.55874
2015    8       6       0.4344393       97.15387
2015    8       7       0.4577771       100.9519
2015    9       0       0.5300524       112.4545
2015    9       1       0.5585743       116.7943
2015    9       2       0.5757383       119.4269
2015    9       3       0.541058        114.6568
2015    9       4       0.5052345       109.1111
2015    9       5       0.4839488       105.5303
2015    9       6       0.4613889       101.6147
2015    9       7       0.3553525       83.71444
2015    10      0       0.3492724       82.86941
2015    10      1       0.4075386       93.82788
2015    10      2       0.42957         97.92795
2015    10      3       0.4500141       101.5227
2015    10      4       0.4983428       109.4684
2015    10      5       0.5094745       110.948
2015    10      6       0.5181444       112.2184
2015    10      7       0.5303264       114.2004
2015    11      0       0.5590225       118.6428
2015    11      1       0.6065327       126.1129
2015    11      2       0.635082        130.7814
2015    11      3       0.6366757       130.6802
2015    11      4       0.6129272       126.6885
2015    11      5       0.524741        113.5841
2015    11      6       0.5341945       114.6766
2015    11      7       0.5632961       119.009
2015    12      0       0.6632407       133.4398
2015    12      1       0.8231997       153.8544
2015    12      2       0.8237544       153.9492
2015    12      3       0.7769402       147.3375
2015    12      4       0.5273569       111.7823
2015    12      5       0.4871948       105.3254
2015    12      6       0.5409623       114.3965
2015    12      7       0.6237785       126.6898
2015    13      0       0.6708665       132.9252
2015    13      1       0.7035176       137.7977
2015    13      2       0.7776668       147.752
2015    13      3       0.8329419       153.9576
2015    13      4       1.429288        207.0572
2015    13      5       0.7079479       138.0441
2015    13      6       0.6584986       131.4873
2015    13      7       0.6143837       125.6609
2015    14      0       1.453492        207.9402
2015    14      1       1.053592        175.2741
2015    14      2       1.062972        176.4161
2015    14      3       0.9979428       171.0407
2015    14      4       1.021259        173.8845
2015    14      5       0.9584013       167.4295
2015    14      6       0.830886        153.7647
2015    14      7       0.7157177       140.4162
2015    15      0       0.633778        129.89
2015    15      1       0.7533883       146.6751
2015    15      2       0.7874655       151.7882
2015    15      3       0.7684298       149.9303
2015    15      4       0.7682551       150.0992
2015    15      5       0.7050109       141.369
2015    15      6       0.7224833       143.6482
2015    15      7       0.8657825       162.0285
2015    16      0       1.462164        214.0932
2015    16      1       2.712494        257.9157
2015    16      2       1.653634        220.661
2015    16      3       0.4553555       101.3139
2015    16      4       0.3046464       73.51186
2015    16      5       0.2512449       63.33784
2015    16      6       0.2592264       64.94428
2015    16      7       0.2610727       64.89916
2015    17      0       0.2755104       67.85168
2015    17      1       0.4184959       94.91442
2015    17      2       0.359354        84.79986
2015    17      3       0.2984829       73.18888
2015    17      4       0.1913618       50.89956
2015    17      5       0.1545561       42.52665
2015    17      6       0.1602358       43.76025
2015    17      7       0.2164202       56.03199
2015    18      0       0.2255778       57.98146
2015    18      1       0.4305479       98.57466
2015    18      2       0.5375812       116.1199
2015    18      3       0.8611539       158.5063
2015    18      4       0.9695573       171.3021
2015    18      5       0.896606        164.9478
2015    18      6       0.9244151       168.4263
2015    18      7       1.639494        223.412
2015    19      0       1.433797        212.0013
2015    19      1       1.828578        233.1421
2015    19      2       2.006755        240.9136
2015    19      3       2.278589        249.3681
2015    19      4       2.225582        247.2088
2015    19      5       1.910299        234.5785
2015    19      6       1.628313        220.7156
2015    19      7       1.589842        217.6964
2015    20      0       1.406696        206.2408
2015    20      1       1.232173        193.9077
2015    20      2       0.9561918       170.3888
2015    20      3       0.8133804       154.7888
2015    20      4       0.7704438       149.6249
2015    20      5       0.6252913       129.529
2015    20      6       0.3692798       87.33662
2015    20      7       0.3139805       76.79112
2015    21      0       0.2822271       70.45968
2015    21      1       0.4164913       96.17068
2015    21      2       0.427511        98.05254
2015    21      3       0.3701495       87.36194
2015    21      4       0.2693588       67.47659
2015    21      5       0.3407373       81.55963
2015    21      6       0.4867771       107.5309
2015    21      7       0.6965336       138.2204
2015    22      0       0.9238507       165.2725
2015    22      1       1.022659        176.5928
2015    22      2       0.5611349       120.7675
2015    22      3       0.4292071       99.11313
2015    22      4       0.4041396       94.85668
2015    22      5       0.3224692       79.44237
2015    22      6       0.2994295       74.78173
2015    22      7       0.2520631       64.58216
2015    23      0       0.2641721       66.69194
2015    23      1       0.4637355       104.2656
2015    23      2       0.5561725       118.569
2015    23      3       0.9696182       172.1491
2015    23      4       0.9471106       170.5963
2015    23      5       1.056509        181.9525
2015    23      6       0.7828866       151.7747
2015    23      7       0.2910819       72.66552
2015    24      0       0.2928763       72.5642
2015    24      1       0.4440904       100.9146
2015    24      2       0.518628        113.4349
2015    24      3       0.5070845       111.505
2015    24      4       0.3559479       85.14252
2015    24      5       0.3061907       75.42007
2015    24      6       0.2801495       70.13086
2015    24      7       0.2730794       68.89414
2015    25      0       0.3477202       83.87589
2015    25      1       0.5271107       115.7719
2015    25      2       0.6512864       134.408
2015    25      3       0.5721203       122.1187
2015    25      4       0.4935227       109.2611
2015    25      5       0.4706954       105.4648
2015    25      6       0.5001103       111.1081
2015    25      7       0.9144661       168.4892
2015    26      0       1.127423        190.1671
2015    26      1       1.124175        190.3037
2015    26      2       1.196035        197.1193
2015    26      3       1.173097        195.2946
2015    26      4       1.083582        187.5789
2015    26      5       0.9533695       174.4594
2015    26      6       0.8742924       165.1823
2015    26      7       0.8066149       156.8395
2015    27      0       0.6996965       143.0118
2015    27      1       0.8052834       156.7496
2015    27      2       0.7333527       147.5942
2015    27      3       0.5658632       122.9411
2015    27      4       0.448531        103.2224
2015    27      5       0.4489992       102.8172
2015    27      6       0.4401637       100.8963
2015    27      7       0.553877        119.8353
2015    28      0       0.8148289       155.7374
2015    28      1       0.8951946       164.9573
2015    28      2       0.9875825       175.0445
2015    28      3       1.020798        178.166
2015    28      4       0.9696068       172.559
2015    28      5       1.143312        189.0423
2015    28      6       1.638726        224.7037
2015    28      7       1.672007        226.1715
2015    29      0       1.535671        218.2532
2015    29      1       1.502842        216.1219
2015    29      2       1.560932        220.941
2015    29      3       1.770775        231.3852
2015    29      4       1.633452        224.4519
2015    29      5       1.557578        220.5426
2015    29      6       1.628346        224.5045
2015    29      7       1.576038        222.0836
2015    30      0       1.544131        220.9109
2015    30      1       1.524776        221.4801
2015    30      2       1.339712        210.6262
2015    30      3       1.238955        203.3314
2015    30      4       1.188622        198.8207
2015    30      5       1.114951        191.6353
2015    30      6       1.121103        192.0698
2015    30      7       1.13938         193.8635
2016    1       0       0.3666073       88.10824
2016    1       1       0.5083262       113.2079
2016    1       2       0.5682611       122.7362
2016    1       3       0.6319236       130.8782
2016    1       4       0.6605604       134.571
2016    1       5       0.6321713       130.5772
2016    1       6       0.7895632       151.5634
2016    1       7       0.9935161       174.44
2016    2       0       1.108546        185.3233
2016    2       1       1.128137        187.3517
2016    2       2       1.195445        193.4782
2016    2       3       1.24327         196.4625
2016    2       4       1.168429        190.8586
2016    2       5       1.243499        196.7468
2016    2       6       1.140973        187.5416
2016    2       7       0.9462942       166.6869
2016    3       0       0.9928657       170.0339
2016    3       1       1.136416        183.2406
2016    3       2       1.095331        181.0904
2016    3       3       0.9588396       168.0482
2016    3       4       0.6198541       127.4294
2016    3       5       0.4725944       104.6072
2016    3       6       0.3687965       86.64493
2016    3       7       0.3471666       82.75115
2016    4       0       0.4150633       95.04246
2016    4       1       0.4970019       109.2828
2016    4       2       0.5263772       114.3005
2016    4       3       0.5531741       118.4063
2016    4       4       0.5337454       115.3097
2016    4       5       0.5036675       110.4477
2016    4       6       0.4084747       94.00235
2016    4       7       0.2578426       65.00997
2016    5       0       0.2428571       61.97207
2016    5       1       0.459875        102.8661
2016    5       2       0.7227439       141.9861
2016    5       3       0.7890506       150.6954
2016    5       4       0.7176001       142.1958
2016    5       5       0.6660662       135.3311
2016    5       6       0.6364828       130.9426
2016    5       7       0.5635648       120.0439
2016    6       0       0.5111587       112.0551
2016    6       1       0.6261155       129.7758
2016    6       2       0.6412024       132.6989
2016    6       3       0.6686162       136.2419
2016    6       4       0.8021234       152.2197
2016    6       5       1.10732         182.5889
2016    6       6       1.411316        206.6401
2016    6       7       1.385159        204.9261
2016    7       0       1.212704        193.1964
2016    7       1       0.928411        168.0057
2016    7       2       0.8588362       161.3207
2016    7       3       1.016071        177.8372
2016    7       4       0.7127289       142.6267
2016    7       5       0.6085904       127.5738
2016    7       6       0.3701993       87.45985
2016    7       7       0.3337837       80.05207
2016    8       0       0.3493894       83.39733
2016    8       1       0.6899341       138.2204
2016    8       2       0.8849831       162.4287
2016    8       3       0.5765822       122.5184
2016    8       4       0.2262251       58.88187
2016    8       5       0.3120525       76.90576
2016    8       6       0.4784168       107.3405
2016    8       7       0.4962258       110.4379
2016    9       0       0.7235103       144.028
2016    9       1       1.42979         210.4656
2016    9       2       1.806712        231.5167
2016    9       3       2.766858        260.5082
2016    9       4       1.656287        224.314
2016    9       5       0.8121459       154.7193
2016    9       6       0.6687539       135.7581
2016    9       7       0.8455092       157.7874
2016    10      0       0.7990952       151.6569
2016    10      1       0.8184974       154.1798
2016    10      2       0.9507363       170.0361
2016    10      3       0.7931546       151.702
2016    10      4       0.5825765       122.1579
2016    10      5       0.5421297       115.8085
2016    10      6       0.6366776       129.3615
2016    10      7       0.6129195       125.8234
2016    11      0       0.5799335       120.8271
2016    11      1       0.5531892       117.4585
2016    11      2       0.5174243       112.8208
2016    11      3       0.5113047       112.3688
2016    11      4       0.514095        113.0465
2016    11      5       0.6021766       126.5998
2016    11      6       0.5942554       124.4703
2016    11      7       1.432651        208.9149
2016    12      0       1.038631        177.5852
2016    12      1       0.8910307       161.8986
2016    12      2       0.9694438       169.9886
2016    12      3       0.8024016       152.5571
2016    12      4       0.6245987       128.2947
2016    12      5       1.613605        221.0065
2016    12      6       2.405711        252.1396
2016    12      7       2.405194        252.6281
2016    13      0       1.648124        224.0103
2016    13      1       1.351473        206.4215
2016    13      2       1.219294        197.0545
2016    13      3       1.220659        197.1409
2016    13      4       1.16597         191.9656
2016    13      5       1.002481        176.6206
2016    13      6       1.130707        188.2482
2016    13      7       1.347605        205.1193
2016    14      0       1.586664        220.9234
2016    14      1       0.96621         172.3527
2016    14      2       0.8261722       156.9537
2016    14      3       0.7290499       144.6226
2016    14      4       0.6494202       133.6067
2016    14      5       0.5840842       123.6722
2016    14      6       0.5564362       119.0529
2016    14      7       0.5202558       113.2166
2016    15      0       0.5166839       112.7079
2016    15      1       0.751319        146.3531
2016    15      2       0.7808227       151.0836
2016    15      3       0.7251149       144.292
2016    15      4       0.675908        137.6271
2016    15      5       0.7584638       149.2824
2016    15      6       0.5809388       124.4774
2016    15      7       0.3121901       77.13311
2016    16      0       0.3710806       87.1979
2016    16      1       1.587767        220.8295
2016    16      2       1.737761        230.6921
2016    16      3       2.0145          242.3668
2016    16      4       2.095516        243.4365
2016    16      5       2.391445        254.0227
2016    16      6       2.206549        247.3637
2016    16      7       1.18721         189.7981
2016    17      0       1.203281        193.3139
2016    17      1       0.8351329       156.9981
2016    17      2       0.6248266       128.7152
2016    17      3       0.6314035       129.2689
2016    17      4       0.6671189       133.6167
2016    17      5       0.760545        145.4733
2016    17      6       0.6632524       132.4607
2016    17      7       0.5159595       111.2829
2016    18      0       0.6252131       127.3775
2016    18      1       0.6781966       134.8752
2016    18      2       0.7414987       142.9689
2016    18      3       1.67388         220.9995
2016    18      4       1.109595        182.1103
2016    18      5       1.298987        197.0303
2016    18      6       1.050684        176.7647
2016    18      7       0.6834453       135.8126
2016    19      0       0.6186771       127.1561
2016    19      1       0.6377452       130.4983
2016    19      2       0.6629364       134.3232
2016    19      3       0.7503815       145.446
2016    19      4       0.7032558       138.9593
2016    19      5       0.848387        155.6709
2016    19      6       0.7269292       140.3408
2016    19      7       0.6741229       132.6147
2016    20      0       0.8152069       151.7128
2016    20      1       1.150308        186.8454
2016    20      2       1.235809        194.9959
2016    20      3       1.434631        208.8406
2016    20      4       1.409239        208.4724
2016    20      5       1.699423        225.2546
2016    20      6       1.935396        236.181
2016    20      7       2.183291        245.8384
2016    21      0       1.904777        235.8478
2016    21      1       1.869355        235.0795
2016    21      2       1.631439        225.4711
2016    21      3       1.663599        227.2323
2016    21      4       1.683982        228.6746
2016    21      5       1.704136        228.9847
2016    21      6       2.313563        251.1854
2016    21      7       1.796327        232.4815
2016    22      0       1.316823        204.2679
2016    22      1       1.660312        225.9203
2016    22      2       1.572199        220.8869
2016    22      3       1.233556        198.2058
2016    22      4       0.3738903       89.27135
2016    22      5       0.2906844       72.74051
2016    22      6       0.257622        65.77926
2016    22      7       0.259922        65.97122
2016    23      0       0.3006006       74.11319
2016    23      1       0.474532        105.8728
2016    23      2       0.5895507       124.4895
2016    23      3       0.6385518       131.29
2016    23      4       0.4605988       103.1846
2016    23      5       0.3891958       91.35701
2016    23      6       0.3488349       83.713
2016    23      7       0.337469        81.01889
2016    24      0       0.3685137       86.89488
2016    24      1       0.4868088       108.3539
2016    24      2       0.5371557       117.4449
2016    24      3       0.5519316       120.4371
2016    24      4       0.5724186       123.4513
2016    24      5       0.630318        131.933
2016    24      6       0.6614679       136.1185
2016    24      7       0.5527789       119.8195
2016    25      0       0.3306943       80.61326
2016    25      1       0.648523        134.862
2016    25      2       0.903244        167.8968
2016    25      3       1.005778        178.9965
2016    25      4       1.029168        181.8524
2016    25      5       0.9587655       174.6741
2016    25      6       0.8444361       161.6987
2016    25      7       0.9083497       168.7678
2016    26      0       0.8222892       158.8532
2016    26      1       0.9277738       169.6681
2016    26      2       1.123228        188.8197
2016    26      3       1.173564        192.4422
2016    26      4       1.158074        191.6191
2016    26      5       0.993677        176.8018
2016    26      6       0.8214781       157.1698
2016    26      7       0.7329967       145.7303
2016    27      0       0.7481762       146.393
2016    27      1       0.7793514       149.2316
2016    27      2       0.8148397       153.8381
2016    27      3       0.8594502       158.9303
2016    27      4       0.8059971       152.3374
2016    27      5       0.7610415       146.4189
2016    27      6       1.293403        200.4697
2016    27      7       0.7435025       145.7069
2016    28      0       0.7297963       144.5317
2016    28      1       1.000672        176.6979
2016    28      2       1.11642         188.1469
2016    28      3       1.121095        187.7961
2016    28      4       0.7406136       146.0393
2016    28      5       0.4909498       109.1184
2016    28      6       0.485357        107.8733
2016    28      7       0.5583819       119.391
2016    29      0       0.5989306       125.9791
2016    29      1       0.6878807       139.5125
2016    29      2       0.8016149       154.7297
2016    29      3       0.9703806       173.1255
2016    29      4       0.937453        168.9866
2016    29      5       0.8766911       161.614
2016    29      6       0.772692        148.0953
2016    29      7       0.9372918       167.0227
2016    30      0       1.123063        185.4642
2016    30      1       1.429893        210.7833
2016    30      2       1.376297        209.0226
2016    30      3       1.147749        191.2262
2016    30      4       0.899242        167.0035
2016    30      5       0.9175238       169.3202
2016    30      6       1.047331        182.357
2016    30      7       1.187351        194.4094
2017    1       0       0.6538744       129.4821
2017    1       1       0.6572389       129.773
2017    1       2       0.5835746       119.6508
2017    1       3       0.4749758       103.6328
2017    1       4       0.4930186       106.1703
2017    1       5       0.5200399       110.0706
2017    1       6       0.4889685       105.5017
2017    1       7       0.4720662       103.1394
2017    2       0       0.4780724       104.2675
2017    2       1       0.4518445       100.4153
2017    2       2       0.3818636       89.09791
2017    2       3       0.3867402       89.99056
2017    2       4       0.3163996       76.91662
2017    2       5       0.2721562       68.09092
2017    2       6       0.3524692       83.67046
2017    2       7       0.3609297       85.36277
2017    3       0       0.3299339       79.66357
2017    3       1       0.421984        96.78488
2017    3       2       0.5420209       117.3616
2017    3       3       0.4945258       109.9823
2017    3       4       0.4403225       100.9701
2017    3       5       0.4218118       97.7194
2017    3       6       0.4088688       95.19015
2017    3       7       0.5661645       121.2487
2017    4       0       0.5953728       125.9477
2017    4       1       0.593494        125.6169
2017    4       2       0.6313746       130.91
2017    4       3       0.5639205       120.4846
2017    4       4       0.5697549       121.028
2017    4       5       0.6661498       133.96
2017    4       6       0.7169945       138.8178
2017    4       7       0.9367317       164.0203
2017    5       0       1.188131        187.8164
2017    5       1       1.381923        203.6337
2017    5       2       1.543871        215.5467
2017    5       3       1.938004        236.0855
2017    5       4       2.068183        241.9451
2017    5       5       2.349091        250.8544
2017    5       6       2.604786        256.8015
2017    5       7       2.857015        260.8643
2017    6       0       2.111053        243.5879
2017    6       1       1.686154        226.4275
2017    6       2       1.213966        196.4497
2017    6       3       1.121666        188.202
2017    6       4       1.09911         185.0211
2017    6       5       1.034345        179.4404
2017    6       6       0.9894624       175.9813
2017    6       7       0.9164166       168.7829
2017    7       0       0.9337492       171.0291
2017    7       1       1.073213        185.6821
2017    7       2       1.055035        185.0502
2017    7       3       0.9943889       178.8794
2017    7       4       0.9054065       169.0432
2017    7       5       0.8720619       164.908
2017    7       6       0.7891952       154.0359
2017    7       7       0.7801443       152.9846
2017    8       0       0.8627471       162.7239
2017    8       1       1.069027        183.7628
2017    8       2       1.181596        194.1101
2017    8       3       1.515674        215.6032
2017    8       4       1.291515        199.9942
2017    8       5       1.07842         179.8746
2017    8       6       0.9160087       164.326
2017    8       7       0.6348117       131.3881
2017    9       0       1.328232        202.9504
2017    9       1       0.9502728       169.4844
2017    9       2       0.7984789       152.9542
2017    9       3       0.7392181       145.1844
2017    9       4       0.6096366       126.7148
2017    9       5       0.5193605       112.5457
2017    9       6       0.4664875       103.8921
2017    9       7       0.3477567       82.99021
2017    10      0       0.2215143       57.41809
2017    10      1       0.381462        89.73602
2017    10      2       0.4263925       98.38839
2017    10      3       0.5020956       111.3295
2017    10      4       0.6060352       126.7483
2017    10      5       0.7131689       139.1526
2017    10      6       0.8374357       153.1781
2017    10      7       1.159041        185.2973
2017    11      0       0.8938082       161.1292
2017    11      1       0.7518174       146.6227
2017    11      2       0.6957569       139.851
2017    11      3       0.5690737       121.9397
2017    11      4       0.2668179       67.38983
2017    11      5       0.2107105       55.00628
2017    11      6       0.1537678       42.18072
2017    11      7       0.1796062       47.87358
2017    12      0       0.2251178       57.4996
2017    12      1       0.3055841       73.8573
2017    12      2       0.3446879       81.4495
2017    12      3       0.3311764       79.02605
2017    12      4       0.3299774       78.80246
2017    12      5       0.3175494       76.42069
2017    12      6       0.2841974       69.80104
2017    12      7       0.2377007       60.06773
2017    13      0       0.2581739       64.1333
2017    13      1       0.3710173       86.65482
2017    13      2       0.553194        118.2879
2017    13      3       0.9840474       173.0808
2017    13      4       0.9437153       169.3168
2017    13      5       0.5020003       110.3505
2017    13      6       0.3681553       85.65103
2017    13      7       0.3961491       90.1423
2017    14      0       0.6063949       125.0371
2017    14      1       1.166944        187.3826
2017    14      2       1.426529        207.6559
2017    14      3       1.514516        214.181
2017    14      4       1.473825        213.0154
2017    14      5       1.35544         205.0849
2017    14      6       1.090235        183.4299
2017    14      7       0.9584505       170.7829
2017    15      0       0.8490865       159.2917
2017    15      1       0.8419859       158.6499
2017    15      2       0.9060698       165.9041
2017    15      3       0.8587529       160.7183
2017    15      4       0.9620743       172.9823
2017    15      5       1.003702        177.9695
2017    15      6       0.9294566       169.8984
2017    15      7       0.7360392       145.877
2017    16      0       0.6794043       138.0785
2017    16      1       0.8731543       162.712
2017    16      2       0.9655043       172.9113
2017    16      3       0.9079407       165.1747
2017    16      4       0.7869932       149.5806
2017    16      5       0.8599864       157.4732
2017    16      6       0.8685147       158.3681
2017    16      7       0.9089753       163.0848
2017    17      0       1.076554        180.3018
2017    17      1       1.676565        224.0556
2017    17      2       1.587628        218.1587
2017    17      3       1.181821        192.4626
2017    17      4       1.181062        192.0162
2017    17      5       1.017997        177.2423
2017    17      6       1.056024        180.2179
2017    17      7       1.08712         182.882
2017    18      0       1.253875        196.1784
2017    18      1       1.54405         216.0272
2017    18      2       2.003162        238.4633
2017    18      3       0.7387791       145.1781
2017    18      4       0.4587302       103.038
2017    18      5       0.5462449       116.9762
2017    18      6       0.5385195       115.8956
2017    18      7       0.5414977       116.5563
2017    19      0       0.6154351       127.6165
2017    19      1       0.6115659       127.282
2017    19      2       0.658619        133.9146
2017    19      3       0.762627        146.9488
2017    19      4       0.8021755       151.0932
2017    19      5       0.9402468       165.5473
2017    19      6       1.16021         186.8956
2017    19      7       1.207763        190.6956
2017    20      0       1.145297        186.3814
2017    20      1       1.210444        192.5673
2017    20      2       0.9821643       173.0276
2017    20      3       0.7817385       150.8096
2017    20      4       0.6784949       136.6538
2017    20      5       0.6097362       126.6265
2017    20      6       0.6682374       134.6713
2017    20      7       0.7625338       146.9873
2017    21      0       0.8677012       159.2098
2017    21      1       0.9066791       163.6216
2017    21      2       0.8344307       155.5069
2017    21      3       0.6969105       138.895
2017    21      4       0.6976347       139.4023
2017    21      5       0.7584255       147.0273
2017    21      6       0.7647658       147.7509
2017    21      7       0.7470981       145.2792
2017    22      0       0.63426         130.0455
2017    22      1       0.5233346       114.1203
2017    22      2       0.5366006       116.8493
2017    22      3       0.5698014       122.2096
2017    22      4       0.5271683       115.6875
2017    22      5       0.4117396       96.07234
2017    22      6       0.3662023       87.60983
2017    22      7       0.3714069       88.32205
2017    23      0       0.4405101       100.5223
2017    23      1       0.546935        118.3543
2017    23      2       0.4770608       107.2037
2017    23      3       0.4351915       99.83214
2017    23      4       0.4048965       93.99961
2017    23      5       0.4271442       97.37046
2017    23      6       0.411198        94.69132
2017    23      7       0.420142        96.03067
2017    24      0       0.4976532       109.5625
2017    24      1       0.50081         110.9197
2017    24      2       0.5227708       114.5427
2017    24      3       0.597414        125.563
2017    24      4       0.767643        146.9441
2017    24      5       0.7764308       149.5274
2017    24      6       0.8308993       156.6113
2017    24      7       0.8921703       162.9571
2017    25      0       1.165176        189.0696
2017    25      1       1.032081        177.8784
2017    25      2       0.9750221       172.0031
2017    25      3       0.9326803       166.0556
2017    25      4       0.8309842       153.6948
2017    25      5       0.8023659       149.3776
2017    25      6       0.592131        122.6732
2017    25      7       0.4430702       99.99695
2017    26      0       0.4014565       92.78737
2017    26      1       0.4039076       93.31562
2017    26      2       0.423235        97.07256
2017    26      3       0.4556671       102.406
2017    26      4       0.5518862       117.7601
2017    26      5       0.6035875       125.4207
2017    26      6       0.4968376       108.84
2017    26      7       0.5359784       115.1557
2017    27      0       0.5491058       117.0444
2017    27      1       0.5106552       111.4498
2017    27      2       0.5414719       116.2081
2017    27      3       0.5064728       110.984
2017    27      4       0.5418594       116.0868
2017    27      5       0.5704422       119.7749
2017    27      6       0.5090875       110.455
2017    27      7       0.4835607       106.3582
2017    28      0       0.6981698       138.8495
2017    28      1       0.8726117       161.6394
2017    28      2       0.8144315       155.9873
2017    28      3       0.6777279       137.5274
2017    28      4       0.6041016       126.4223
2017    28      5       0.5865245       122.9067
2017    28      6       0.7221355       142.8974
2017    28      7       0.7780839       150.3287
2017    29      0       0.7752917       150.4245
2017    29      1       0.7093678       142.7938
2017    29      2       0.5623873       122.03
2017    29      3       0.5967109       127.4977
2017    29      4       0.6667608       137.9691
2017    29      5       0.7400605       148.0623
2017    29      6       0.8209049       158.1293
2017    29      7       0.9329776       171.0771
2017    30      0       1.089783        186.3986
2017    30      1       1.348574        208.3148
2017    30      2       1.143888        192.7245
2017    30      3       0.8300885       159.4966
2017    30      4       0.6246994       131.7884
2017    30      5       0.5993664       127.2271
2017    30      6       0.4815145       109.2789
2017    30      7       0.469933        107.1661
2018    1       0       2.774478        260.7872
2018    1       1       2.565446        256.6366
2018    1       2       2.03117         242.3355
2018    1       3       2.019901        242.1109
2018    1       4       1.857535        236.2319
2018    1       5       2.008431        243.0443
2018    1       6       1.706493        229.8294
2018    1       7       1.567748        222.3361
2018    2       0       1.467048        216.1158
2018    2       1       1.678027        229.1772
2018    2       2       1.527376        221.3914
2018    2       3       1.456394        216.8024
2018    2       4       1.39346         212.6118
2018    2       5       1.626403        226.7681
2018    2       6       1.607018        224.9091
2018    2       7       1.766635        232.8979
2018    3       0       1.913473        239.1684
2018    3       1       2.285583        251.7602
2018    3       2       2.024105        243.0018
2018    3       3       1.853522        235.871
2018    3       4       2.382308        253.7042
2018    3       5       2.069305        242.562
2018    3       6       1.851774        232.8862
2018    3       7       1.510115        214.1436
2018    4       0       1.127932        185.1065
2018    4       1       0.7440924       145.1478
2018    4       2       0.7724111       149.2259
2018    4       3       0.7526109       146.2549
2018    4       4       0.6712804       135.1875
2018    4       5       0.7624078       146.727
2018    4       6       0.9165554       164.3782
2018    4       7       1.11433         183.8731
2018    5       0       3.663098        266.3231
2018    5       1       1.225393        192.9081
2018    5       2       1.381681        204.8242
2018    5       3       1.466662        210.2782
2018    5       4       1.481957        210.7949
2018    5       5       1.558267        214.6975
2018    5       6       1.443762        206.7217
2018    5       7       1.189296        188.6028
2018    6       0       0.9197439       163.9916
2018    6       1       0.7443001       143.1792
2018    6       2       0.5761395       119.3716
2018    6       3       0.4812409       103.5742
2018    6       4       0.6137997       123.2598
2018    6       5       0.6609083       129.7126
2018    6       6       0.4336857       95.15002
2018    6       7       0.3544211       81.18038
2018    7       0       0.3425726       78.88408
2018    7       1       0.2871952       68.53475
2018    7       2       0.2577431       62.94398
2018    7       3       0.3163604       74.02555
2018    7       4       0.342542        78.63529
2018    7       5       0.2629845       63.64738
2018    7       6       0.2382082       59.24731
2018    7       7       0.2715134       65.58108
2018    8       0       0.4305598       94.53682
2018    8       1       0.5643241       114.9273
2018    8       2       0.7205238       136.5129
2018    8       3       0.7306098       139.4864
2018    8       4       0.77463         146.224
2018    8       5       0.5312608       112.9954
2018    8       6       0.3879908       89.135
2018    8       7       0.3561854       83.32837
2018    9       0       0.4132748       93.25613
2018    9       1       0.5582301       116.92
2018    9       2       0.6352961       128.7267
2018    9       3       0.6050874       124.9791
2018    9       4       0.5135293       111.4725
2018    9       5       0.4586128       103.5274
2018    9       6       0.4944105       109.6971
2018    9       7       0.4245244       97.54504
2018    10      0       0.7901328       151.7944
2018    10      1       1.174069        191.7311
2018    10      2       1.385704        209.0266
2018    10      3       1.719226        228.48
2018    10      4       2.111182        244.3196
2018    10      5       2.160791        245.3069
2018    10      6       1.470073        212.2228
2018    10      7       0.7232998       142.7464
2018    11      0       0.4888468       108.4487
2018    11      1       0.5201487       113.8093
2018    11      2       0.3886473       91.45687
2018    11      3       0.3161983       77.51064
2018    11      4       0.3066957       75.27252
2018    11      5       0.3066014       75.55031
2018    11      6       0.3499608       83.32142
2018    11      7       0.491255        108.1908
2018    12      0       0.3295787       78.95479
2018    12      1       0.4947904       108.2872
2018    12      2       0.3259053       78.97292
2018    12      3       0.2979411       73.22385
2018    12      4       0.2635215       66.70386
2018    12      5       0.2633249       66.14871
2018    12      6       0.3174941       76.64566
2018    12      7       0.3608135       84.76229
2018    13      0       0.4727443       103.4125
2018    13      1       0.6158855       126.6893
2018    13      2       0.8952027       161.4327
2018    13      3       0.9908089       171.7927
2018    13      4       1.008907        174.5298
2018    13      5       1.031492        175.9187
2018    13      6       1.131554        185.5852
2018    13      7       1.578025        220.4157
2018    14      0       1.71493         229.069
2018    14      1       1.671538        226.3445
2018    14      2       1.568312        217.8484
2018    14      3       1.082811        182.7696
2018    14      4       1.219384        192.1936
2018    14      5       1.179607        189.3165
2018    14      6       0.7710086       147.5913
2018    14      7       0.683732        136.2497
2018    15      0       0.8039215       151.1081
2018    15      1       0.8055133       152.2729
2018    15      2       0.7017142       139.7732
2018    15      3       0.6440925       131.8771
2018    15      4       0.6351081       130.389
2018    15      5       0.5957205       124.4076
2018    15      6       0.473772        105.3406
2018    15      7       0.4170458       95.60956
2018    16      0       0.4801764       106.3609
2018    16      1       0.4522919       102.2983
2018    16      2       0.4598776       104.0475
2018    16      3       0.486943        108.716
2018    16      4       0.4847935       108.3783
2018    16      5       0.4929472       109.6266
2018    16      6       0.5463999       117.9799
2018    16      7       0.6511691       133.4077
2018    17      0       0.735596        144.5292
2018    17      1       0.7147658       142.4275
2018    17      2       0.6727798       137.2975
2018    17      3       0.607008        127.8108
2018    17      4       0.5417413       117.6138
2018    17      5       0.5690163       121.5494
2018    17      6       0.6244422       129.5541
2018    17      7       0.5730577       121.5477
2018    18      0       0.3675834       86.91793
2018    18      1       0.4752269       106.0877
2018    18      2       0.5380592       116.4033
2018    18      3       0.5463062       117.3891
2018    18      4       0.4086135       94.32784
2018    18      5       0.3944226       91.6612
2018    18      6       0.5010302       110.1355
2018    18      7       0.5593552       119.5641
2018    19      0       0.6131642       128.4876
2018    19      1       0.7774976       151.7657
2018    19      2       0.9466937       172.2144
2018    19      3       1.109819        188.9924
2018    19      4       1.300519        205.938
2018    19      5       1.470319        218.2755
2018    19      6       1.575095        224.5128
2018    19      7       1.510945        220.2724
2018    20      0       1.456167        216.7392
2018    20      1       1.322984        207.4428
2018    20      2       1.359062        211.5514
2018    20      3       1.244409        203.5685
2018    20      4       0.9264897       173.6629
2018    20      5       0.4901254       112.9043
2018    20      6       0.3460778       86.17663
2018    20      7       0.2054214       56.25999
2018    21      0       0.1484965       42.9513
2018    21      1       0.3864916       93.59706
2018    21      2       0.3914442       94.33945
2018    21      3       0.2439964       63.78348
2018    21      4       0.2709507       68.49152
2018    21      5       0.6411765       134.0041
2018    21      6       1.226414        198.5078
2018    21      7       1.389253        210.466
2018    22      0       1.357649        207.2677
2018    22      1       1.494754        214.9956
2018    22      2       1.747277        228.5394
2018    22      3       1.77355         229.1626
2018    22      4       2.088113        243.3543
2018    22      5       1.99924         239.4323
2018    22      6       2.002546        238.7577
2018    22      7       1.914029        234.7766
2018    23      0       1.720487        225.8884
2018    23      1       1.729872        225.8522
2018    23      2       1.83322         230.6962
2018    23      3       1.774473        228.3389
2018    23      4       1.745255        227.7342
2018    23      5       1.815238        231.0021
2018    23      6       1.764883        228.9734
2018    23      7       1.408623        209.5791
2018    24      0       1.350028        205.4583
2018    24      1       1.35366         205.7038
2018    24      2       1.145888        189.306
2018    24      3       0.9028797       165.3626
2018    24      4       0.4398165       100.9844
2018    24      5       0.2586159       66.47514
2018    24      6       0.1737323       47.92765
2018    24      7       0.3226647       79.66984
2018    25      0       0.391562        92.81605
2018    25      1       0.5147603       114.3481
2018    25      2       0.6031224       128.582
2018    25      3       0.6492215       135.5943
2018    25      4       0.6379827       134.1069
2018    25      5       0.6177005       131.1621
2018    25      6       0.6330808       133.4216
2018    25      7       0.640201        134.2696
2018    26      0       0.630712        132.5343
2018    26      1       0.8108615       156.1256
2018    26      2       0.8113869       156.0572
2018    26      3       0.7149584       143.0672
2018    26      4       0.7343142       144.5348
2018    26      5       0.8675012       160.9216
2018    26      6       0.9094425       166.1009
2018    26      7       0.8354825       157.3277
2018    27      0       0.8501133       159.1729
2018    27      1       1.027465        178.653
2018    27      2       0.9955906       176.7547
2018    27      3       1.028345        180.8099
2018    27      4       1.094015        187.3029
2018    27      5       1.153665        192.5723
2018    27      6       1.125213        189.8995
2018    27      7       1.055244        182.8203
2018    28      0       0.9483998       171.819
2018    28      1       0.8485873       160.9375
2018    28      2       0.700126        142.5115
2018    28      3       1.035458        182.123
2018    28      4       0.2539948       65.74027
2018    28      5       0.2613975       67.44939
2018    28      6       0.3543902       86.14876
2018    28      7       0.4904071       110.6545
2018    29      0       0.5848432       125.8437
2018    29      1       0.8902024       166.4307
2018    29      2       1.004465        179.0503
2018    29      3       0.9672634       174.9242
2018    29      4       0.7064841       143.3592
2018    29      5       0.3913886       91.67194
2018    29      6       0.42364         97.15523
2018    29      7       0.6959379       140.4173
2018    30      0       1.051249        182.5039
2018    30      1       1.472074        215.9318
2018    30      2       1.655372        227.7181
2018    30      3       1.670908        229.1427
2018    30      4       1.547934        222.5241
2018    30      5       1.779564        234.7332
2018    30      6       2.640942        262.1606
2018    30      7       2.396714        256.1977
