####################################################################################################
# Month: 10Oct                                                                                     #
# Station: TRL                                                                                     #
# Frequency: 345 GHz                                                                               #
# Columns are: year    day     segment         tau     Tb (K)                                      #
####################################################################################################
2009    1       0       0.2520773       57.89207
2009    1       1       0.2932847       65.24222
2009    1       2       0.2853211       63.9996
2009    1       3       0.2543681       58.71964
2009    1       4       0.2181716       52.25967
2009    1       5       0.2449155       57.76734
2009    1       6       0.2669421       62.08035
2009    1       7       0.2761606       63.83373
2009    2       0       0.2161558       52.03723
2009    2       1       0.1382068       36.23536
2009    2       2       0.1273466       33.99216
2009    2       3       0.1507092       38.69219
2009    2       4       0.1740052       43.04929
2009    2       5       0.1837455       44.52402
2009    2       6       0.1625232       40.37865
2009    2       7       0.1332617       34.83993
2009    3       0       0.1360595       35.34748
2009    3       1       0.138741        35.79167
2009    3       2       0.1291599       34.0045
2009    3       3       0.128703        33.92561
2009    3       4       0.1325904       34.64315
2009    3       5       0.1230346       32.64521
2009    3       6       0.1208566       32.18685
2009    3       7       0.1338571       34.79565
2009    4       0       0.1402577       36.06231
2009    4       1       0.1363629       35.24986
2009    4       2       0.1410776       36.22022
2009    4       3       0.1493815       37.92983
2009    4       4       0.1542658       39.01165
2009    4       5       0.1583821       39.95537
2009    4       6       0.1601742       40.32071
2009    4       7       0.1591163       40.05586
2009    5       0       0.1564948       39.50744
2009    5       1       0.1540277       39.04455
2009    5       2       0.1506747       38.35947
2009    5       3       0.1451718       37.24078
2009    5       4       0.1433858       36.97319
2009    5       5       0.1467647       37.82281
2009    5       6       0.1512709       38.78605
2009    5       7       0.1617106       40.84176
2009    6       0       0.1695937       42.35612
2009    6       1       0.1730767       43.14982
2009    6       2       0.180476        43.83225
2009    6       3       0.1150419       31.03209
2009    6       4       0.1451315       37.03077
2009    6       5       0.1323628       34.60508
2009    6       6       0.1718586       42.41954
2009    6       7       0.167519        41.5149
2009    7       0       0.1655098       41.03167
2009    7       1       0.1706067       41.99892
2009    7       2       0.1739          42.60859
2009    7       3       0.1637993       40.62857
2009    7       4       0.1587413       39.68415
2009    7       5       0.1599022       39.95615
2009    7       6       0.1593844       39.97322
2009    7       7       0.1726106       42.64095
2009    8       0       0.1802221       44.17145
2009    8       1       0.1796894       44.09501
2009    8       2       0.171457        42.42407
2009    8       3       0.1653393       41.18348
2009    8       4       0.1563742       39.38266
2009    8       5       0.1527456       38.64945
2009    8       6       0.1412315       36.34876
2009    8       7       0.1347346       35.02285
2009    9       0       0.1268837       33.47666
2009    9       1       0.1263008       33.33993
2009    9       2       0.1248793       33.03107
2009    9       3       0.1222794       32.5241
2009    9       4       0.1185088       31.78234
2009    9       5       0.1142571       30.95165
2009    9       6       0.1118769       30.52723
2009    9       7       0.1348718       35.1634
2009    10      0       0.1544876       39.02833
2009    10      1       0.1680859       41.6321
2009    10      2       0.1799674       43.75468
2009    10      3       0.1814558       43.95687
2009    10      4       0.1693449       41.71784
2009    10      5       0.160921        40.19392
2009    10      6       0.1629505       40.69207
2009    10      7       0.1636704       40.88179
2009    11      0       0.1657256       41.26441
2009    11      1       0.1682679       41.77916
2009    11      2       0.1737679       43.20019
2009    11      3       0.1415717       37.17854
2009    11      4       0.3568514       77.71274
2009    11      5       0.4200056       87.61095
2009    11      6       0.3588612       77.26892
2009    11      7       0.3623733       77.88206
2009    12      0       0.375157        80.0996
2009    12      1       0.3941059       83.47187
2009    12      2       0.3628068       77.80523
2009    12      3       0.2458681       56.98834
2009    12      4       0.2358965       55.12869
2009    12      5       0.236349        55.19068
2009    12      6       0.2400029       55.83721
2009    12      7       0.2458386       56.94374
2009    13      0       0.2589611       59.49439
2009    13      1       0.3005315       67.10952
2009    13      2       0.2976618       66.81716
2009    13      3       0.2658655       61.23371
2009    13      4       0.2062561       50.01103
2009    13      5       0.1919014       47.21056
2009    13      6       0.1863748       46.19338
2009    13      7       0.2037859       49.66747
2009    14      0       0.2681306       61.78724
2009    14      1       0.4035177       85.04454
2009    14      2       0.3047681       68.23523
2009    14      3       0.2289349       54.55469
2009    14      4       0.1643146       42.06821
2009    14      5       0.1816632       45.55347
2009    14      6       0.2428993       57.14193
2009    14      7       0.3434808       75.03807
2009    15      0       0.326784        72.02583
2009    15      1       0.2562868       59.16922
2009    15      2       0.283591        64.17691
2009    15      3       0.2923915       65.83826
2009    15      4       0.3690329       79.75708
2009    15      5       0.4554693       94.5707
2009    15      6       0.4519248       93.58856
2009    15      7       0.3937327       83.67405
2009    16      0       0.4487016       92.4901
2009    16      1       0.4095759       86.88236
2009    16      2       0.3698771       80.58648
2009    16      3       0.2903334       66.14226
2009    16      4       0.2628921       61.01045
2009    16      5       0.4306292       90.73543
2009    16      6       0.4336764       91.08028
2009    16      7       0.4506377       93.44488
2009    17      0       0.4860742       98.73908
2009    17      1       0.4667609       95.56407
2009    17      2       0.4078077       86.1796
2009    17      3       0.4031431       85.58406
2009    17      4       0.3817189       82.33788
2009    17      5       0.3651702       79.56141
2009    17      6       0.3597853       78.77598
2009    17      7       0.3505678       77.16819
2009    18      0       0.3374494       74.86687
2009    18      1       0.3549927       77.76004
2009    18      2       0.3873629       83.21154
2009    18      3       0.2747087       63.49528
2009    18      4       0.252387        59.30453
2009    18      5       0.3412012       75.43365
2009    18      6       0.3317629       73.78262
2009    18      7       0.2329366       55.63913
2009    19      0       0.2706709       62.64627
2009    19      1       0.399452        86.08434
2009    19      2       0.3386354       75.90014
2009    19      3       0.3463217       76.81105
2009    19      4       0.2957164       67.9169
2009    19      5       0.2715562       63.81337
2009    19      6       0.2953182       68.12969
2009    19      7       0.3408862       76.2576
2009    20      0       0.2320277       55.89483
2009    20      1       0.2585529       61.40995
2009    20      2       0.3158592       72.39065
2009    20      3       0.3642591       80.99439
2009    20      4       0.3230218       73.3123
2009    20      5       0.3326816       74.65134
2009    20      6       0.3578481       78.29318
2009    20      7       0.3523981       76.64157
2009    21      0       0.3371566       73.86869
2009    21      1       0.248764        58.29779
2009    21      2       0.1754067       44.31781
2009    21      3       0.1749357       44.2686
2009    21      4       0.1969873       48.69479
2009    21      5       0.1809154       45.55073
2009    21      6       0.1455838       38.48733
2009    21      7       0.1414168       37.59032
2009    22      0       0.1381739       36.86489
2009    22      1       0.1315305       35.50479
2009    22      2       0.1296567       35.12902
2009    22      3       0.1569201       40.73801
2009    22      4       0.1860743       46.65288
2009    22      5       0.2097644       51.34361
2009    22      6       0.2293817       54.96859
2009    22      7       0.2381149       56.50914
2009    23      0       0.2371207       56.27467
2009    23      1       0.2218895       53.29907
2009    23      2       0.1552899       40.3181
2009    23      3       0.156412        40.63316
2009    23      4       0.1451995       38.36609
2009    23      5       0.1349344       36.27145
2009    23      6       0.1301079       35.26835
2009    23      7       0.137765        36.74891
2009    24      0       0.1562889       40.55993
2009    24      1       0.1704846       43.56312
2009    24      2       0.1733581       43.95665
2009    24      3       0.1495817       39.03605
2009    24      4       0.1409023       37.16185
2009    24      5       0.1422487       37.32955
2009    24      6       0.1387899       36.70023
2009    24      7       0.1347646       35.91591
2009    25      0       0.1330886       35.54351
2009    25      1       0.1492096       38.84345
2009    25      2       0.1766941       44.29761
2009    25      3       0.2149674       51.72322
2009    25      4       0.2486108       58.09323
2009    25      5       0.1624695       41.27603
2009    25      6       0.1709442       43.13215
2009    25      7       0.1722303       43.35272
2009    26      0       0.2099592       50.86687
2009    26      1       0.235347        56.3168
2009    26      2       0.2165756       52.95187
2009    26      3       0.2040473       50.3803
2009    26      4       0.2067365       50.40649
2009    26      5       0.1749668       43.98547
2009    26      6       0.1830772       45.53244
2009    26      7       0.2155001       51.82692
2009    27      0       0.269214        61.91362
2009    27      1       0.2952541       66.92288
2009    27      2       0.2832191       64.92448
2009    27      3       0.2683686       62.33892
2009    27      4       0.253539        59.43199
2009    27      5       0.2620176       60.6338
2009    27      6       0.2924006       65.96729
2009    27      7       0.2438723       56.7647
2009    28      0       0.227614        53.66767
2009    28      1       0.2279765       53.77218
2009    28      2       0.2284323       53.83559
2009    28      3       0.2284312       53.82843
2009    28      4       0.2268683       53.53333
2009    28      5       0.2247662       53.17377
2009    28      6       0.2320161       54.69302
2009    28      7       0.2470079       57.66737
2009    29      0       0.2537073       58.86944
2009    29      1       0.2439536       57.07557
2009    29      2       0.2182705       52.45502
2009    29      3       0.1636765       41.85196
2009    29      4       0.1993979       49.05762
2009    29      5       0.3555485       77.0931
2009    29      6       0.3015091       67.57232
2009    29      7       0.289097        65.30175
2009    30      0       0.2761357       62.85964
2009    30      1       0.2710007       61.85464
2009    30      2       0.2645286       60.69412
2009    30      3       0.252993        58.59181
2009    30      4       0.2430919       56.57768
2009    30      5       0.2251117       53.04269
2009    30      6       0.2099573       50.20914
2009    30      7       0.1960636       47.57314
2009    31      0       0.1734336       43.20728
2009    31      1       0.1504128       38.67774
2009    31      2       0.1354985       35.73363
2009    31      3       0.1378099       36.25924
2009    31      4       0.1392275       36.58753
2009    31      5       0.1390751       36.60721
2009    31      6       0.1384332       36.53558
2009    31      7       0.1508521       39.12029
2010    1       0       0.2165392       50.51695
2010    1       1       0.202611        47.89118
2010    1       2       0.1964715       46.68741
2010    1       3       0.201185        47.50438
2010    1       4       0.2056615       48.422
2010    1       5       0.2101357       49.30872
2010    1       6       0.2175005       50.8132
2010    1       7       0.2176253       51.04968
2010    2       0       0.2094027       49.79301
2010    2       1       0.1995954       48.19631
2010    2       2       0.1854687       45.67648
2010    2       3       0.1505297       39.10954
2010    2       4       0.1067147       29.92004
2010    2       5       0.09663056      27.60768
2010    2       6       0.09892614      27.88379
2010    2       7       0.1011645       28.1104
2010    3       0       0.1070472       29.00671
2010    3       1       0.1130462       30.12076
2010    3       2       0.1140338       30.63097
2010    3       3       0.1139412       30.72068
2010    3       4       0.1113569       30.18972
2010    3       5       0.1189159       31.7095
2010    3       6       0.1280421       33.64845
2010    3       7       0.1025324       28.51984
2010    4       0       0.1048716       28.96676
2010    4       1       0.1073985       29.48782
2010    4       2       0.106842        29.36194
2010    4       3       0.1207441       32.03223
2010    4       4       0.1127159       30.30945
2010    4       5       0.1122576       30.10102
2010    4       6       0.1433496       36.10572
2010    4       7       0.1594694       39.28252
2010    5       0       0.1524514       38.05386
2010    5       1       0.1536358       38.33731
2010    5       2       0.161848        39.94848
2010    5       3       0.1661757       40.82873
2010    5       4       0.177418        42.98815
2010    5       5       0.1855139       44.62673
2010    5       6       0.17374         42.67003
2010    5       7       0.1637025       40.87452
2010    6       0       0.1499656       38.09592
2010    6       1       0.1403142       36.15473
2010    6       2       0.1340092       34.93028
2010    6       3       0.1275929       33.62637
2010    6       4       0.119324        31.98589
2010    6       5       0.1101765       30.18394
2010    6       6       0.1104289       30.2819
2010    6       7       0.1131154       30.84058
2010    7       0       0.1233422       32.8831
2010    7       1       0.1334825       34.89079
2010    7       2       0.1269097       33.58528
2010    7       3       0.1324489       34.71953
2010    7       4       0.1481953       37.91408
2010    7       5       0.1579455       39.90218
2010    7       6       0.1601245       40.30499
2010    7       7       0.1478309       37.79865
2010    8       0       0.136118        35.45451
2010    8       1       0.1288423       34.00221
2010    8       2       0.1347799       35.16372
2010    8       3       0.1377376       35.69263
2010    8       4       0.149766        38.01774
2010    8       5       0.1645076       40.92268
2010    8       6       0.1509888       38.32602
2010    8       7       0.1152601       31.26461
2010    9       0       0.1387264       36.05016
2010    9       1       0.1757104       43.48657
2010    9       2       0.1828337       44.88327
2010    9       3       0.1729247       42.87478
2010    9       4       0.156734        39.61491
2010    9       5       0.1260458       33.4224
2010    9       6       0.1302023       34.30423
2010    9       7       0.1643254       41.15862
2010    10      0       0.1941334       47.05224
2010    10      1       0.2175548       51.59405
2010    10      2       0.2524205       58.25095
2010    10      3       0.2834818       64.10144
2010    10      4       0.343888        75.27058
2010    10      5       0.3842433       82.85294
2010    10      6       0.4324687       91.07431
2010    10      7       0.4320935       91.42561
2010    11      0       0.3546527       77.77574
2010    11      1       0.2844761       64.82423
2010    11      2       0.2389192       56.45576
2010    11      3       0.2566771       59.85759
2010    11      4       0.2377864       56.3023
2010    11      5       0.3408103       75.12518
2010    11      6       0.4880861       99.25807
2010    11      7       0.4675799       96.37654
2010    12      0       0.470945        97.26045
2010    12      1       0.4762314       98.42596
2010    12      2       0.495069        100.8762
2010    12      3       0.5716674       111.1481
2010    12      4       0.505287        102.1218
2010    12      5       0.5043764       103.1626
2010    12      6       0.5110931       103.8757
2010    12      7       0.5082674       103.0678
2010    13      0       0.4552998       95.00078
2010    13      1       0.4301134       91.34933
2010    13      2       0.3133056       71.55695
2010    13      3       0.1645178       42.05825
2010    13      4       0.1596022       41.07988
2010    13      5       0.1477696       38.62295
2010    13      6       0.1397419       36.87428
2010    13      7       0.1654077       42.32338
2010    14      0       0.1718886       43.56104
2010    14      1       0.204164        50.12006
2010    14      2       0.1841926       45.99345
2010    14      3       0.1986746       48.84991
2010    14      4       0.1960599       48.27141
2010    14      5       0.1353881       35.76404
2010    14      6       0.1186509       32.3027
2010    14      7       0.1058689       29.66818
2010    15      0       0.1905198       46.8453
2010    15      1       0.2369814       55.72326
2010    15      2       0.2352525       54.91329
2010    15      3       0.2001788       47.74927
2010    15      4       0.1537561       38.62361
2010    15      5       0.1058386       29.40264
2010    15      6       0.1181829       31.93659
2010    15      7       0.1266227       33.52866
2010    16      0       0.1297046       34.13548
2010    16      1       0.1288086       33.86134
2010    16      2       0.1174797       31.46193
2010    16      3       0.1242053       32.51415
2010    16      4       0.1129906       30.84902
2010    16      5       0.1290882       34.41887
2010    16      6       0.1395797       36.61244
2010    16      7       0.1518818       38.99338
2010    17      0       0.1528488       39.24343
2010    17      1       0.196696        48.19615
2010    17      2       0.2408233       56.61503
2010    17      3       0.2420075       57.12157
2010    17      4       0.1694916       42.74522
2010    17      5       0.182319        45.35826
2010    17      6       0.2370351       56.03184
2010    17      7       0.2532406       59.15728
2010    18      0       0.2257688       53.59815
2010    18      1       0.1825688       45.14152
2010    18      2       0.16913         42.78473
2010    18      3       0.1937525       48.05156
2010    18      4       0.1867917       46.75952
2010    18      5       0.191347        47.73256
2010    18      6       0.2131503       51.82353
2010    18      7       0.2108724       51.04973
2010    19      0       0.1874429       46.46935
2010    19      1       0.1809317       45.17827
2010    19      2       0.1888883       46.85539
2010    19      3       0.1939527       48.07646
2010    19      4       0.1963493       48.83918
2010    19      5       0.183835        46.29445
2010    19      6       0.1765427       44.71037
2010    19      7       0.1777055       44.95135
2010    20      0       0.1778372       45.03701
2010    20      1       0.176632        44.80165
2010    20      2       0.1769727       44.80108
2010    20      3       0.1763087       44.59576
2010    20      4       0.1731931       43.93434
2010    20      5       0.166097        42.50473
2010    20      6       0.1588498       41.00941
2010    20      7       0.1464167       38.50687
2010    21      0       0.1267389       34.40954
2010    21      1       0.1189194       32.71282
2010    21      2       0.1197299       32.83376
2010    21      3       0.1166811       32.14012
2010    21      4       0.117265        32.24387
2010    21      5       0.1110815       30.94156
2010    21      6       0.1060787       29.96586
2010    21      7       0.1152193       31.94065
2010    22      0       0.1557359       40.43482
2010    22      1       0.1822726       45.85783
2010    22      2       0.2040017       49.6582
2010    22      3       0.1850988       45.81672
2010    22      4       0.154313        39.72627
2010    22      5       0.1185063       32.27875
2010    22      6       0.1280821       34.08129
2010    22      7       0.148832        38.23839
2010    23      0       0.1557263       39.83818
2010    23      1       0.1542164       39.53103
2010    23      2       0.1518757       38.95909
2010    23      3       0.1503692       38.62487
2010    23      4       0.1552655       39.62834
2010    23      5       0.1915286       46.74012
2010    23      6       0.1743778       43.38064
2010    23      7       0.1704135       42.5678
2010    24      0       0.1810523       44.64165
2010    24      1       0.1808158       44.61831
2010    24      2       0.162249        40.95646
2010    24      3       0.1438736       37.28716
2010    24      4       0.1425863       37.06939
2010    24      5       0.1450686       37.57887
2010    24      6       0.1423196       37.00513
2010    24      7       0.139026        36.33719
2010    25      0       0.1497999       38.43605
2010    25      1       0.1849711       45.05892
2010    25      2       0.184401        44.88762
2010    25      3       0.1330905       34.99184
2010    25      4       0.123691        32.96922
2010    25      5       0.1418379       36.37237
2010    25      6       0.1533754       38.64199
2010    25      7       0.1584096       39.57759
2010    26      0       0.1564085       39.18444
2010    26      1       0.155254        38.94942
2010    26      2       0.1515589       38.3617
2010    26      3       0.1341034       35.13487
2010    26      4       0.1177252       31.94693
2010    26      5       0.1095028       30.29877
2010    26      6       0.1082511       30.06772
2010    26      7       0.111089        30.64706
2010    27      0       0.1119053       30.84003
2010    27      1       0.1096536       30.41324
2010    27      2       0.1099093       30.5103
2010    27      3       0.1451261       37.75774
2010    27      4       0.1862019       45.77285
2010    27      5       0.1952832       47.45858
2010    27      6       0.1771422       44.08112
2010    27      7       0.1479897       38.44815
2010    28      0       0.1295908       34.71612
2010    28      1       0.127342        34.22435
2010    28      2       0.1345998       35.64458
2010    28      3       0.1467639       37.86604
2010    28      4       0.1554519       39.40324
2010    28      5       0.1383998       36.26916
2010    28      6       0.1012211       28.51131
2010    28      7       0.09771992      27.73384
2010    29      0       0.09775554      27.66143
2010    29      1       0.09768976      27.54469
2010    29      2       0.1017836       28.3875
2010    29      3       0.1038417       28.81935
2010    29      4       0.1080149       29.70226
2010    29      5       0.1127692       30.76709
2010    29      6       0.1138666       31.05828
2010    29      7       0.1095387       30.14982
2010    30      0       0.1068015       29.47458
2010    30      1       0.1106835       30.1547
2010    30      2       0.1122291       30.46705
2010    30      3       0.1155361       31.5183
2010    30      4       0.1285998       34.1472
2010    30      5       0.1459079       37.81867
2010    30      6       0.2541365       59.33741
2010    30      7       0.2587464       60.30634
2010    31      0       0.253917        59.4698
2010    31      1       0.2461275       57.90824
2010    31      2       0.1415671       36.92514
2010    31      3       0.1459494       37.73474
2010    31      4       0.1433455       37.23313
2010    31      5       0.212242        51.08913
2010    31      6       0.2136346       51.40802
2010    31      7       0.1919826       47.07702
2011    1       0       0.1648684       41.49663
2011    1       1       0.1686849       42.29488
2011    1       2       0.1597649       40.50027
2011    1       3       0.152795        39.05899
2011    1       4       0.1510713       38.68721
2011    1       5       0.1597879       40.40881
2011    1       6       0.1651791       41.5757
2011    1       7       0.1680251       42.28375
2011    2       0       0.1688261       42.50326
2011    2       1       0.1860528       45.91005
2011    2       2       0.1955879       47.84577
2011    2       3       0.196789        48.16435
2011    2       4       0.2323676       55.00166
2011    2       5       0.3047057       68.41711
2011    2       6       0.2578468       60.37405
2011    2       7       0.2192276       53.13755
2011    3       0       0.1963528       48.43166
2011    3       1       0.2312776       55.17094
2011    3       2       0.3435211       76.1103
2011    3       3       0.3795903       82.84074
2011    3       4       0.3480087       77.75058
2011    3       5       0.4798502       100.4204
2011    3       6       0.6486689       124.0183
2011    3       7       0.7963836       140.4831
2011    4       0       0.645017        120.6304
2011    4       1       0.5228111       103.1083
2011    4       2       0.4535234       92.98703
2011    4       3       0.4287229       89.45385
2011    4       4       0.4576022       94.57054
2011    4       5       0.4779059       98.25082
2011    4       6       0.4483236       94.03439
2011    4       7       0.3890106       84.46196
2011    5       0       0.3210999       72.82974
2011    5       1       0.2548047       60.57304
2011    5       2       0.1903007       47.57485
2011    5       3       0.1533172       39.81223
2011    5       4       0.1609982       41.17857
2011    5       5       0.1935753       47.48011
2011    5       6       0.2114685       50.83199
2011    5       7       0.2264288       53.70409
2011    6       0       0.2087588       50.90139
2011    6       1       0.161626        41.83799
2011    6       2       0.153949        40.37418
2011    6       3       0.1684474       43.53326
2011    6       4       0.1662019       43.1121
2011    6       5       0.1669542       43.06334
2011    6       6       0.1655963       42.1496
2011    6       7       0.1794511       44.00921
2011    7       0       0.2596808       57.68845
2011    7       1       0.2521255       56.19458
2011    7       2       0.23389         53.09014
2011    7       3       0.2582982       57.49625
2011    7       4       0.2602086       58.78417
2011    7       5       0.2555904       58.8489
2011    7       6       0.2485389       57.82466
2011    7       7       0.2474368       57.69137
2011    8       0       0.2477213       57.65742
2011    8       1       0.2365847       55.62038
2011    8       2       0.2175497       52.11854
2011    8       3       0.2023819       49.23803
2011    8       4       0.1893396       46.73641
2011    8       5       0.1835388       45.60499
2011    8       6       0.1815895       45.24748
2011    8       7       0.1903145       47.01518
2011    9       0       0.1898881       46.89251
2011    9       1       0.1649647       41.8737
2011    9       2       0.1616789       41.26358
2011    9       3       0.1802296       44.92903
2011    9       4       0.1980704       48.7105
2011    9       5       0.204511        49.99568
2011    9       6       0.2138357       51.64685
2011    9       7       0.1708797       43.03461
2011    10      0       0.1274478       34.16113
2011    10      1       0.1127081       31.00644
2011    10      2       0.1278077       34.24375
2011    10      3       0.1388998       36.5175
2011    10      4       0.1423442       37.12298
2011    10      5       0.1558023       39.68548
2011    10      6       0.1634849       41.00954
2011    10      7       0.163776        40.69904
2011    11      0       0.1458801       37.10285
2011    11      1       0.1409234       36.11004
2011    11      2       0.1414757       36.23455
2011    11      3       0.1427501       36.48003
2011    11      4       0.1379188       35.45283
2011    11      5       0.1228648       32.50466
2011    11      6       0.1186708       31.69507
2011    11      7       0.1193266       31.8277
2011    12      0       0.1175581       31.47988
2011    12      1       0.1143407       30.80829
2011    12      2       0.1130835       30.47845
2011    12      3       0.1123624       30.29485
2011    12      4       0.1095891       30.09203
2011    12      5       0.1079019       29.83764
2011    12      6       0.1079062       29.83948
2011    12      7       0.1095822       30.15845
2011    13      0       0.1185743       31.99675
2011    13      1       0.1289403       34.09133
2011    13      2       0.1183511       31.85101
2011    13      3       0.1276589       33.52955
2011    13      4       0.129919        33.91436
2011    13      5       0.127149        33.42514
2011    13      6       0.1249206       33.04982
2011    13      7       0.1220374       32.52174
2011    14      0       0.1201443       32.21461
2011    14      1       0.1276574       33.73955
2011    14      2       0.1389913       35.97166
2011    14      3       0.1488144       37.89231
2011    14      4       0.1439959       36.97392
2011    14      5       0.1292582       34.05739
2011    14      6       0.1278349       33.74008
2011    14      7       0.1303721       34.19754
2011    15      0       0.1328569       34.67582
2011    15      1       0.1327432       34.60998
2011    15      2       0.1301442       34.12994
2011    15      3       0.1321052       34.60737
2011    15      4       0.1404848       36.36605
2011    15      5       0.1428666       36.89848
2011    15      6       0.1462263       37.43974
2011    15      7       0.14287         36.72295
2011    16      0       0.128035        33.84415
2011    16      1       0.1109934       30.37513
2011    16      2       0.0990893       27.94081
2011    16      3       0.1009385       28.36153
2011    16      4       0.1048153       29.29755
2011    16      5       0.1064514       29.68558
2011    16      6       0.1090128       30.17292
2011    16      7       0.1126053       30.92822
2011    17      0       0.1199326       32.40428
2011    17      1       0.143786        37.00995
2011    17      2       0.181715        43.83236
2011    17      3       0.2077798       47.93621
2011    17      4       0.2074545       47.67344
2011    17      5       0.2058725       47.42798
2011    17      6       0.1924722       45.01033
2011    17      7       0.1600881       39.17318
2011    18      0       0.1165636       31.07638
2011    18      1       0.1094514       29.69374
2011    18      2       0.1123697       30.29188
2011    18      3       0.1137871       30.66631
2011    18      4       0.1131348       30.57015
2011    18      5       0.1118666       30.35838
2011    18      6       0.1117503       30.3434
2011    18      7       0.1109306       30.16937
2011    19      0       0.1106597       30.0134
2011    19      1       0.1082246       29.50472
2011    19      2       0.123534        32.59924
2011    19      3       0.1187162       31.90629
2011    19      4       0.1321305       34.65519
2011    19      5       0.1347345       35.04959
2011    19      6       0.138239        35.45107
2011    19      7       0.1273321       33.17373
2011    20      0       0.1276091       33.48713
2011    20      1       0.1143638       31.05079
2011    20      2       0.1230676       33.06251
2011    20      3       0.1248502       33.44446
2011    20      4       0.1192401       32.2982
2011    20      5       0.08941346      26.052
2011    20      6       0.09780792      27.83242
2011    20      7       0.1170306       31.78775
2011    21      0       0.116913        31.62909
2011    21      1       0.1321718       34.63217
2011    21      2       0.1391269       36.38228
2011    21      3       0.1443126       37.7602
2011    21      4       0.1446696       37.99073
2011    21      5       0.1398128       36.99157
2011    21      6       0.1338513       35.58249
2011    21      7       0.1278336       34.06017
2011    22      0       0.1182142       31.85052
2011    22      1       0.1057612       29.17744
2011    22      2       0.1002055       28.0056
2011    22      3       0.09932534      27.7776
2011    22      4       0.09833794      27.57822
2011    22      5       0.1211393       32.19346
2011    22      6       0.1351147       34.94795
2011    22      7       0.1447696       36.74
2011    23      0       0.1432821       36.31326
2011    23      1       0.1377639       35.44944
2011    23      2       0.1452183       37.34942
2011    23      3       0.2036003       48.9163
2011    23      4       0.25932         59.71552
2011    23      5       0.2871039       64.97682
2011    23      6       0.2952069       66.45021
2011    23      7       0.300701        67.43286
2011    24      0       0.3007674       67.44707
2011    24      1       0.2893489       65.27213
2011    24      2       0.3489607       75.83345
2011    24      3       0.3418843       75.18259
2011    24      4       0.3083965       69.8433
2011    24      5       0.2668227       62.47808
2011    24      6       0.2486208       59.15852
2011    24      7       0.2131194       52.00303
2011    25      0       0.2529851       59.56483
2011    25      1       0.3290886       73.212
2011    25      2       0.3574792       77.5625
2011    25      3       0.2914285       65.86465
2011    25      4       0.3533858       76.64885
2011    25      5       0.4221242       87.98185
2011    25      6       0.46257         95.06818
2011    25      7       0.4341131       91.09501
2011    26      0       0.4459276       93.14979
2011    26      1       0.4477247       93.87979
2011    26      2       0.443744        93.321
2011    26      3       0.3709673       81.22867
2011    26      4       0.1995428       49.32162
2011    26      5       0.1531681       39.68518
2011    26      6       0.2280995       54.97626
2011    26      7       0.374473        81.20324
2011    27      0       0.4808512       96.9945
2011    27      1       0.4154508       86.53542
2011    27      2       0.3757813       80.64758
2011    27      3       0.3964501       84.65772
2011    27      4       0.3481345       76.57471
2011    27      5       0.3136232       70.77415
2011    27      6       0.3488003       76.34945
2011    27      7       0.2752352       62.68161
2011    28      0       0.3011663       66.69483
2011    28      1       0.3147699       68.74236
2011    28      2       0.2728705       61.67254
2011    28      3       0.2776622       62.75957
2011    28      4       0.312644        69.18404
2011    28      5       0.345333        74.99885
2011    28      6       0.3578122       77.27391
2011    28      7       0.3417741       74.47741
2011    29      0       0.274482        62.32092
2011    29      1       0.2137393       50.98451
2011    29      2       0.232249        54.5607
2011    29      3       0.2524501       58.42885
2011    29      4       0.2466688       57.36108
2011    29      5       0.2533952       58.61275
2011    29      6       0.2654778       60.90217
2011    29      7       0.2639092       60.60308
2011    30      0       0.2454462       57.09105
2011    30      1       0.2372169       55.5392
2011    30      2       0.2285896       53.80747
2011    30      3       0.2060559       49.43797
2011    30      4       0.1944076       47.12597
2011    30      5       0.1857599       45.37576
2011    30      6       0.1890392       46.07452
2011    30      7       0.194539        47.18923
2011    31      0       0.1884022       46.01382
2011    31      1       0.1825797       44.87475
2011    31      2       0.1644806       41.30149
2011    31      3       0.163098        41.06894
2011    31      4       0.2279256       53.64737
2011    31      5       0.2611213       59.90526
2011    31      6       0.237711        55.73885
2011    31      7       0.2229263       53.07755
2012    1       0       0.2241229       53.25008
2012    1       1       0.2002743       49.1042
2012    1       2       0.2013656       49.63349
2012    1       3       0.1830475       46.16814
2012    1       4       0.1755657       44.62467
2012    1       5       0.1927816       48.06255
2012    1       6       0.1659627       42.67672
2012    1       7       0.1991993       49.44612
2012    2       0       0.3364915       74.7229
2012    2       1       0.3260612       73.04229
2012    2       2       0.2673537       62.27459
2012    2       3       0.2542952       59.49
2012    2       4       0.2992236       67.43204
2012    2       5       0.3272034       72.1389
2012    2       6       0.2937248       66.20686
2012    2       7       0.2713058       62.05909
2012    3       0       0.2451232       57.35778
2012    3       1       0.2334447       55.2782
2012    3       2       0.2242046       53.50114
2012    3       3       0.2133066       51.10843
2012    3       4       0.2105678       50.33028
2012    3       5       0.1989136       48.13829
2012    3       6       0.1658504       41.80078
2012    3       7       0.1450583       37.818
2012    4       0       0.1480596       38.35293
2012    4       1       0.1395085       36.54005
2012    4       2       0.1329772       35.21308
2012    4       3       0.1319332       34.94087
2012    4       4       0.1512644       38.77774
2012    4       5       0.2001918       48.25445
2012    4       6       0.2214384       52.26128
2012    4       7       0.2257243       53.1108
2012    5       0       0.2122593       50.68625
2012    5       1       0.212422        50.74068
2012    5       2       0.2209951       52.27615
2012    5       3       0.2211478       52.18585
2012    5       4       0.2059731       49.32144
2012    5       5       0.1888751       45.98787
2012    5       6       0.1759724       43.47986
2012    5       7       0.1704418       42.4622
2012    6       0       0.1750846       43.38828
2012    6       1       0.1661642       41.54617
2012    6       2       0.1289087       34.06017
2012    6       3       0.127237        33.56003
2012    6       4       0.1253628       33.12282
2012    6       5       0.1242653       32.8953
2012    6       6       0.1223482       32.49469
2012    6       7       0.1222046       32.4793
2012    7       0       0.1248955       33.05282
2012    7       1       0.1273931       33.50971
2012    7       2       0.1256426       33.10828
2012    7       3       0.1221628       32.64162
2012    7       4       0.1674738       41.76269
2012    7       5       0.1538139       38.99342
2012    7       6       0.1421761       36.62598
2012    7       7       0.1468509       37.5777
2012    8       0       0.1425253       36.67156
2012    8       1       0.1386409       35.87212
2012    8       2       0.139974        36.17975
2012    8       3       0.1419332       36.58089
2012    8       4       0.1264268       33.41868
2012    8       5       0.119642        32.0141
2012    8       6       0.1122463       30.50488
2012    8       7       0.1490172       38.04007
2012    9       0       0.1712393       42.52903
2012    9       1       0.1538138       38.96347
2012    9       2       0.1297451       33.99016
2012    9       3       0.1346967       34.94384
2012    9       4       0.1440892       36.88178
2012    9       5       0.1370263       35.54563
2012    9       6       0.1610688       40.43941
2012    9       7       0.174698        43.19627
2012    10      0       0.1535048       38.99909
2012    10      1       0.1313359       34.50007
2012    10      2       0.1269394       33.54791
2012    10      3       0.1316413       34.49428
2012    10      4       0.1711027       42.38783
2012    10      5       0.2001467       48.18641
2012    10      6       0.2141668       50.94659
2012    10      7       0.2202912       52.13355
2012    11      0       0.2113689       50.33153
2012    11      1       0.1796057       44.12268
2012    11      2       0.1620088       40.69174
2012    11      3       0.1554174       39.40049
2012    11      4       0.1407854       36.54842
2012    11      5       0.1238754       33.23378
2012    11      6       0.1094675       30.30051
2012    11      7       0.1079081       29.84356
2012    12      0       0.1083108       29.83747
2012    12      1       0.1404198       35.96054
2012    12      2       0.1682249       40.9321
2012    12      3       0.1543428       38.52204
2012    12      4       0.1628316       40.60652
2012    12      5       0.1410609       36.70483
2012    12      6       0.152194        39.00518
2012    12      7       0.2067349       49.68987
2012    13      0       0.2061229       49.582
2012    13      1       0.2350426       55.06672
2012    13      2       0.2944144       66.10673
2012    13      3       0.3369124       73.94166
2012    13      4       0.2762513       63.52542
2012    13      5       0.2496441       58.76849
2012    13      6       0.2305867       55.21011
2012    13      7       0.1952659       48.31729
2012    14      0       0.1698857       43.14567
2012    14      1       0.149023        38.78257
2012    14      2       0.1233109       33.37273
2012    14      3       0.1154292       31.72106
2012    14      4       0.1509758       39.10326
2012    14      5       0.1436319       37.55597
2012    14      6       0.1737786       43.65532
2012    14      7       0.1792956       44.78107
2012    15      0       0.1798691       44.85616
2012    15      1       0.175413        43.58571
2012    15      2       0.177309        43.82974
2012    15      3       0.2463556       57.11643
2012    15      4       0.340499        74.78378
2012    15      5       0.3656485       79.7296
2012    15      6       0.3666615       80.08641
2012    15      7       0.3042443       69.02195
2012    16      0       0.2695091       62.15212
2012    16      1       0.2605641       60.24752
2012    16      2       0.1893579       46.99092
2012    16      3       0.1784437       44.92712
2012    16      4       0.1739055       44.00302
2012    16      5       0.1633985       41.86245
2012    16      6       0.1895092       47.33667
2012    16      7       0.2366875       56.38305
2012    17      0       0.2559301       59.9244
2012    17      1       0.3409862       75.02511
2012    17      2       0.3427442       74.61448
2012    17      3       0.2937129       65.68704
2012    17      4       0.2788784       63.13218
2012    17      5       0.2681456       61.3934
2012    17      6       0.219713        52.53076
2012    17      7       0.160132        40.92177
2012    18      0       0.1325279       35.357
2012    18      1       0.2605684       60.38299
2012    18      2       0.3390337       74.63396
2012    18      3       0.2783541       64.34989
2012    18      4       0.1865677       47.00521
2012    18      5       0.1849627       46.70625
2012    18      6       0.1798159       45.81486
2012    18      7       0.1664205       43.12194
2012    19      0       0.1465111       38.9266
2012    19      1       0.1597308       41.60564
2012    19      2       0.1859594       46.62813
2012    19      3       0.226102        54.06698
2012    19      4       0.2635025       61.14778
2012    19      5       0.2834011       64.80837
2012    19      6       0.3032332       67.90729
2012    19      7       0.2925256       65.62139
2012    20      0       0.2121341       51.13609
2012    20      1       0.1982124       48.55426
2012    20      2       0.2264053       53.86539
2012    20      3       0.2883683       65.15283
2012    20      4       0.3483894       75.85684
2012    20      5       0.3941681       83.65075
2012    20      6       0.3543831       76.8103
2012    20      7       0.258935        59.83372
2012    21      0       0.2839709       64.48139
2012    21      1       0.3192575       70.65498
2012    21      2       0.3089553       68.42061
2012    21      3       0.3242183       70.92384
2012    21      4       0.3125805       69.10078
2012    21      5       0.2974518       66.48637
2012    21      6       0.2979645       66.66161
2012    21      7       0.2962102       66.60152
2012    22      0       0.2829349       64.59535
2012    22      1       0.2378974       56.46029
2012    22      2       0.2083543       50.15219
2012    22      3       0.1923253       46.43455
2012    22      4       0.1689975       42.2997
2012    22      5       0.1587126       40.29845
2012    22      6       0.1847995       44.91173
2012    22      7       0.1281549       34.13242
2012    23      0       0.1175428       32.04907
2012    23      1       0.1198228       32.44242
2012    23      2       0.1216659       32.80097
2012    23      3       0.1235789       33.22687
2012    23      4       0.1541064       39.39256
2012    23      5       0.2011543       48.80855
2012    23      6       0.2483247       57.91198
2012    23      7       0.2553566       59.3281
2012    24      0       0.2381152       56.26915
2012    24      1       0.2287502       54.5195
2012    24      2       0.2654434       61.2534
2012    24      3       0.2788637       63.76514
2012    24      4       0.2809672       64.65853
2012    24      5       0.270971        62.83764
2012    24      6       0.2436245       57.38821
2012    24      7       0.2215388       53.07901
2012    25      0       0.2120488       51.09978
2012    25      1       0.2133484       51.2463
2012    25      2       0.196638        48.07347
2012    25      3       0.1681968       42.66832
2012    25      4       0.1829651       45.66842
2012    25      5       0.1997548       48.92612
2012    25      6       0.2216853       53.16133
2012    25      7       0.2628472       60.39844
2012    26      0       0.2977682       66.89499
2012    26      1       0.3085158       69.38444
2012    26      2       0.2930818       66.65076
2012    26      3       0.296296        67.1415
2012    26      4       0.2647563       61.30821
2012    26      5       0.2628761       60.64579
2012    26      6       0.2444879       56.97639
2012    26      7       0.2170887       51.74491
2012    27      0       0.2099545       50.4192
2012    27      1       0.2276379       53.83551
2012    27      2       0.2479505       57.73979
2012    27      3       0.261886        60.48029
2012    27      4       0.2864654       65.25614
2012    27      5       0.3194683       71.47986
2012    27      6       0.3375986       74.52338
2012    27      7       0.3386217       74.53396
2012    28      0       0.3005637       68.20567
2012    28      1       0.2134188       51.95382
2012    28      2       0.2683391       61.59732
2012    28      3       0.2969436       66.82896
2012    28      4       0.365485        79.20492
2012    28      5       0.3008778       67.67918
2012    28      6       0.6453858       121.6273
2012    28      7       0.6019444       116.4265
2012    29      0       0.7055771       129.6176
2012    29      1       0.7245321       132.7512
2012    29      2       0.777768        138.328
2012    29      3       0.8529432       145.5437
2012    29      4       0.6274755       119.4996
2012    29      5       0.5016417       101.8988
2012    29      6       0.56237         111.4498
2012    29      7       0.5765114       113.6109
2012    30      0       0.6834568       126.7066
2012    30      1       0.5297066       104.6538
2012    30      2       0.3313252       72.84867
2012    30      3       0.3181526       70.53053
2012    30      4       0.3357507       73.8526
2012    30      5       0.3910618       83.67661
2012    30      6       0.3919164       83.98681
2012    30      7       0.397962        84.80432
2012    31      0       0.3931234       84.20071
2012    31      1       0.3866785       83.40999
2012    31      2       0.3917206       83.7035
2012    31      3       0.4289826       88.94704
2012    31      4       0.3024175       67.81095
2012    31      5       0.2764135       63.06654
2012    31      6       0.2547938       59.15402
2012    31      7       0.2427712       57.11567
2013    1       0       0.146979        38.20358
2013    1       1       0.1257101       33.72393
2013    1       2       0.1508706       38.69509
2013    1       3       0.1093961       30.20302
2013    1       4       0.1092285       30.11286
2013    1       5       0.1108809       30.42215
2013    1       6       0.1257748       33.38764
2013    1       7       0.1299621       34.21738
2013    2       0       0.1269004       33.47284
2013    2       1       0.1002066       27.91412
2013    2       2       0.1097781       29.79283
2013    2       3       0.1123918       30.48132
2013    2       4       0.1155481       31.34944
2013    2       5       0.1329947       35.08173
2013    2       6       0.1516844       38.78884
2013    2       7       0.1788079       43.62
2013    3       0       0.211092        49.1605
2013    3       1       0.2391288       54.01808
2013    3       2       0.2082744       49.12375
2013    3       3       0.1965199       47.52034
2013    3       4       0.2147215       51.11752
2013    3       5       0.2329726       54.58862
2013    3       6       0.2314775       54.66726
2013    3       7       0.2073603       50.27343
2013    4       0       0.191822        47.20069
2013    4       1       0.2279931       54.22988
2013    4       2       0.2859073       65.24371
2013    4       3       0.2339629       55.86216
2013    4       4       0.1690768       43.18159
2013    4       5       0.1443979       38.11426
2013    4       6       0.162446        41.9004
2013    4       7       0.1921649       47.96177
2013    5       0       0.1749799       44.34674
2013    5       1       0.1857288       46.35114
2013    5       2       0.1693102       42.99184
2013    5       3       0.1770578       44.51571
2013    5       4       0.1770708       44.46357
2013    5       5       0.1693182       42.85323
2013    5       6       0.1588576       40.59854
2013    5       7       0.1762569       43.85417
2013    6       0       0.1833837       45.14152
2013    6       1       0.163021        41.09554
2013    6       2       0.142685        36.94054
2013    6       3       0.1460255       37.50093
2013    6       4       0.1720501       42.72376
2013    6       5       0.1739989       43.19597
2013    6       6       0.1533318       39.11328
2013    6       7       0.1393527       36.24614
2013    7       0       0.1320091       34.74149
2013    7       1       0.1212859       32.50913
2013    7       2       0.1259881       33.42489
2013    7       3       0.1444422       37.19842
2013    7       4       0.1619585       40.80805
2013    7       5       0.1761004       43.67336
2013    7       6       0.1682197       42.17013
2013    7       7       0.1623208       40.9901
2013    8       0       0.1594137       40.23371
2013    8       1       0.1570964       39.67084
2013    8       2       0.149929        38.24093
2013    8       3       0.1440633       37.02449
2013    8       4       0.1432263       36.92177
2013    8       5       0.1475866       37.886
2013    8       6       0.1390371       36.10061
2013    8       7       0.1164931       31.41617
2013    9       0       0.1144863       30.92595
2013    9       1       0.1138019       30.77466
2013    9       2       0.1133138       30.61745
2013    9       3       0.1135874       30.60398
2013    9       4       0.1133561       30.55078
2013    9       5       0.1131515       30.52829
2013    9       6       0.1151936       30.90556
2013    9       7       0.1149408       30.81406
2013    10      0       0.1137848       30.60187
2013    10      1       0.1130222       30.45242
2013    10      2       0.1120633       30.2037
2013    10      3       0.1090068       29.57852
2013    10      4       0.10751         29.28069
2013    10      5       0.1089994       29.61197
2013    10      6       0.1115267       30.17435
2013    10      7       0.1139148       30.64259
2013    11      0       0.1152818       30.99242
2013    11      1       0.1155285       31.09069
2013    11      2       0.1145958       30.90673
2013    11      3       0.1133777       30.68724
2013    11      4       0.1118529       30.38852
2013    11      5       0.1102837       30.081
2013    11      6       0.1095758       29.97866
2013    11      7       0.1219202       32.53074
2013    12      0       0.1337264       34.93943
2013    12      1       0.1469171       37.59584
2013    12      2       0.1522608       38.68387
2013    12      3       0.1543434       39.12734
2013    12      4       0.1598071       40.22257
2013    12      5       0.1640357       41.05955
2013    12      6       0.1735488       42.90646
2013    12      7       0.1782798       43.81875
2013    13      0       0.1755319       43.28946
2013    13      1       0.1725778       42.66205
2013    13      2       0.1719232       42.41123
2013    13      3       0.1725166       42.46648
2013    13      4       0.1758763       43.24119
2013    13      5       0.1760436       43.48513
2013    13      6       0.1787258       44.34945
2013    13      7       0.1848523       45.88096
2013    14      0       0.1803219       45.16699
2013    14      1       0.1693243       43.05945
2013    14      2       0.1789081       44.75694
2013    14      3       0.1799171       44.74076
2013    14      4       0.1539392       39.69631
2013    14      5       0.1552194       40.02766
2013    14      6       0.1580537       40.70247
2013    14      7       0.1528244       39.7108
2013    15      0       0.1485884       38.8197
2013    15      1       0.14373         37.75908
2013    15      2       0.1326973       35.37803
2013    15      3       0.1200745       32.70282
2013    15      4       0.1137406       31.32398
2013    15      5       0.1077587       30.0465
2013    15      6       0.09394329      27.174
2013    15      7       0.09544198      27.5411
2013    16      0       0.09512433      27.47573
2013    16      1       0.09345802      27.11192
2013    16      2       0.1051221       29.6117
2013    16      3       0.1501262       38.92292
2013    16      4       0.1799746       44.94554
2013    16      5       0.1885164       46.81189
2013    16      6       0.186735        46.76196
2013    16      7       0.1946642       48.4641
2013    17      0       0.1935498       48.04741
2013    17      1       0.1718014       43.6818
2013    17      2       0.2309316       54.58374
2013    17      3       0.1441981       37.21119
2013    17      4       0.1379328       36.00459
2013    17      5       0.1329107       35.0164
2013    17      6       0.1326906       34.94027
2013    17      7       0.1340888       35.17607
2013    18      0       0.1308725       34.50848
2013    18      1       0.129269        34.05531
2013    18      2       0.1283373       33.77643
2013    18      3       0.1262724       33.33465
2013    18      4       0.1270445       33.56272
2013    18      5       0.1266746       33.55908
2013    18      6       0.1219013       32.66875
2013    18      7       0.1194968       32.16578
2013    19      0       0.1202266       32.25141
2013    19      1       0.1213485       32.41802
2013    19      2       0.1216483       32.48898
2013    19      3       0.1202863       32.27005
2013    19      4       0.1187372       31.99176
2013    19      5       0.1169644       31.65754
2013    19      6       0.1157771       31.42531
2013    19      7       0.1157875       31.41549
2013    20      0       0.1152959       31.31753
2013    20      1       0.1145531       31.15866
2013    20      2       0.1141501       31.05791
2013    20      3       0.1136197       30.97651
2013    20      4       0.1291198       34.08387
2013    20      5       0.1414034       36.56263
2013    20      6       0.1595105       40.02362
2013    20      7       0.1974588       47.19884
2013    21      0       0.2181335       51.3383
2013    21      1       0.2172176       51.29519
2013    21      2       0.2118365       50.28952
2013    21      3       0.2081546       49.60785
2013    21      4       0.2040345       48.77338
2013    21      5       0.1962844       47.23527
2013    21      6       0.1872239       45.52281
2013    21      7       0.177576        43.72753
2013    22      0       0.1708745       42.48181
2013    22      1       0.164374        41.24104
2013    22      2       0.1609122       40.59929
2013    22      3       0.1543095       39.46352
2013    22      4       0.1432045       37.43896
2013    22      5       0.1311788       35.06553
2013    22      6       0.1199788       32.69816
2013    22      7       0.1197887       32.60938
2013    23      0       0.1590166       40.33994
2013    23      1       0.2010404       47.87743
2013    23      2       0.2722313       60.19126
2013    23      3       0.2940143       65.21033
2013    23      4       0.2524558       58.69207
2013    23      5       0.2868557       65.03499
2013    23      6       0.2944545       66.07815
2013    23      7       0.2624445       60.05022
2013    24      0       0.2283335       53.79183
2013    24      1       0.2376425       55.69972
2013    24      2       0.1880114       46.40657
2013    24      3       0.1336556       35.51213
2013    24      4       0.1699339       43.17419
2013    24      5       0.1995782       49.32214
2013    24      6       0.1746047       44.25532
2013    24      7       0.1676937       42.71492
2013    25      0       0.2133182       51.37606
2013    25      1       0.2426799       56.49931
2013    25      2       0.2889754       64.66553
2013    25      3       0.3078544       68.03624
2013    25      4       0.2242037       53.27419
2013    25      5       0.2258004       53.71743
2013    25      6       0.2277798       53.95068
2013    25      7       0.211486        50.35277
2013    26      0       0.2090935       49.98409
2013    26      1       0.2099163       50.37962
2013    26      2       0.2124374       50.96259
2013    26      3       0.2112788       50.75713
2013    26      4       0.2107424       50.57136
2013    26      5       0.20391         49.16606
2013    26      6       0.2003319       48.42029
2013    26      7       0.2029462       48.91937
2013    27      0       0.2182796       51.96509
2013    27      1       0.2388859       55.97611
2013    27      2       0.2390141       55.97703
2013    27      3       0.1555043       39.76129
2013    27      4       0.1283433       34.30646
2013    27      5       0.1343377       35.60348
2013    27      6       0.1447546       37.72612
2013    27      7       0.2017013       48.92244
2013    28      0       0.2299973       54.23052
2013    28      1       0.2201159       52.33955
2013    28      2       0.2089383       50.17822
2013    28      3       0.233802        54.93728
2013    28      4       0.2670182       61.25793
2013    28      5       0.2979662       67.13723
2013    28      6       0.3109196       69.63606
2013    28      7       0.3109496       69.5713
2013    29      0       0.3234805       71.58823
2013    29      1       0.3832161       81.70175
2013    29      2       0.3441355       74.92497
2013    29      3       0.3310145       72.55218
2013    29      4       0.332169        73.31557
2013    29      5       0.3846983       82.62548
2013    29      6       0.5096945       102.3224
2013    29      7       0.5978157       115.1527
2013    30      0       0.5840701       113.5733
2013    30      1       0.5064344       102.3571
2013    30      2       0.4787051       98.05992
2013    30      3       0.4667026       95.97745
2013    30      4       0.4946297       100.1652
2013    30      5       0.4562005       94.24009
2013    30      6       0.420865        88.51596
2013    30      7       0.4053064       85.88594
2013    31      0       0.4230681       88.45757
2013    31      1       0.4233627       88.24459
2013    31      2       0.350484        76.14682
2013    31      3       0.3294085       72.60899
2013    31      4       0.3414946       75.29648
2013    31      5       0.3359412       74.43436
2013    31      6       0.3418544       74.97571
2013    31      7       0.6081326       116.1973
2014    1       0       0.1380339       35.70334
2014    1       1       0.1041693       28.9527
2014    1       2       0.1015588       28.36107
2014    1       3       0.1008686       28.18768
2014    1       4       0.1112047       30.263
2014    1       5       0.1336854       34.53311
2014    1       6       0.1385341       35.31584
2014    1       7       0.1328111       34.09427
2014    2       0       0.1013134       27.97494
2014    2       1       0.1179386       31.19979
2014    2       2       0.1332117       34.47006
2014    2       3       0.1336713       34.745
2014    2       4       0.1348135       35.11826
2014    2       5       0.1503539       38.16577
2014    2       6       0.1530572       38.70861
2014    2       7       0.1735917       42.82744
2014    3       0       0.1773282       43.61893
2014    3       1       0.1775986       43.68555
2014    3       2       0.1812034       44.3886
2014    3       3       0.1807196       44.27417
2014    3       4       0.1764148       43.42746
2014    3       5       0.1734638       42.84322
2014    3       6       0.1904263       46.12591
2014    3       7       0.1946138       46.81445
2014    4       0       0.1869721       45.33102
2014    4       1       0.1772705       43.50504
2014    4       2       0.1689244       41.87395
2014    4       3       0.1524615       38.59779
2014    4       4       0.1459714       37.27898
2014    4       5       0.135986        35.25649
2014    4       6       0.1271181       33.48023
2014    4       7       0.1213116       32.32199
2014    5       0       0.118969        31.80282
2014    5       1       0.1185903       31.62014
2014    5       2       0.1175664       31.35372
2014    5       3       0.1157901       30.96406
2014    5       4       0.1143438       30.65944
2014    5       5       0.1125023       30.26684
2014    5       6       0.112261        30.09262
2014    5       7       0.1125312       30.00973
2014    6       0       0.1113127       29.7757
2014    6       1       0.1088721       29.2941
2014    6       2       0.1069395       28.95747
2014    6       3       0.1054851       28.6996
2014    6       4       0.1081173       29.36074
2014    6       5       0.1838611       44.95961
2014    6       6       0.1818835       44.54538
2014    6       7       0.1725399       42.68455
2014    7       0       0.1502701       38.17225
2014    7       1       0.1245661       32.91448
2014    7       2       0.1051808       28.89282
2014    7       3       0.1474762       37.50652
2014    7       4       0.1434153       36.66601
2014    7       5       0.1404316       36.05967
2014    7       6       0.1411787       36.2115
2014    7       7       0.1440537       36.76891
2014    8       0       0.1470741       37.37471
2014    8       1       0.1514286       38.24917
2014    8       2       0.1609466       40.21054
2014    8       3       0.1697026       41.99554
2014    8       4       0.1727132       42.59272
2014    8       5       0.1747743       43.00291
2014    8       6       0.1660606       41.23542
2014    8       7       0.1565686       39.30787
2014    9       0       0.1039278       28.56617
2014    9       1       0.1287999       33.67498
2014    9       2       0.1486448       37.77086
2014    9       3       0.1585236       39.81325
2014    9       4       0.1589205       39.91767
2014    9       5       0.1595127       40.0955
2014    9       6       0.1662973       41.50687
2014    9       7       0.1812809       44.44708
2014    10      0       0.1784046       43.82649
2014    10      1       0.1433345       36.59859
2014    10      2       0.1266962       33.25532
2014    10      3       0.1116552       30.05364
2014    10      4       0.1124283       30.21365
2014    10      5       0.1139828       30.63539
2014    10      6       0.1164147       31.20044
2014    10      7       0.1178558       31.52209
2014    11      0       0.118763        31.72854
2014    11      1       0.1176547       31.47946
2014    11      2       0.1167711       31.2717
2014    11      3       0.1161397       31.14002
2014    11      4       0.1136976       30.6634
2014    11      5       0.1101146       29.8954
2014    11      6       0.1092996       29.57442
2014    11      7       0.1122077       29.92608
2014    12      0       0.117479        30.90395
2014    12      1       0.1219573       31.80698
2014    12      2       0.1236787       32.32707
2014    12      3       0.1214131       32.3597
2014    12      4       0.1173503       31.55083
2014    12      5       0.1147768       31.04754
2014    12      6       0.115298        31.16433
2014    12      7       0.1174996       31.54797
2014    13      0       0.1200078       31.86566
2014    13      1       0.1206439       31.70127
2014    13      2       0.1193386       31.30357
2014    13      3       0.1169316       30.95351
2014    13      4       0.1154173       30.73636
2014    13      5       0.114003        30.51944
2014    13      6       0.1133182       30.42718
2014    13      7       0.1133811       30.48117
2014    14      0       0.112939        30.4207
2014    14      1       0.1117136       30.15431
2014    14      2       0.1111148       30.01675
2014    14      3       0.1107012       29.9253
2014    14      4       0.1100664       29.84133
2014    14      5       0.1100215       29.89105
2014    14      6       0.1109765       30.10293
2014    14      7       0.1120242       30.37743
2014    15      0       0.1186681       31.77805
2014    15      1       0.1265804       33.38711
2014    15      2       0.1287793       33.90292
2014    15      3       0.1221004       32.61338
2014    15      4       0.1149221       31.11833
2014    15      5       0.1213279       32.38884
2014    15      6       0.1834813       44.88588
2014    15      7       0.2662342       60.97702
2014    16      0       0.3099095       69.02797
2014    16      1       0.2831307       64.27595
2014    16      2       0.2657624       61.15396
2014    16      3       0.2532684       58.83142
2014    16      4       0.2389133       56.09564
2014    16      5       0.20472         49.55561
2014    16      6       0.1752566       43.7539
2014    16      7       0.1950489       47.79371
2014    17      0       0.2236256       53.19333
2014    17      1       0.2305475       54.22776
2014    17      2       0.2156797       51.28996
2014    17      3       0.2057557       49.41391
2014    17      4       0.219037        52.06101
2014    17      5       0.2251414       53.32947
2014    17      6       0.2039419       49.17729
2014    17      7       0.1776748       43.95434
2014    18      0       0.1701964       42.47305
2014    18      1       0.156175        39.67599
2014    18      2       0.1443895       37.33199
2014    18      3       0.1349268       35.42996
2014    18      4       0.1255712       33.45346
2014    18      5       0.1226719       32.85202
2014    18      6       0.1479167       37.9167
2014    18      7       0.1627074       40.71077
2014    19      0       0.1826728       44.48202
2014    19      1       0.1857702       45.13733
2014    19      2       0.1821246       44.43156
2014    19      3       0.1633064       40.78462
2014    19      4       0.1397515       36.13406
2014    19      5       0.1260624       33.34477
2014    19      6       0.1123681       30.59776
2014    19      7       0.1138133       30.95909
2014    20      0       0.1417646       36.73833
2014    20      1       0.1574054       40.26523
2014    20      2       0.1359261       36.05372
2014    20      3       0.1269221       34.23241
2014    20      4       0.1307272       35.23818
2014    20      5       0.1302986       35.25298
2014    20      6       0.1396087       37.09261
2014    20      7       0.1440773       37.85673
2014    21      0       0.1029629       29.11407
2014    21      1       0.1469583       38.38228
2014    21      2       0.1405717       36.51353
2014    21      3       0.1003094       28.36876
2014    21      4       0.108753        30.18488
2014    21      5       0.116319        31.81606
2014    21      6       0.1161578       31.79836
2014    21      7       0.1101834       30.58032
2014    22      0       0.1115323       30.94094
2014    22      1       0.1174234       32.25301
2014    22      2       0.1332326       35.52265
2014    22      3       0.1517533       39.2794
2014    22      4       0.1642482       41.81471
2014    22      5       0.1629936       41.54036
2014    22      6       0.1351218       35.85639
2014    22      7       0.1177454       32.25349
2014    23      0       0.1057433       29.74653
2014    23      1       0.09631936      27.73892
2014    23      2       0.1151444       31.67173
2014    23      3       0.1491621       38.62328
2014    23      4       0.1657096       41.86893
2014    23      5       0.1633803       41.42663
2014    23      6       0.1412952       37.12482
2014    23      7       0.1211639       33.04012
2014    24      0       0.1234427       33.48681
2014    24      1       0.1388169       36.56791
2014    24      2       0.1398837       36.66304
2014    24      3       0.1345079       35.48889
2014    24      4       0.1252265       33.59394
2014    24      5       0.1398558       36.5584
2014    24      6       0.1441527       37.49642
2014    24      7       0.1421743       37.1766
2014    25      0       0.1419377       37.3527
2014    25      1       0.1595019       41.22468
2014    25      2       0.1733793       44.31311
2014    25      3       0.1595137       41.55007
2014    25      4       0.1372686       36.72556
2014    25      5       0.16063         41.58791
2014    25      6       0.2048528       50.6557
2014    25      7       0.2290072       55.33534
2014    26      0       0.2387774       56.92615
2014    26      1       0.2245223       53.95688
2014    26      2       0.2067378       50.30517
2014    26      3       0.2007939       48.98593
2014    26      4       0.2051566       49.83783
2014    26      5       0.215666        51.8787
2014    26      6       0.2351389       55.6192
2014    26      7       0.227554        54.32958
2014    27      0       0.193717        48.01097
2014    27      1       0.1699344       43.32585
2014    27      2       0.1563474       40.43182
2014    27      3       0.1461165       38.25852
2014    27      4       0.1505603       39.16557
2014    27      5       0.1735756       43.85193
2014    27      6       0.2196445       52.71945
2014    27      7       0.270127        61.57175
2014    28      0       0.2986003       66.01841
2014    28      1       0.282627        62.97409
2014    28      2       0.2821792       63.06181
2014    28      3       0.2781559       62.8346
2014    28      4       0.2853818       64.17664
2014    28      5       0.2938018       65.5253
2014    28      6       0.3140863       68.81203
2014    28      7       0.3213207       69.7914
2014    29      0       0.3057755       67.2879
2014    29      1       0.275526        62.41757
2014    29      2       0.1786047       44.56597
2014    29      3       0.1199573       32.78093
2014    29      4       0.2038447       49.51611
2014    29      5       0.2464628       57.41442
2014    29      6       0.2695993       61.67556
2014    29      7       0.2944299       66.50106
2014    30      0       0.4130439       87.99605
2014    30      1       0.4539399       95.08989
2014    30      2       0.4771757       97.9073
2014    30      3       0.5204673       104.5373
2014    30      4       0.4629131       95.99642
2014    30      5       0.3934084       84.98288
2014    30      6       0.607518        117.5217
2014    30      7       0.3707286       80.60974
2014    31      0       0.3616846       78.91243
2014    31      1       0.4051735       86.55594
2014    31      2       0.3290354       73.52909
2014    31      3       0.3557433       78.13327
2014    31      4       0.3550717       77.59672
2014    31      5       0.3598059       78.17706
2014    31      6       0.346627        76.18197
2014    31      7       0.3219275       72.06688
2015    1       0       0.3776994       82.43678
2015    1       1       0.3743655       81.34107
2015    1       2       0.334849        74.27087
2015    1       3       0.355036        77.99396
2015    1       4       0.3132173       71.27136
2015    1       5       0.236267        57.22108
2015    1       6       0.1444744       38.73224
2015    1       7       0.1057798       30.49813
2015    2       0       0.1767316       45.65954
2015    2       1       0.4327874       90.98183
2015    2       2       0.4766722       98.62607
2015    2       3       0.3882077       84.8654
2015    2       4       0.1432989       38.69809
2015    2       5       0.1398743       37.96148
2015    2       6       0.1347276       36.63476
2015    2       7       0.1407385       38.62982
2015    3       0       0.1606103       42.61811
2015    3       1       0.1614649       42.72364
2015    3       2       0.2130969       53.12689
2015    3       3       0.2325619       56.83832
2015    3       4       0.2408408       59.23237
2015    3       5       0.3365556       77.61763
2015    3       6       0.3150813       73.65191
2015    3       7       0.2961394       69.89192
2015    4       0       0.3082016       71.57198
2015    4       1       0.1966077       49.65295
2015    4       2       0.177771        46.09919
2015    4       3       0.2051842       52.04039
2015    4       4       0.2174147       54.57065
2015    4       5       0.1953666       49.99731
2015    4       6       0.257312        61.86942
2015    4       7       0.5163683       105.4094
2015    5       0       0.4139847       89.83171
2015    5       1       0.1692414       43.67207
2015    5       2       0.1681802       43.96017
2015    5       3       0.1546765       41.05099
2015    5       4       0.1395608       37.55041
2015    5       5       0.1688175       43.69341
2015    5       6       0.1500096       39.66862
2015    5       7       0.1774134       45.48895
2015    6       0       0.1814135       46.41643
2015    6       1       0.231251        56.22955
2015    6       2       0.2161805       53.13883
2015    6       3       0.2019476       50.40998
2015    6       4       0.1996297       49.93866
2015    6       5       0.2021676       50.31727
2015    6       6       0.2293022       55.4154
2015    6       7       0.2710684       62.91005
2015    7       0       0.3195612       70.93245
2015    7       1       0.3315403       72.944
2015    7       2       0.3474642       75.65288
2015    7       3       0.3718421       79.8611
2015    7       4       0.3929819       83.01963
2015    7       5       0.355488        76.31827
2015    7       6       0.3256069       71.21666
2015    7       7       0.2811861       63.33882
2015    8       0       0.3075375       68.32564
2015    8       1       0.3549207       77.55881
2015    8       2       0.3673843       80.4873
2015    8       3       0.3630441       80.02675
2015    8       4       0.3645623       79.8704
2015    8       5       0.4397674       91.88114
2015    8       6       0.4652947       95.03625
2015    8       7       0.3802596       81.08494
2015    9       0       0.4402104       90.94526
2015    9       1       0.4039342       85.46869
2015    9       2       0.4124467       87.54718
2015    9       3       0.4604622       96.14254
2015    9       4       0.3927913       85.43697
2015    9       5       0.3530828       78.60157
2015    9       6       0.2726194       63.54982
2015    9       7       0.2136864       51.99744
2015    10      0       0.2031065       49.77533
2015    10      1       0.2698196       62.45389
2015    10      2       0.3457316       75.77817
2015    10      3       0.3772878       80.89213
2015    10      4       0.3463075       75.46268
2015    10      5       0.3077519       68.57885
2015    10      6       0.270402        61.73712
2015    10      7       0.2296155       54.09701
2015    11      0       0.2029236       48.97015
2015    11      1       0.1913048       46.65943
2015    11      2       0.1881657       45.9981
2015    11      3       0.1843863       45.22489
2015    11      4       0.1606981       40.56465
2015    11      5       0.1476465       37.99403
2015    11      6       0.1527357       39.03953
2015    11      7       0.1464906       37.8323
2015    12      0       0.1443738       37.42097
2015    12      1       0.1416969       36.84733
2015    12      2       0.1427908       36.9937
2015    12      3       0.1518984       38.74361
2015    12      4       0.1299164       34.30605
2015    12      5       0.1331759       34.90356
2015    12      6       0.1415079       36.60944
2015    12      7       0.1485677       38.10942
2015    13      0       0.1470971       37.889
2015    13      1       0.1594203       40.35798
2015    13      2       0.1474439       37.93496
2015    13      3       0.1472513       37.90729
2015    13      4       0.1447787       37.46516
2015    13      5       0.1426185       37.00932
2015    13      6       0.1411106       36.62772
2015    13      7       0.1395966       36.22627
2015    14      0       0.1396253       36.12558
2015    14      1       0.1386634       35.80137
2015    14      2       0.1366219       35.35402
2015    14      3       0.1331177       34.68018
2015    14      4       0.1277938       33.74447
2015    14      5       0.1233421       32.93751
2015    14      6       0.132581        34.85429
2015    14      7       0.1526913       38.8567
2015    15      0       0.1525851       38.79512
2015    15      1       0.1431733       36.91118
2015    15      2       0.1450532       37.27953
2015    15      3       0.1463064       37.54333
2015    15      4       0.1370217       35.68435
2015    15      5       0.1396332       36.19635
2015    15      6       0.1420719       36.79863
2015    15      7       0.1806999       44.42151
2015    16      0       0.1936341       46.93765
2015    16      1       0.1870242       45.65312
2015    16      2       0.197285        47.63721
2015    16      3       0.2274497       53.52478
2015    16      4       0.239633        55.97355
2015    16      5       0.2098124       50.15533
2015    16      6       0.2388857       55.75217
2015    16      7       0.2976668       66.78348
2015    17      0       0.3038838       67.84955
2015    17      1       0.2915276       65.5009
2015    17      2       0.2934829       66.04655
2015    17      3       0.3341152       73.56594
2015    17      4       0.2708132       61.77866
2015    17      5       0.4129243       86.27748
2015    17      6       0.504075        100.8084
2015    17      7       0.521959        103.609
2015    18      0       0.5899449       113.7657
2015    18      1       0.5962325       114.9863
2015    18      2       0.5423167       107.1917
2015    18      3       0.429734        90.25599
2015    18      4       0.4001255       85.57166
2015    18      5       0.4084148       86.6359
2015    18      6       0.3928303       84.14364
2015    18      7       0.4278773       90.43845
2015    19      0       0.5295817       104.2128
2015    19      1       0.4592004       93.53261
2015    19      2       0.4241486       88.41585
2015    19      3       0.3968878       83.90552
2015    19      4       0.3486321       75.91548
2015    19      5       0.3555534       77.2647
2015    19      6       0.383739        82.34703
2015    19      7       0.4177872       88.2091
2015    20      0       0.43601         91.04922
2015    20      1       0.4224128       88.79769
2015    20      2       0.413924        87.4174
2015    20      3       0.4303562       89.95672
2015    20      4       0.4497165       92.59885
2015    20      5       0.3569323       76.94015
2015    20      6       0.517805        102.4354
2015    20      7       0.7450875       133.9179
2015    21      0       1.002926        163.2523
2015    21      1       1.021256        165.0856
2015    21      2       0.9491498       158.0419
2015    21      3       0.8022891       142.646
2015    21      4       0.7502451       135.8454
2015    21      5       0.7246252       131.6029
2015    21      6       0.7397896       132.181
2015    21      7       0.6392086       119.5701
2015    22      0       0.5564292       109.6442
2015    22      1       0.5920873       115.7878
2015    22      2       0.6872834       127.6175
2015    22      3       0.6274039       119.1365
2015    22      4       0.4334415       91.35876
2015    22      5       0.4417646       92.6425
2015    22      6       0.6952124       128.0429
2015    22      7       0.6769034       125.6985
2015    23      0       0.6428294       121.4028
2015    23      1       0.5974869       115.0565
2015    23      2       0.4695595       95.49568
2015    23      3       0.3522655       76.26664
2015    23      4       0.3392191       73.713
2015    23      5       0.341724        74.57629
2015    23      6       0.3147656       69.3903
2015    23      7       0.290729        64.73511
2015    24      0       0.2543948       58.20674
2015    24      1       0.2042013       49.10592
2015    24      2       0.1511731       39.15518
2015    24      3       0.1665771       42.54379
2015    24      4       0.1550843       40.16644
2015    24      5       0.1345632       35.91197
2015    24      6       0.1337659       35.70667
2015    24      7       0.1338068       35.65057
2015    25      0       0.1269782       34.1508
2015    25      1       0.1166633       31.93575
2015    25      2       0.1086289       30.21683
2015    25      3       0.1120956       30.94183
2015    25      4       0.1127014       31.13533
2015    25      5       0.1309474       34.96371
2015    25      6       0.1408049       37.02443
2015    25      7       0.1396072       36.79208
2015    26      0       0.1377016       36.4409
2015    26      1       0.1365882       36.2434
2015    26      2       0.1360557       36.1164
2015    26      3       0.1379105       36.47133
2015    26      4       0.1436171       37.65302
2015    26      5       0.1528445       39.53642
2015    26      6       0.1588023       40.73369
2015    26      7       0.1613221       41.18148
2015    27      0       0.1616743       41.10406
2015    27      1       0.1603413       40.77422
2015    27      2       0.1600337       40.68007
2015    27      3       0.1581208       40.27655
2015    27      4       0.1565034       40.01094
2015    27      5       0.1554985       39.88338
2015    27      6       0.1502621       38.80554
2015    27      7       0.1433387       37.33648
2015    28      0       0.1291196       34.35889
2015    28      1       0.1299623       34.50009
2015    28      2       0.1324788       35.05523
2015    28      3       0.1297254       34.54275
2015    28      4       0.1242283       33.43683
2015    28      5       0.1186598       32.34002
2015    28      6       0.1104211       30.69545
2015    28      7       0.1085507       30.39533
2015    29      0       0.1287416       34.77576
2015    29      1       0.1385474       36.80343
2015    29      2       0.1396246       36.89124
2015    29      3       0.1432588       37.54286
2015    29      4       0.1480857       38.13144
2015    29      5       0.1517063       38.63035
2015    29      6       0.1615529       40.61503
2015    29      7       0.1581953       39.9845
2015    30      0       0.1494962       38.26719
2015    30      1       0.1392084       36.13194
2015    30      2       0.1251001       33.25597
2015    30      3       0.1219564       32.63805
2015    30      4       0.1320171       34.81693
2015    30      5       0.1392218       36.49959
2015    30      6       0.1396981       36.92365
2015    30      7       0.1349092       35.94873
2015    31      0       0.1350387       35.60069
2015    31      1       0.1191074       32.06911
2015    31      2       0.1109317       30.39658
2015    31      3       0.1243937       33.245
2015    31      4       0.131718        34.93161
2015    31      5       0.1314001       34.90785
2015    31      6       0.1356731       35.85556
2015    31      7       0.1611696       41.00809
2016    1       0       0.2966504       67.10179
2016    1       1       0.2968331       67.16383
2016    1       2       0.3210034       71.31522
2016    1       3       0.3467595       75.70309
2016    1       4       0.3088415       68.99325
2016    1       5       0.2892471       65.60163
2016    1       6       0.2739963       63.36329
2016    1       7       0.2965772       67.60192
2016    2       0       0.282195        64.88712
2016    2       1       0.2175754       52.70851
2016    2       2       0.2424961       57.29404
2016    2       3       0.236789        56.15019
2016    2       4       0.242273        57.08985
2016    2       5       0.2465332       57.75827
2016    2       6       0.2445335       57.42173
2016    2       7       0.2483574       58.16386
2016    3       0       0.2711716       62.32832
2016    3       1       0.2902455       65.8194
2016    3       2       0.2792752       63.86394
2016    3       3       0.2722306       62.59325
2016    3       4       0.2657784       61.42318
2016    3       5       0.2552729       59.5333
2016    3       6       0.2453591       57.7791
2016    3       7       0.2340498       55.69648
2016    4       0       0.2235415       53.78657
2016    4       1       0.2124569       51.7629
2016    4       2       0.198097        49.17755
2016    4       3       0.1843096       46.87321
2016    4       4       0.1820527       46.62156
2016    4       5       0.1792487       46.21591
2016    4       6       0.1927252       48.55162
2016    4       7       0.1867707       46.8536
2016    5       0       0.1709393       43.65189
2016    5       1       0.1681378       43.12739
2016    5       2       0.160584        41.40123
2016    5       3       0.1636809       41.91222
2016    5       4       0.2090276       50.58004
2016    5       5       0.2277093       53.99806
2016    5       6       0.2298896       54.42672
2016    5       7       0.2345428       55.36216
2016    6       0       0.2432756       57.12505
2016    6       1       0.2460258       57.79086
2016    6       2       0.241573        57.16719
2016    6       3       0.2093295       51.2442
2016    6       4       0.1907828       47.66737
2016    6       5       0.2581802       60.46258
2016    6       6       0.3453178       75.80442
2016    6       7       0.3442972       75.67535
2016    7       0       0.3027655       68.37383
2016    7       1       0.2655793       61.66118
2016    7       2       0.258733        60.35581
2016    7       3       0.2916651       66.19126
2016    7       4       0.3181747       70.88679
2016    7       5       0.3115766       69.74311
2016    7       6       0.2937522       66.48731
2016    7       7       0.2817846       64.32182
2016    8       0       0.2970957       67.19546
2016    8       1       0.3629815       78.65797
2016    8       2       0.4273555       89.06956
2016    8       3       0.3400169       74.7165
2016    8       4       0.2796878       64.08423
2016    8       5       0.2477603       58.23202
2016    8       6       0.2383505       56.41195
2016    8       7       0.2347921       55.75978
2016    9       0       0.2388894       56.48378
2016    9       1       0.2273876       54.35568
2016    9       2       0.2363332       56.08582
2016    9       3       0.2574602       60.10838
2016    9       4       0.2681693       61.93068
2016    9       5       0.2502919       58.51494
2016    9       6       0.2222857       53.20798
2016    9       7       0.1909418       47.31846
2016    10      0       0.1936568       47.97579
2016    10      1       0.1748716       44.28329
2016    10      2       0.1542402       40.25521
2016    10      3       0.1461065       38.71102
2016    10      4       0.1587514       41.35034
2016    10      5       0.1621632       42.18252
2016    10      6       0.1383661       37.42323
2016    10      7       0.1304189       35.72856
2016    11      0       0.1524179       40.14003
2016    11      1       0.2519765       59.52795
2016    11      2       0.4066304       86.58
2016    11      3       0.5402077       107.0071
2016    11      4       0.6080205       116.4749
2016    11      5       0.6390506       120.5408
2016    11      6       0.7015002       128.5379
2016    11      7       0.7309653       132.2913
2016    12      0       0.7832355       138.9137
2016    12      1       0.8391688       144.7876
2016    12      2       0.8057962       140.4613
2016    12      3       0.5919306       114.1732
2016    12      4       0.5379949       106.579
2016    12      5       0.4862879       98.59055
2016    12      6       0.3877493       83.41615
2016    12      7       0.3201376       72.21522
2016    13      0       0.2934018       67.55587
2016    13      1       0.2510741       59.77952
2016    13      2       0.2010542       50.18664
2016    13      3       0.1837659       46.75894
2016    13      4       0.1904937       48.10801
2016    13      5       0.1993566       50.10277
2016    13      6       0.2040877       51.0903
2016    13      7       0.1933761       48.76314
2016    14      0       0.2030889       51.05881
2016    14      1       0.2226823       55.04705
2016    14      2       0.2101401       52.49483
2016    14      3       0.1885802       48.05386
2016    14      4       0.1844499       47.05466
2016    14      5       0.1976785       49.57457
2016    14      6       0.2055228       51.11391
2016    14      7       0.1994015       49.88005
2016    15      0       0.2162673       53.37002
2016    15      1       0.250073        59.37672
2016    15      2       0.2616787       62.12149
2016    15      3       0.2634936       62.61539
2016    15      4       0.2677866       63.50255
2016    15      5       0.2813102       65.94
2016    15      6       0.282612        66.00904
2016    15      7       0.2778946       64.99357
2016    16      0       0.2934551       67.41383
2016    16      1       0.3107926       70.5576
2016    16      2       0.3064298       70.4002
2016    16      3       0.3137631       71.49692
2016    16      4       0.3344207       74.9311
2016    16      5       0.355207        77.8338
2016    16      6       0.3649329       79.41699
2016    16      7       0.3135774       70.7163
2016    17      0       0.2930832       67.18242
2016    17      1       0.4010535       85.67387
2016    17      2       0.2937966       67.48741
2016    17      3       0.3040427       69.39865
2016    17      4       0.3095638       70.5406
2016    17      5       0.2986054       68.77912
2016    17      6       0.2837043       66.13097
2016    17      7       0.2698475       63.62643
2016    18      0       0.2553896       61.03336
2016    18      1       0.254715        60.97096
2016    18      2       0.2570922       61.38798
2016    18      3       0.2694956       63.58511
2016    18      4       0.3191414       72.36141
2016    18      5       0.4828433       98.70505
2016    18      6       0.5783757       112.0635
2016    18      7       0.411001        87.24081
2016    19      0       0.4109645       87.3572
2016    19      1       0.4486244       93.50536
2016    19      2       0.4310762       90.89005
2016    19      3       0.384995        83.46403
2016    19      4       0.3477584       77.18981
2016    19      5       0.3480158       77.32051
2016    19      6       0.3820709       83.0416
2016    19      7       0.3950715       85.01635
2016    20      0       0.3884281       84.06655
2016    20      1       0.3854115       83.66347
2016    20      2       0.3816981       82.85775
2016    20      3       0.3509449       77.57109
2016    20      4       0.3228626       72.66156
2016    20      5       0.3096422       70.12631
2016    20      6       0.315833        71.07171
2016    20      7       0.2951034       67.889
2016    21      0       0.2925215       67.25191
2016    21      1       0.2977947       68.05891
2016    21      2       0.2969149       67.76332
2016    21      3       0.3021908       68.20936
2016    21      4       0.2988803       67.52854
2016    21      5       0.2795905       64.36962
2016    21      6       0.2579496       60.36848
2016    21      7       0.2513098       59.18541
2016    22      0       0.2553089       59.58663
2016    22      1       0.264958        61.37564
2016    22      2       0.2674317       61.79766
2016    22      3       0.2717268       62.57333
2016    22      4       0.281468        65.00544
2016    22      5       0.2465145       58.42029
2016    22      6       0.2345665       56.10039
2016    22      7       0.2188607       53.0611
2016    23      0       0.2053007       50.4044
2016    23      1       0.19035         47.47754
2016    23      2       0.1827032       46.03368
2016    23      3       0.1974673       48.61718
2016    23      4       0.2131397       51.69521
2016    23      5       0.2216095       53.375
2016    23      6       0.2267855       54.49617
2016    23      7       0.2292731       55.11819
2016    24      0       0.2276065       54.88237
2016    24      1       0.2111641       51.84138
2016    24      2       0.1919666       48.17195
2016    24      3       0.1878653       47.39842
2016    24      4       0.1811356       46.12192
2016    24      5       0.1728569       44.50622
2016    24      6       0.1840217       46.78391
2016    24      7       0.2247646       54.77725
2016    25      0       0.2571554       60.98338
2016    25      1       0.26945         63.26937
2016    25      2       0.2799365       65.19027
2016    25      3       0.3637078       79.77035
2016    25      4       0.424826        89.55185
2016    25      5       0.440286        92.00875
2016    25      6       0.3535003       77.82717
2016    25      7       0.3322433       74.30207
2016    26      0       0.3048121       69.60909
2016    26      1       0.2578989       61.10761
2016    26      2       0.2351876       57.00387
2016    26      3       0.2662948       62.82648
2016    26      4       0.276625        64.71885
2016    26      5       0.2687449       63.23655
2016    26      6       0.2526903       60.23978
2016    26      7       0.2455618       58.93111
2016    27      0       0.2505391       59.89208
2016    27      1       0.2612293       61.94254
2016    27      2       0.2606783       61.86668
2016    27      3       0.2550427       60.80979
2016    27      4       0.2753209       64.57885
2016    27      5       0.3246084       73.39273
2016    27      6       0.3559952       78.72312
2016    27      7       0.3452316       76.89618
2016    28      0       0.3277297       73.87706
2016    28      1       0.3229475       73.06856
2016    28      2       0.3126902       71.29381
2016    28      3       0.3049791       69.9597
2016    28      4       0.305662        70.18527
2016    28      5       0.30964         70.97029
2016    28      6       0.3144866       71.77579
2016    28      7       0.3146529       71.71558
2016    29      0       0.3156509       71.92083
2016    29      1       0.3265552       73.79245
2016    29      2       0.3928981       84.94841
2016    29      3       0.3894077       84.31619
2016    29      4       0.3460455       76.90973
2016    29      5       0.3585966       78.91664
2016    29      6       0.3920015       84.44259
2016    29      7       0.3686653       80.57847
2016    30      0       0.3773966       81.90451
2016    30      1       0.3638353       79.58205
2016    30      2       0.3527697       77.65675
2016    30      3       0.3534003       77.62652
2016    30      4       0.3536383       77.58313
2016    30      5       0.3348223       74.29857
2016    30      6       0.3202271       71.82525
2016    30      7       0.2884287       66.13646
2016    31      0       0.2473083       58.58887
2016    31      1       0.2317571       55.75883
2016    31      2       0.2342754       56.33216
2016    31      3       0.2346279       56.51948
2016    31      4       0.2311889       55.9559
2016    31      5       0.2340603       56.4969
2016    31      6       0.2376687       57.21467
2016    31      7       0.2507849       59.69413
2017    1       0       0.3144123       69.73436
2017    1       1       0.2368061       55.70191
2017    1       2       0.2332953       55.15225
2017    1       3       0.2283422       54.24313
2017    1       4       0.1929344       47.40951
2017    1       5       0.1599967       40.87623
2017    1       6       0.1637121       41.54261
2017    1       7       0.168077        42.35294
2017    2       0       0.1709456       42.98279
2017    2       1       0.1775352       44.36747
2017    2       2       0.2013947       48.97964
2017    2       3       0.2499811       58.2026
2017    2       4       0.3135235       69.72278
2017    2       5       0.420015        87.34893
2017    2       6       0.3530564       76.42412
2017    2       7       0.3711142       79.56558
2017    3       0       0.3969479       83.88632
2017    3       1       0.5621071       108.978
2017    3       2       0.6076492       115.7982
2017    3       3       0.6650876       123.121
2017    3       4       0.7222053       130.3916
2017    3       5       0.7382917       132.5941
2017    3       6       0.7395291       133.22
2017    3       7       0.7129621       130.2889
2017    4       0       0.4789206       98.48423
2017    4       1       0.3600685       80.01542
2017    4       2       0.3441164       77.25671
2017    4       3       0.3248606       74.12663
2017    4       4       0.3268635       74.46351
2017    4       5       0.3262575       74.84871
2017    4       6       0.2943889       69.38293
2017    4       7       0.238398        58.87615
2017    5       0       0.2207413       55.61387
2017    5       1       0.1968994       50.45293
2017    5       2       0.1982158       50.45781
2017    5       3       0.2131411       53.62991
2017    5       4       0.2082641       52.51931
2017    5       5       0.1625636       43.22156
2017    5       6       0.1410941       38.70123
2017    5       7       0.1580281       42.45539
2017    6       0       0.1637441       43.26184
2017    6       1       0.27681         64.92723
2017    6       2       0.3308657       74.56999
2017    6       3       0.3342591       75.00111
2017    6       4       0.3289923       73.86812
2017    6       5       0.3190485       71.99287
2017    6       6       0.3216621       72.32415
2017    6       7       0.3348994       74.40123
2017    7       0       0.3499016       76.8148
2017    7       1       0.3383101       74.77465
2017    7       2       0.2889566       66.19888
2017    7       3       0.2922737       66.70493
2017    7       4       0.3690135       79.5976
2017    7       5       0.4565421       93.67355
2017    7       6       0.4326913       90.313
2017    7       7       0.5071436       101.9975
2017    8       0       0.3844952       82.98333
2017    8       1       0.3347385       74.86749
2017    8       2       0.2810519       65.12132
2017    8       3       0.2452252       58.78615
2017    8       4       0.2134407       53.10965
2017    8       5       0.2355885       58.08885
2017    8       6       0.2318861       57.43474
2017    8       7       0.1876877       48.49965
2017    9       0       0.1504523       40.57774
2017    9       1       0.1359243       37.50689
2017    9       2       0.1484906       39.9555
2017    9       3       0.1626429       42.83898
2017    9       4       0.2215843       54.4674
2017    9       5       0.3969034       85.52782
2017    9       6       0.4854875       99.24388
2017    9       7       0.5251034       104.7845
2017    10      0       0.381304        82.58268
2017    10      1       0.3310993       74.8344
2017    10      2       0.3671161       81.10079
2017    10      3       0.3721241       82.06994
2017    10      4       0.366468        80.11853
2017    10      5       0.4066332       86.40793
2017    10      6       0.4717466       96.41324
2017    10      7       0.5267597       104.6423
2017    11      0       0.4429944       92.09945
2017    11      1       0.4094309       86.7026
2017    11      2       0.3789847       81.7231
2017    11      3       0.401948        85.37181
2017    11      4       0.4014633       85.1691
2017    11      5       0.3640467       78.86111
2017    11      6       0.3410742       74.95692
2017    11      7       0.3386744       74.55999
2017    12      0       0.3378283       74.36356
2017    12      1       0.3200265       71.41192
2017    12      2       0.3122377       70.26434
2017    12      3       0.3269325       72.96996
2017    12      4       0.3389457       75.17592
2017    12      5       0.3390888       75.36357
2017    12      6       0.3289683       73.84991
2017    12      7       0.3022365       69.3507
2017    13      0       0.298118        68.75507
2017    13      1       0.3230026       73.43144
2017    13      2       0.3125365       71.82902
2017    13      3       0.2681841       63.84595
2017    13      4       0.2251752       55.68961
2017    13      5       0.2035962       51.44413
2017    13      6       0.183316        47.32686
2017    13      7       0.163878        43.23385
2017    14      0       0.1566867       41.73976
2017    14      1       0.1565916       41.70792
2017    14      2       0.1385886       38.14416
2017    14      3       0.1256471       35.27677
2017    14      4       0.1247484       35.01232
2017    14      5       0.1290971       35.85697
2017    14      6       0.1284081       35.67103
2017    14      7       0.1264147       35.19587
2017    15      0       0.1354434       37.22572
2017    15      1       0.1484016       40.04933
2017    15      2       0.1599555       42.36791
2017    15      3       0.1616021       42.68274
2017    15      4       0.1675561       43.88637
2017    15      5       0.1776914       45.90622
2017    15      6       0.1707209       44.42646
2017    15      7       0.156603        41.47285
2017    16      0       0.1563251       41.07331
2017    16      1       0.154413        41.00093
2017    16      2       0.1570139       41.45773
2017    16      3       0.1584065       41.68658
2017    16      4       0.1710071       44.3091
2017    16      5       0.1937491       48.80339
2017    16      6       0.1973688       49.44953
2017    16      7       0.1933892       48.19534
2017    17      0       0.1853666       46.57101
2017    17      1       0.1800285       45.48482
2017    17      2       0.181319        45.69035
2017    17      3       0.1903855       47.50165
2017    17      4       0.202533        49.81202
2017    17      5       0.2216646       53.36418
2017    17      6       0.2389416       56.62231
2017    17      7       0.2460285       57.93866
2017    18      0       0.2451024       57.68448
2017    18      1       0.2163966       52.21235
2017    18      2       0.2416047       57.07581
2017    18      3       0.1924663       47.75014
2017    18      4       0.1954471       48.43773
2017    18      5       0.2121757       51.85083
2017    18      6       0.2405635       57.35857
2017    18      7       0.3446913       76.10334
2017    19      0       0.3987491       85.10331
2017    19      1       0.4801391       97.84249
2017    19      2       0.7783415       137.3726
2017    19      3       0.7816035       137.7916
2017    19      4       0.7656747       135.9723
2017    19      5       0.7353112       132.2426
2017    19      6       0.6936281       127.2631
2017    19      7       0.6980015       127.6309
2017    20      0       0.5868511       113.485
2017    20      1       0.548377        108.1286
2017    20      2       0.5366216       106.5296
2017    20      3       0.5031726       102.0601
2017    20      4       0.4589042       95.74279
2017    20      5       0.4593895       95.9278
2017    20      6       0.4671958       97.22077
2017    20      7       0.41965         89.76434
2017    21      0       0.4126939       88.49433
2017    21      1       0.411564        88.33619
2017    21      2       0.4007771       86.56668
2017    21      3       0.3964098       85.67237
2017    21      4       0.3994556       85.90472
2017    21      5       0.3883148       84.03764
2017    21      6       0.361123        79.5549
2017    21      7       0.3438556       76.68277
2017    22      0       0.3457843       77.13163
2017    22      1       0.3493899       77.74408
2017    22      2       0.3372323       75.62949
2017    22      3       0.3278561       73.92236
2017    22      4       0.3294781       74.13404
2017    22      5       0.3408065       76.08084
2017    22      6       0.4852641       99.64806
2017    22      7       0.3211392       72.86246
2017    23      0       0.3343375       75.08398
2017    23      1       0.3535465       78.39932
2017    23      2       0.3596127       79.4037
2017    23      3       0.3482975       77.39351
2017    23      4       0.3342629       74.92588
2017    23      5       0.3207268       72.52878
2017    23      6       0.3064195       70.00909
2017    23      7       0.2974841       68.28459
2017    24      0       0.304418        69.44458
2017    24      1       0.3002897       68.76575
2017    24      2       0.2945043       67.73906
2017    24      3       0.2976293       68.20801
2017    24      4       0.3031022       69.04043
2017    24      5       0.3107416       70.2941
2017    24      6       0.323228        72.47513
2017    24      7       0.3267054       73.09708
2017    25      0       0.3263159       73.03609
2017    25      1       0.3292567       73.55298
2017    25      2       0.3406643       75.60942
2017    25      3       0.3831665       82.96196
2017    25      4       0.4316628       90.92054
2017    25      5       0.4533211       94.3653
2017    25      6       0.5024628       102.0764
2017    25      7       0.4713204       97.53951
2017    26      0       0.4036477       86.83363
2017    26      1       0.4204885       89.28997
2017    26      2       0.5014049       101.6238
2017    26      3       0.5930611       114.6879
2017    26      4       0.6778647       125.52
2017    26      5       0.6331324       119.6926
2017    26      6       0.6279041       119.0857
2017    26      7       0.5708028       111.3051
2017    27      0       0.5348509       106.1962
2017    27      1       0.5664478       110.5824
2017    27      2       0.5658245       110.4942
2017    27      3       0.5481184       107.8394
2017    27      4       0.5413658       106.6514
2017    27      5       0.5298258       104.8389
2017    27      6       0.4970586       100.2173
2017    27      7       0.4486658       93.07125
2017    28      0       0.4023278       85.87222
2017    28      1       0.3942024       84.75288
2017    28      2       0.397413        85.38684
2017    28      3       0.3947887       84.87722
2017    28      4       0.3847949       83.27479
2017    28      5       0.3999747       85.93396
2017    28      6       0.4263329       90.33876
2017    28      7       0.5223563       105.0333
2017    29      0       0.5511961       109.1639
2017    29      1       0.5350348       106.7606
2017    29      2       0.5229969       105.106
2017    29      3       0.4405961       92.72426
2017    29      4       0.4318246       91.32234
2017    29      5       0.4558968       94.93894
2017    29      6       0.4716552       97.27565
2017    29      7       0.4746684       97.72354
2017    30      0       0.472987        97.52822
2017    30      1       0.4677074       96.8927
2017    30      2       0.4617043       96.21649
2017    30      3       0.451704        94.73988
2017    30      4       0.4500294       94.47918
2017    30      5       0.4761432       98.58874
2017    30      6       0.4584455       95.94249
2017    30      7       0.455633        95.57933
2017    31      0       0.4492974       94.88454
2017    31      1       0.4018419       87.63354
2017    31      2       0.3451209       78.19771
2017    31      3       0.2767058       65.87707
2017    31      4       0.2469542       60.31994
2017    31      5       0.2494163       60.82549
2017    31      6       0.2454393       60.08373
2017    31      7       0.2546727       62.39421
2018    1       0       0.4507743       92.48382
2018    1       1       0.4487407       92.3096
2018    1       2       0.4340528       90.06944
2018    1       3       0.4584239       93.74353
2018    1       4       0.3229481       71.45319
2018    1       5       0.389613        82.60388
2018    1       6       0.3579665       77.82883
2018    1       7       0.3347033       73.89114
2018    2       0       0.3302114       73.19692
2018    2       1       0.3016172       68.26105
2018    2       2       0.3039624       68.81058
2018    2       3       0.2929629       66.86226
2018    2       4       0.2735973       63.28193
2018    2       5       0.2742506       63.40229
2018    2       6       0.2588004       60.61058
2018    2       7       0.2496988       58.98075
2018    3       0       0.2553663       60.19634
2018    3       1       0.2590174       61.0294
2018    3       2       0.2966608       67.88779
2018    3       3       0.328997        73.51099
2018    3       4       0.3472555       77.08368
2018    3       5       0.3639456       80.16907
2018    3       6       0.425243        90.53096
2018    3       7       0.4583398       96.05359
2018    4       0       0.5152599       103.5255
2018    4       1       0.6879084       127.1515
2018    4       2       0.7259472       132.1721
2018    4       3       0.7943085       140.2616
2018    4       4       0.8433165       144.6671
2018    4       5       0.6581663       122.4267
2018    4       6       0.584565        112.95
2018    4       7       0.4806157       98.21555
2018    5       0       0.457533        94.88742
2018    5       1       0.490062        99.95586
2018    5       2       0.450634        93.73651
2018    5       3       0.5227641       104.4154
2018    5       4       0.5276375       105.0116
2018    5       5       0.5099317       102.34
2018    5       6       0.5558622       108.9294
2018    5       7       0.5286627       105.0048
2018    6       0       0.4630024       94.73095
2018    6       1       0.4041225       85.40386
2018    6       2       0.4410515       91.27838
2018    6       3       0.4507117       92.77823
2018    6       4       0.4589454       93.88481
2018    6       5       0.396039        83.97804
2018    6       6       0.3763557       80.82006
2018    6       7       0.4507202       92.84456
2018    7       0       0.4625675       94.75365
2018    7       1       0.3962949       84.31138
2018    7       2       0.3263282       72.73437
2018    7       3       0.3438842       75.93934
2018    7       4       0.3968613       84.56889
2018    7       5       0.410953        86.8124
2018    7       6       0.4149627       87.65622
2018    7       7       0.4203204       88.4464
2018    8       0       0.4029535       85.53012
2018    8       1       0.3852107       82.65199
2018    8       2       0.3463132       76.29892
2018    8       3       0.3233014       72.59813
2018    8       4       0.3395093       75.50859
2018    8       5       0.3504783       77.45519
2018    8       6       0.329876        73.96573
2018    8       7       0.3161677       71.41731
2018    9       0       0.3211521       72.14527
2018    9       1       0.3285549       73.31768
2018    9       2       0.3199843       71.9424
2018    9       3       0.3392764       75.33157
2018    9       4       0.3525094       77.31637
2018    9       5       0.3301739       73.26731
2018    9       6       0.2868636       65.75431
2018    9       7       0.2969806       67.54471
2018    10      0       0.3236716       71.98787
2018    10      1       0.324401        72.0777
2018    10      2       0.3017683       68.33043
2018    10      3       0.2868338       65.92111
2018    10      4       0.3249633       72.59341
2018    10      5       0.5490189       107.6354
2018    10      6       0.5436059       106.8943
2018    10      7       0.5042137       101.1446
2018    11      0       0.4112456       86.87486
2018    11      1       0.3571209       78.1662
2018    11      2       0.3057441       69.4952
2018    11      3       0.3557161       78.26556
2018    11      4       0.4659634       96.04784
2018    11      5       0.5507043       108.3758
2018    11      6       0.53061         105.0036
2018    11      7       0.4520808       93.13677
2018    12      0       0.4478128       92.38219
2018    12      1       0.4048863       85.67881
2018    12      2       0.3829756       82.08736
2018    12      3       0.4171372       87.69028
2018    12      4       0.4483253       92.50916
2018    12      5       0.4914441       99.04924
2018    12      6       0.514552        102.2585
2018    12      7       0.449274        92.54327
2018    13      0       0.4387432       90.78019
2018    13      1       0.4095269       86.045
2018    13      2       0.3840805       81.89984
2018    13      3       0.3927446       83.18341
2018    13      4       0.3956728       83.63434
2018    13      5       0.3635205       78.32092
2018    13      6       0.3283491       72.25269
2018    13      7       0.3112104       69.20849
2018    14      0       0.2827594       64.14945
2018    14      1       0.27037         61.94465
2018    14      2       0.2532974       58.97509
2018    14      3       0.2374205       56.16215
2018    14      4       0.2409113       56.85718
2018    14      5       0.2585026       60.23733
2018    14      6       0.3064663       68.85687
2018    14      7       0.3468357       75.57327
2018    15      0       0.3071519       68.67341
2018    15      1       0.2938379       66.36337
2018    15      2       0.2802503       63.9744
2018    15      3       0.2536804       59.2132
2018    15      4       0.2436153       57.35012
2018    15      5       0.2435037       57.34715
2018    15      6       0.2367729       56.13925
2018    15      7       0.2348754       55.82511
2018    16      0       0.2196843       53.08798
2018    16      1       0.1806881       45.98685
2018    16      2       0.153549        40.55945
2018    16      3       0.1439694       38.48144
2018    16      4       0.1467895       39.48101
2018    16      5       0.1695925       44.33543
2018    16      6       0.1565807       41.56787
2018    16      7       0.1330337       36.50998
2018    17      0       0.12984         35.88018
2018    17      1       0.1337009       36.80304
2018    17      2       0.1331217       36.28079
2018    17      3       0.1255263       34.62088
2018    17      4       0.1373057       37.30353
2018    17      5       0.1622857       42.37051
2018    17      6       0.2329841       56.17308
2018    17      7       0.4473028       92.96129
2018    18      0       0.3724203       80.96499
2018    18      1       0.3186029       71.93567
2018    18      2       0.291675        67.30056
2018    18      3       0.3095319       70.53843
2018    18      4       0.3487688       77.31923
2018    18      5       0.3923825       84.49138
2018    18      6       0.519791        103.9773
2018    18      7       0.5971201       114.6738
2018    19      0       0.5943116       114.3297
2018    19      1       0.6072236       116.139
2018    19      2       0.5096886       102.7356
2018    19      3       0.454279        94.40801
2018    19      4       0.4394842       92.05003
2018    19      5       0.4101942       87.46161
2018    19      6       0.3680961       80.80439
2018    19      7       0.3636184       80.32626
2018    20      0       0.3782792       83.22006
2018    20      1       0.3420489       77.38896
2018    20      2       0.3503604       78.79558
2018    20      3       0.3394305       76.71836
2018    20      4       0.3160361       72.57538
2018    20      5       0.3429698       77.00927
2018    20      6       0.3907053       84.52047
2018    20      7       0.3959272       84.94877
2018    21      0       0.3641722       79.51975
2018    21      1       0.3504629       77.16176
2018    21      2       0.3396232       75.30921
2018    21      3       0.3412491       75.55959
2018    21      4       0.3614289       78.84599
2018    21      5       0.3868607       82.80697
2018    21      6       0.4126917       86.85027
2018    21      7       0.440768        91.14692
2018    22      0       0.4537025       93.11551
2018    22      1       0.4493696       92.57721
2018    22      2       0.4158213       87.3158
2018    22      3       0.3892216       82.96115
2018    22      4       0.3812127       81.70941
2018    22      5       0.3743797       80.67695
2018    22      6       0.3596704       78.18468
2018    22      7       0.3454267       75.85979
2018    23      0       0.3527838       77.1576
2018    23      1       0.3737588       80.59679
2018    23      2       0.3730373       80.43828
2018    23      3       0.3551696       77.40892
2018    23      4       0.3466122       75.95037
2018    23      5       0.332008        73.44595
2018    23      6       0.3168776       70.84713
2018    23      7       0.3954473       84.117
2018    24      0       0.3172823       70.9353
2018    24      1       0.3265948       72.50565
2018    24      2       0.3253609       72.43461
2018    24      3       0.3046765       68.93752
2018    24      4       0.2871605       65.86139
2018    24      5       0.3226851       72.27412
2018    24      6       0.355183        77.98574
2018    24      7       0.3799591       82.26707
2018    25      0       0.3994944       85.62494
2018    25      1       0.3953934       85.0764
2018    25      2       0.3864289       83.85343
2018    25      3       0.3947517       85.67504
2018    25      4       0.3882096       84.80545
2018    25      5       0.4693327       97.69708
2018    25      6       0.721485        132.7841
2018    25      7       0.7291586       133.9802
2018    26      0       0.8842568       151.3351
2018    26      1       0.8140454       144.2455
2018    26      2       0.6920959       130.3077
2018    26      3       0.7368664       135.6033
2018    26      4       0.8120211       143.2962
2018    26      5       0.8009949       144.5123
2018    26      6       0.5210815       106.9344
2018    26      7       0.3363086       76.27001
2018    27      0       0.2728993       64.19834
2018    27      1       0.2436753       58.7967
2018    27      2       0.2283623       56.12882
2018    27      3       0.2486499       60.36489
2018    27      4       0.2970051       69.30804
2018    27      5       0.3771937       83.0283
2018    27      6       0.5281251       106.5014
2018    27      7       0.8092927       142.6584
2018    28      0       0.8862535       151.0106
2018    28      1       0.6240405       120.1684
2018    28      2       0.519099        105.7024
2018    28      3       0.48236         100.1917
2018    28      4       0.5481523       109.7181
2018    28      5       0.5885434       115.3616
2018    28      6       0.5767815       113.6884
2018    28      7       0.524485        106.4411
2018    29      0       0.5444876       109.3096
2018    29      1       0.6227573       120.2131
2018    29      2       0.7881255       140.8415
2018    29      3       0.883177        151.2512
2018    29      4       0.9143231       154.5519
2018    29      5       0.9056001       153.8788
2018    29      6       0.8809014       151.3084
2018    29      7       0.7392126       135.2378
2018    30      0       0.58454         115.1284
2018    30      1       0.5019405       103.0377
2018    30      2       0.4620447       96.91264
2018    30      3       0.4371126       92.84215
2018    30      4       0.4211514       90.24156
2018    30      5       0.4484917       94.7506
2018    30      6       0.5074598       104.0727
2018    30      7       0.5428188       109.3762
2018    31      0       0.5211611       105.9954
2018    31      1       0.6705329       126.6279
2018    31      2       0.6265494       120.6088
2018    31      3       0.6884332       128.4752
2018    31      4       0.664928        125.2943
2018    31      5       0.5726947       112.8625
2018    31      6       0.5091495       103.6067
2018    31      7       0.4669502       97.10462
