####################################################################################################
# Month: 03Mar                                                                                     #
# Station: BGA                                                                                     #
# Frequency: 230 GHz                                                                               #
# Columns are: year    day     tau     Tb (K)                                                      #
####################################################################################################
2009    1       0.16745987      43.66575875
2009    2       0.27347149      65.06965625
2009    3       0.25373602      61.04387875
2009    4       0.16983095      44.02352625
2009    5       0.27240754      65.17379625
2009    6       0.22692119      53.72291
2009    7       0.18223676      46.30706125
2009    8       0.16984078      44.001965
2009    9       0.10719462      30.4426325
2009    10      0.14944337      38.64030625
2009    11      0.13447707      35.3442175
2009    12      0.14431775      37.903945
2009    13      0.11753752      31.87498
2009    14      0.12475146      33.46836875
2009    15      0.07423074      22.32255125
2009    16      0.1515673       40.040795
2009    17      0.1399452       36.96733125
2009    18      0.16658539      41.9365975
2009    19      0.15195421      38.95769125
2009    20      0.19897542      49.2420675
2009    21      0.26822915      63.4741625
2009    22      0.26025985      61.58935875
2009    23      0.13606412      36.406715
2009    24      0.14772786      39.3404425
2009    25      0.22828955      55.6424925
2009    26      0.11649655      31.76918125
2009    27      0.10269547      28.90442125
2009    28      0.10416715      29.833915
2009    29      0.38536565      85.3755625
2009    30      0.53598244      111.11142625
2009    31      0.42968847      93.87372125
2010    1       0.40779818      90.87236875
2010    2       0.33036372      75.8905275
2010    3       0.13660746      36.30984625
2010    4       0.36400989      82.72711375
2010    5       0.23936698      57.6340025
2010    6       0.13121375      34.375455
2010    7       0.12813383      33.705835
2010    8       0.4158031       91.6394675
2010    9       0.28002314      65.2535425
2010    10      0.3933826       87.37679125
2010    11      0.16720432      41.227765
2010    12      0.16951912      43.695995
2010    13      0.06959136      21.5515575
2010    14      0.06355103      19.999095
2010    15      0.08958882      26.1319875
2010    16      0.07767821      23.14965125
2010    17      0.09423636      26.70707125
2010    18      0.11774268      32.3120625
2010    19      0.07798006      23.486455
2010    20      0.13415111      36.65263375
2010    21      0.23017562      56.9886675
2010    22      0.39473688      88.8162075
2010    23      0.48107769      102.68050375
2010    24      0.41252214      91.26146375
2010    25      0.31758799      74.14490125
2010    26      0.18175488      47.22918375
2010    27      0.12619328      35.24903
2010    28      0.31520201      72.57681125
2010    29      0.13435177      35.88218375
2010    30      0.13919791      37.6034375
2010    31      0.27261825      65.35541875
2011    1       0.1443568       38.5653675
2011    2       0.26297932      62.9221425
2011    3       0.16251891      41.65395125
2011    4       0.11914235      32.92590375
2011    5       0.18641199      47.89379875
2011    6       0.19361456      47.33528375
2011    7       0.0972559       27.23042
2011    8       0.03844016      13.76331
2011    9       0.05957713      18.801165
2011    10      0.15712138      41.25509625
2011    11      0.09237535      26.92270625
2011    12      0.07794539      23.68572125
2011    13      0.06000465      19.5546025
2011    14      0.13449236      36.4041925
2011    15      0.19004154      48.8186075
2011    16      0.12439368      34.04310375
2011    17      0.27307882      64.12598875
2011    18      0.22783965      55.19078625
2011    19      0.29824349      68.96298125
2011    20      0.242763        58.72022875
2011    21      0.17290751      44.6608025
2011    22      0.10137445      28.6766575
2011    23      0.17427849      43.76215625
2011    24      0.11296569      31.69766375
2011    25      0.05553089      18.44804125
2011    26      0.12090121      32.95103
2011    27      0.31011231      71.5504525
2011    28      0.283883        66.03819625
2011    29      0.35384906      80.1591275
2011    30      0.33848284      77.03263875
2011    31      0.28450002      66.7283475
2012    1       0.08249542      24.25817875
2012    2       0.16616625      43.022675
2012    3       0.03719565      13.74189125
2012    4       0.05980029      18.9370675
2012    5       0.1539357       40.179525
2012    6       0.08292732      24.21707375
2012    7       0.21824655      53.73827625
2012    8       0.20871028      51.58722375
2012    9       0.26304352      62.78218875
2012    10      0.23066128      56.7199675
2012    11      0.28846658      68.118385
2012    12      0.24011219      57.50683875
2012    13      0.16475979      42.6250025
2012    14      0.1155637       32.1038975
2012    15      0.111405        31.063635
2012    16      0.12225054      33.77134625
2012    17      0.08124431      24.51556
2012    18      0.07328373      22.661475
2012    19      0.13581027      36.9115475
2012    20      0.24962701      60.2358875
2012    21      0.14018698      37.69325625
2012    22      0.07932145      24.31996375
2012    23      0.08566274      25.559245
2012    24      0.25596721      61.35132375
2012    25      0.33510924      75.935075
2012    26      0.19100252      47.6605475
2012    27      0.13545153      35.8297125
2012    28      0.14473997      38.5029675
2012    29      0.19006316      48.21367
2012    30      0.22603399      55.443465
2012    31      0.17912391      46.65798625
2013    1       0.0572703       18.72626625
2013    2       0.06557051      20.33213375
2013    3       0.05200064      17.2893475
2013    4       0.08146332      24.31940875
2013    5       0.04900245      16.66014625
2013    6       0.21840327      53.15856625
2013    7       0.37832245      85.044125
2013    8       0.33102768      76.3143575
2013    9       0.30868128      71.45959875
2013    10      0.2567743       61.99844
2013    11      0.26345526      63.84450125
2013    12      0.29237079      67.90899375
2013    13      0.25004488      60.16228875
2013    14      0.33418676      77.1761925
2013    15      0.2930455       68.1082975
2013    16      0.16280804      41.85849375
2013    17      0.05342468      17.45022625
2013    18      0.30104905      70.38228375
2013    19      0.16072552      41.53645875
2013    20      0.09295186      27.03836125
2013    21      0.32719817      75.31920625
2013    22      0.17412441      44.382245
2013    23      0.09778781      28.039175
2013    24      0.19867845      50.03646375
2013    25      0.24635392      60.32536
2013    26      0.31815118      72.85803625
2013    27      0.20542728      50.75705875
2013    28      0.17618974      45.15329625
2013    29      0.30140968      70.8855375
2013    30      0.29520069      70.09948375
2013    31      0.26661759      64.4951875
2014    1       0.10688887      29.77669875
2014    2       0.30731426      71.12353875
2014    3       0.30002742      68.5232175
2014    4       0.23284817      56.19504625
2014    5       0.16335052      41.9565975
2014    6       0.24734711      59.28635625
2014    7       0.23216891      56.20497875
2014    8       0.15278618      40.206385
2014    9       0.19211935      48.06774
2014    10      0.36950324      81.2241975
2014    11      0.22674394      54.9150475
2014    12      0.113597        32.04764625
2014    13      0.07050682      22.058605
2014    14      0.07075688      22.14436625
2014    15      0.08118747      24.53983375
2014    16      0.21039716      52.85977625
2014    17      0.14490224      39.24497625
2014    18      0.14357871      38.756605
2014    19      0.16183332      42.95179875
2014    20      0.09416227      27.66038
2014    21      0.06872852      21.94668375
2014    22      0.08588428      25.93437625
2014    23      0.12885042      35.44663375
2014    24      0.22055687      54.75132875
2014    25      0.15596165      40.96627
2014    26      0.24752642      59.02765625
2014    27      0.22659252      54.98026875
2014    28      0.19514676      49.0930375
2014    29      0.20723736      51.76176125
2014    30      0.1140651       32.44374
2014    31      0.09530305      27.83131625
2015    1       0.21703191      53.63565125
2015    2       0.18766779      47.67975875
2015    3       0.15314583      39.28232125
2015    4       0.12450848      33.93364875
2015    5       0.33888238      77.34791125
2015    6       0.34588644      78.55358625
2015    7       0.27933536      65.44234625
2015    8       0.29666595      69.32950625
2015    9       0.21637951      53.53737
2015    10      0.1694215       43.867415
2015    11      0.15947431      41.44069375
2015    12      0.21499931      52.9220575
2015    13      0.14835344      39.15106875
2015    14      0.21995901      53.61331625
2015    15      0.10953262      30.94644125
2015    16      0.08825354      25.987975
2015    17      0.0651016       20.65207125
2015    18      0.13837761      36.75318375
2015    19      0.20451474      49.944985
2015    20      0.11970612      32.50616625
2015    21      0.08644538      25.2851225
2015    22      0.17676835      43.91264125
2015    23      0.2123971       53.26192875
2015    24      0.08579943      25.84277875
2015    25      0.26205576      60.8868675
2015    26      0.17040967      42.53916875
2015    27      0.27610033      64.75209375
2015    28      0.36516516      81.30120125
2015    29      0.22650801      56.01492875
2015    30      0.18549706      45.6342725
2015    31      0.21558022      53.08850375
2016    1       0.16475732      42.368605
2016    2       0.19006853      47.69843625
2016    3       0.27660478      65.21724875
2016    4       0.22476465      54.636445
2016    5       0.10870372      30.42512
2016    6       0.22102934      54.63044875
2016    7       0.19717651      50.49464875
2016    8       0.16820948      43.38004
2016    9       0.24162655      58.23911625
2016    10      0.32766894      75.01897
2016    11      0.26498517      62.66736
2016    12      0.2194517       53.4870875
2016    13      0.28111036      66.37027
2016    14      0.18882534      47.74278625
2016    15      0.13567373      35.9129275
2016    16      0.13643871      36.70279375
2016    17      0.05778699      18.73564125
2016    18      0.05970476      19.155135
2016    19      0.0940777       27.2161525
2016    20      0.10685617      30.30323375
2016    21      0.22685891      54.612415
2016    22      0.25720351      61.872455
2016    23      0.39960476      87.68725125
2016    24      0.37932535      84.59374125
2016    25      0.17623238      44.70274625
2016    26      0.13902434      36.30151875
2016    27      0.24464724      58.23063375
2016    28      0.10143159      28.8937175
2016    29      0.22198321      55.21729875
2016    30      0.13723889      37.3868275
2016    31      0.10215915      29.75601625
2017    1       0.2401613       57.56537625
2017    2       0.1946334       49.06377
2017    3       0.19081179      48.958805
2017    4       0.10176753      29.65819375
2017    5       0.17712474      45.99786125
2017    6       0.2228191       54.73046625
2017    7       0.24067129      57.7894425
2017    8       0.337389        77.078835
2017    9       0.28802036      68.246335
2017    10      0.2839744       66.43325
2017    11      0.19452209      49.254985
2017    12      0.22991879      55.79944625
2017    13      0.26358576      62.4211975
2017    14      0.20888127      52.09493
2017    15      0.10227053      29.19486875
2017    16      0.18630512      46.82517625
2017    17      0.10582431      29.698075
2017    18      0.17248368      44.74529875
2017    19      0.29564341      69.466345
2017    20      0.2627418       63.963415
2017    21      0.26701708      64.75308625
2017    22      0.21013655      53.51796375
2017    23      0.14938979      40.5172425
2017    24      0.14218831      38.93105125
2017    25      0.25384044      60.44375125
2017    26      0.33853661      76.7799075
2017    27      0.12405922      33.90696375
2017    28      0.08877121      26.35181375
2017    29      0.07670831      23.53186375
2017    30      0.20657447      50.5226875
2017    31      0.12097108      33.19723
2018    1       0.20178758      49.7769225
2018    2       0.32815643      75.65487875
2018    3       0.19852821      49.40795375
2018    4       0.21652061      53.71117125
2018    5       0.24369989      58.05249375
2018    6       0.21631934      53.72923125
2018    7       0.17562464      44.56483875
2018    8       0.30835941      71.01579125
2018    9       0.10065963      28.9790875
2018    10      0.17381026      45.366965
2018    11      0.19709422      51.0083075
2018    12      0.30001231      71.87162625
2018    13      0.34680634      78.67601625
2018    14      0.32396054      73.94589625
2018    15      0.23422118      56.66354875
2018    16      0.30715441      71.4061525
2018    17      0.28293105      68.15695875
2018    18      0.32357722      74.5595875
2018    19      0.37372454      83.68061625
2018    20      0.22924236      55.65819
2018    21      0.28418324      66.9715425
2018    22      0.31979855      74.1329425
2018    23      0.28587544      67.03837125
2018    24      0.24414211      58.8768525
2018    25      0.22834345      55.7746125
2018    26      0.36210331      80.4097275
2018    27      0.27032269      64.74347375
2018    28      0.19553996      48.7602175
2018    29      0.1407221       37.9700275
2018    30      0.18630456      48.48624875
2018    31      0.29888901      71.14387125
