####################################################################################################
# Month: 04Apr                                                                                     #
# Station: BLDR                                                                                    #
# Frequency: 230 GHz                                                                               #
# Columns are: year    day     segment         tau     Tb (K)                                      #
####################################################################################################
2009    1       0       0.2395997       58.54081
2009    1       1       0.187733        48.21196
2009    1       2       0.2228113       55.36076
2009    1       3       0.2771893       66.05702
2009    1       4       0.3607692       81.51204
2009    1       5       0.2912779       68.60663
2009    1       6       0.2711658       64.4837
2009    1       7       0.3192766       73.16581
2009    2       0       0.3427663       77.57894
2009    2       1       0.2269832       55.81636
2009    2       2       0.159895        42.0717
2009    2       3       0.1357779       36.77221
2009    2       4       0.1475749       39.3973
2009    2       5       0.1793686       46.34577
2009    2       6       0.2446187       60.19873
2009    2       7       0.2701813       65.90408
2009    3       0       0.2857636       68.73224
2009    3       1       0.2341156       58.35898
2009    3       2       0.2176728       55.52637
2009    3       3       0.2643876       65.21724
2009    3       4       0.3716126       85.21376
2009    3       5       0.2606252       64.1623
2009    3       6       0.3723655       85.02912
2009    3       7       0.5064985       107.0909
2009    4       0       0.3899295       88.34696
2009    4       1       0.5727375       117.1601
2009    4       2       0.5293125       110.4223
2009    4       3       0.386281        87.4434
2009    4       4       0.3921713       87.76333
2009    4       5       0.410289        89.79629
2009    4       6       0.3942857       86.60417
2009    4       7       0.3248057       74.38557
2009    5       0       0.2955234       68.68619
2009    5       1       0.2656051       62.87976
2009    5       2       0.2503833       59.87853
2009    5       3       0.2113596       52.30025
2009    5       4       0.179634        45.93053
2009    5       5       0.1570053       41.0936
2009    5       6       0.2217802       54.4695
2009    5       7       0.2780921       65.37665
2009    6       0       0.1900991       48.17365
2009    6       1       0.157588        41.6401
2009    6       2       0.08279821      24.96284
2009    6       3       0.07886716      24.08396
2009    6       4       0.06678607      21.27426
2009    6       5       0.05570438      18.56816
2009    6       6       0.07405585      23.16979
2009    6       7       0.09406424      28.09343
2009    7       0       0.1047977       30.72396
2009    7       1       0.08388238      25.66515
2009    7       2       0.06819098      21.84592
2009    7       3       0.05890918      19.62886
2009    7       4       0.04320613      15.51411
2009    7       5       0.04400201      15.69857
2009    7       6       0.06085252      20.06768
2009    7       7       0.1006238       29.70911
2009    8       0       0.1023886       30.08184
2009    8       1       0.08957584      26.98798
2009    8       2       0.09242998      27.60794
2009    8       3       0.1096877       31.84937
2009    8       4       0.1698543       45.72471
2009    8       5       0.2225124       57.24605
2009    8       6       0.2103557       54.52055
2009    8       7       0.2447154       61.70862
2009    9       0       0.2517063       62.76128
2009    9       1       0.1866865       49.23937
2009    9       2       0.1476454       40.48618
2009    9       3       0.1311114       36.47971
2009    9       4       0.159799        42.63156
2009    9       5       0.236656        58.47451
2009    9       6       0.2639439       63.86568
2009    9       7       0.2778277       66.73671
2009    10      0       0.3463013       79.42338
2009    10      1       0.3492395       80.19482
2009    10      2       0.2736105       66.7089
2009    10      3       0.242821        60.68339
2009    10      4       0.2129274       54.31044
2009    10      5       0.2461645       60.93183
2009    10      6       0.3673208       83.46246
2009    10      7       0.4609036       99.39317
2009    11      0       0.4189732       93.03839
2009    11      1       0.3339164       78.46343
2009    11      2       0.2715582       66.80622
2009    11      3       0.2840782       68.92756
2009    11      4       0.4240985       94.13271
2009    11      5       0.4705987       102.4876
2009    11      6       0.6668552       130.9077
2009    11      7       0.4247027       94.94374
2009    12      0       0.5210311       109.6753
2009    12      1       0.4137727       92.84274
2009    12      2       0.314332        75.15222
2009    12      3       0.3750475       86.20327
2009    12      4       0.466877        101.605
2009    12      5       0.5811179       119.0629
2009    12      6       0.665383        130.0017
2009    12      7       0.769794        143.4105
2009    13      0       0.640297        126.9356
2009    13      1       0.4064221       90.95795
2009    13      2       0.259089        63.93527
2009    13      3       0.1333795       37.52728
2009    13      4       0.1569513       42.84821
2009    13      5       0.2058931       53.36819
2009    13      6       0.2841158       69.36548
2009    13      7       0.3052691       73.19787
2009    14      0       0.3568819       82.68054
2009    14      1       0.3442262       80.7279
2009    14      2       0.3091165       74.33874
2009    14      3       0.2940713       71.07096
2009    14      4       0.3053181       73.0677
2009    14      5       0.3169512       75.23245
2009    14      6       0.4101256       91.72778
2009    14      7       0.4747839       102.3849
2009    15      0       0.4280006       95.39325
2009    15      1       0.3381451       79.96479
2009    15      2       0.3138679       74.89536
2009    15      3       0.3904707       88.82065
2009    15      4       0.2569058       64.6354
2009    15      5       0.3082316       74.288
2009    15      6       0.3586193       83.10082
2009    15      7       0.365982        84.25082
2009    16      0       0.2570099       63.80474
2009    16      1       0.2108049       54.81346
2009    16      2       0.3218952       76.84199
2009    16      3       0.3616304       84.0896
2009    16      4       0.3242005       76.91058
2009    16      5       0.5487672       114.3366
2009    16      6       0.4316898       95.96067
2009    16      7       0.4721396       102.468
2009    17      0       0.5561721       115.3565
2009    17      1       0.5845475       119.7399
2009    17      2       0.368031        85.02679
2009    17      3       0.4346239       96.06034
2009    17      4       0.4376639       96.44216
2009    17      5       0.535102        112.0004
2009    17      6       0.5912714       119.2652
2009    17      7       0.6135464       122.3089
2009    18      0       0.5291691       110.5138
2009    18      1       0.3986932       89.34174
2009    18      2       0.3473582       80.13594
2009    18      3       0.4311209       94.51752
2009    18      4       0.5583345       114.216
2009    18      5       0.5732184       116.7054
2009    18      6       0.5948556       120.0636
2009    18      7       0.5440531       112.6792
2009    19      0       0.5071326       107.1324
2009    19      1       0.5777583       117.6722
2009    19      2       0.3208737       75.8771
2009    19      3       0.1782781       47.31391
2009    19      4       0.1874279       48.94932
2009    19      5       0.203629        52.33743
2009    19      6       0.2591856       63.96048
2009    19      7       0.3752005       86.04111
2009    20      0       0.3481111       81.57712
2009    20      1       0.2699672       66.63465
2009    20      2       0.3063222       73.56963
2009    20      3       0.3138439       74.95846
2009    20      4       0.3012282       72.64015
2009    20      5       0.3139909       75.17984
2009    20      6       0.3501286       82.11439
2009    20      7       0.3826749       88.30812
2009    21      0       0.4127027       93.60448
2009    21      1       0.3509641       82.72668
2009    21      2       0.3611367       84.83333
2009    21      3       0.3509412       82.97883
2009    21      4       0.3104991       75.31575
2009    21      5       0.296149        72.60333
2009    21      6       0.3270411       78.69146
2009    21      7       0.3983319       91.80061
2009    22      0       0.4714027       103.9568
2009    22      1       0.442369        99.07693
2009    22      2       0.3671948       85.92807
2009    22      3       0.3251686       78.14378
2009    22      4       0.2745508       68.21465
2009    22      5       0.2551004       64.06224
2009    22      6       0.2815018       69.35503
2009    22      7       0.380971        87.5555
2009    23      0       0.383229        88.35084
2009    23      1       0.2835683       70.07323
2009    23      2       0.2252336       58.2531
2009    23      3       0.243601        62.02424
2009    23      4       0.2497595       63.11869
2009    23      5       0.2338994       59.75111
2009    23      6       0.2989162       72.95291
2009    23      7       0.3840988       88.83023
2009    24      0       0.3677117       86.19964
2009    24      1       0.2924181       72.10745
2009    24      2       0.2582183       65.23906
2009    24      3       0.2511156       63.51917
2009    24      4       0.3725942       87.49761
2009    24      5       0.3530304       83.6255
2009    24      6       0.3837399       89.16003
2009    24      7       0.3941347       90.83384
2009    25      0       0.4231242       96.09177
2009    25      1       0.4173272       95.3395
2009    25      2       0.3523944       83.61792
2009    25      3       0.3794233       88.28046
2009    25      4       0.4452836       99.30049
2009    25      5       0.5058083       109.101
2009    25      6       0.5620285       116.7346
2009    25      7       0.6018607       122.5631
2009    26      0       0.6947321       135.2733
2009    26      1       0.545962        115.2639
2009    26      2       0.4478492       99.49473
2009    26      3       0.2171445       55.88268
2009    26      4       0.2558716       63.55015
2009    26      5       0.2273918       57.70008
2009    26      6       0.3472164       80.30572
2009    26      7       0.4325946       94.43719
2009    27      0       0.5437467       112.1865
2009    27      1       0.5084164       106.4605
2009    27      2       0.4956282       103.8722
2009    27      3       0.4003186       89.35068
2009    27      4       0.4778863       101.3913
2009    27      5       0.3148033       73.49622
2009    27      6       0.1996069       51.37738
2009    27      7       0.1924119       50.17883
2009    28      0       0.2117294       54.44809
2009    28      1       0.1920522       50.41386
2009    28      2       0.213225        55.17117
2009    28      3       0.2499641       62.39844
2009    28      4       0.2346351       59.14964
2009    28      5       0.2502482       62.16737
2009    28      6       0.3141868       75.14436
2009    28      7       0.4154135       92.89997
2009    29      0       0.4120513       93.05655
2009    29      1       0.3263927       78.25698
2009    29      2       0.2393329       61.34674
2009    29      3       0.1599547       44.37866
2009    29      4       0.1304678       37.42479
2009    29      5       0.1177079       34.39058
2009    29      6       0.1879647       50.40156
2009    29      7       0.2469551       62.80029
2009    30      0       0.2621542       65.90713
2009    30      1       0.2342168       60.33051
2009    30      2       0.2229053       57.93777
2009    30      3       0.3079391       75.35854
2009    30      4       0.399515        92.04518
2009    30      5       0.2549507       64.13452
2009    30      6       0.2707661       66.95431
2009    30      7       0.3339631       79.35695
2010    1       0       0.4483283       99.4866
2010    1       1       0.3621914       84.75005
2010    1       2       0.3606277       84.58563
2010    1       3       0.3686246       85.77325
2010    1       4       0.3588623       83.73717
2010    1       5       0.3488497       81.3633
2010    1       6       0.4070042       90.94923
2010    1       7       0.3315272       77.29039
2010    2       0       0.2943593       69.77143
2010    2       1       0.2127882       53.37395
2010    2       2       0.1481318       39.44019
2010    2       3       0.1038463       29.70808
2010    2       4       0.07643279      23.32493
2010    2       5       0.1335682       36.08609
2010    2       6       0.1845697       46.86922
2010    2       7       0.1899466       48.15428
2010    3       0       0.1842988       47.09441
2010    3       1       0.1302687       35.78932
2010    3       2       0.1630584       42.7051
2010    3       3       0.2373979       58.70636
2010    3       4       0.2290509       57.11306
2010    3       5       0.2048015       52.18282
2010    3       6       0.2455078       60.27416
2010    3       7       0.2404296       59.28728
2010    4       0       0.2290099       57.10097
2010    4       1       0.1929799       49.59458
2010    4       2       0.250579        61.36449
2010    4       3       0.4038629       89.54924
2010    4       4       0.3805627       85.80248
2010    4       5       0.2658635       64.80048
2010    4       6       0.27382         66.26533
2010    4       7       0.3275168       76.69278
2010    5       0       0.2730203       66.19103
2010    5       1       0.2786318       67.42046
2010    5       2       0.2861637       69.06463
2010    5       3       0.2625865       64.53931
2010    5       4       0.2420633       60.52731
2010    5       5       0.2537543       62.86723
2010    5       6       0.2927258       71.12879
2010    5       7       0.3402723       80.1876
2010    6       0       0.3880991       88.58895
2010    6       1       0.4506758       98.99729
2010    6       2       0.5396489       112.5188
2010    6       3       0.5973442       120.7818
2010    6       4       0.3461621       79.6069
2010    6       5       0.1910408       48.86827
2010    6       6       0.1654825       43.12631
2010    6       7       0.1948578       49.16733
2010    7       0       0.2214019       54.65802
2010    7       1       0.2492981       60.27428
2010    7       2       0.2912967       68.33128
2010    7       3       0.4744189       99.92627
2010    7       4       0.3208797       73.92999
2010    7       5       0.254223        61.71431
2010    7       6       0.342916        78.10904
2010    7       7       0.2845184       67.39175
2010    8       0       0.3129814       72.71264
2010    8       1       0.2912313       69.13069
2010    8       2       0.1245593       34.80231
2010    8       3       0.1035793       30.07833
2010    8       4       0.1046762       30.4586
2010    8       5       0.1055475       30.72787
2010    8       6       0.1318342       36.99304
2010    8       7       0.1651757       44.59192
2010    9       0       0.1688805       45.46956
2010    9       1       0.1312829       36.94321
2010    9       2       0.1081742       31.40239
2010    9       3       0.1110371       32.11496
2010    9       4       0.1432122       39.42654
2010    9       5       0.1656581       44.2314
2010    9       6       0.1874988       49.12663
2010    9       7       0.2389721       60.11964
2010    10      0       0.2533815       63.01111
2010    10      1       0.248915        62.05085
2010    10      2       0.2295779       58.10861
2010    10      3       0.2182497       55.87924
2010    10      4       0.2206965       56.38441
2010    10      5       0.2153976       55.21276
2010    10      6       0.2627083       64.44355
2010    10      7       0.3668424       83.79327
2010    11      0       0.3470894       80.69086
2010    11      1       0.3435968       80.1437
2010    11      2       0.2737446       67.26196
2010    11      3       0.1988898       52.0606
2010    11      4       0.1952984       51.2674
2010    11      5       0.220412        56.04481
2010    11      6       0.2187221       55.98241
2010    11      7       0.2382514       60.19246
2010    12      0       0.2497173       62.46534
2010    12      1       0.2223623       56.97796
2010    12      2       0.2108102       54.68647
2010    12      3       0.1358084       37.92456
2010    12      4       0.1867338       49.67228
2010    12      5       0.2138542       55.6792
2010    12      6       0.2360487       60.65242
2010    12      7       0.3678615       85.55795
2010    13      0       0.4836672       104.586
2010    13      1       0.3983682       91.83111
2010    13      2       0.4696947       104.2837
2010    13      3       0.2531164       64.35313
2010    13      4       0.1936495       51.36395
2010    13      5       0.208167        54.09768
2010    13      6       0.281792        68.4861
2010    13      7       0.2645952       64.65384
2010    14      0       0.1674677       44.74919
2010    14      1       0.0955044       28.48021
2010    14      2       0.09039957      27.20152
2010    14      3       0.1173651       33.5234
2010    14      4       0.1254753       35.45682
2010    14      5       0.1219744       34.66551
2010    14      6       0.1490455       40.97221
2010    14      7       0.1944541       51.23631
2010    15      0       0.2449784       61.80749
2010    15      1       0.2634272       65.66813
2010    15      2       0.22953         59.10219
2010    15      3       0.2414929       61.60573
2010    15      4       0.2728605       67.94375
2010    15      5       0.2365594       60.31997
2010    15      6       0.2516642       63.38904
2010    15      7       0.3010413       73.01576
2010    16      0       0.3550669       82.98785
2010    16      1       0.3512157       82.30539
2010    16      2       0.3311657       78.73416
2010    16      3       0.327722        78.14959
2010    16      4       0.3399751       80.55817
2010    16      5       0.3493971       82.19533
2010    16      6       0.4625066       101.6151
2010    16      7       0.5740553       118.7247
2010    17      0       0.6307731       126.6114
2010    17      1       0.4967817       107.5693
2010    17      2       0.4316145       96.79424
2010    17      3       0.4080014       92.56092
2010    17      4       0.4659771       101.8778
2010    17      5       0.5743957       118.5347
2010    17      6       0.7921008       146.6367
2010    17      7       0.6546053       129.2268
2010    18      0       0.4576541       100.1931
2010    18      1       0.3063466       74.25513
2010    18      2       0.3415916       80.43689
2010    18      3       0.337684        79.75031
2010    18      4       0.2689527       66.76544
2010    18      5       0.2192548       56.54469
2010    18      6       0.2245131       57.62074
2010    18      7       0.2851788       69.74004
2010    19      0       0.3763314       86.23054
2010    19      1       0.373924        86.04297
2010    19      2       0.332247        78.62625
2010    19      3       0.3226166       76.68459
2010    19      4       0.4065956       91.1804
2010    19      5       0.2924631       71.10786
2010    19      6       0.3516173       81.63222
2010    19      7       0.3851711       87.89533
2010    20      0       0.4387548       97.20043
2010    20      1       0.5261544       110.9387
2010    20      2       0.3592897       84.06097
2010    20      3       0.3269255       77.95594
2010    20      4       0.3464209       81.3293
2010    20      5       0.391643        89.3998
2010    20      6       0.4215259       94.84816
2010    20      7       0.6117633       123.8997
2010    21      0       0.7181009       137.7373
2010    21      1       0.6405855       128.3367
2010    21      2       0.561902        117.7763
2010    21      3       0.4310508       97.29735
2010    21      4       0.3505244       83.15843
2010    21      5       0.3737649       87.18158
2010    21      6       0.5083181       109.6458
2010    21      7       0.5918884       122.5778
2010    22      0       0.7889194       148.3167
2010    22      1       0.7014567       138.5259
2010    22      2       0.7188558       140.2112
2010    22      3       0.625543        128.0207
2010    22      4       0.4720712       105.0272
2010    22      5       0.875311        159.2344
2010    22      6       0.5031528       109.5462
2010    22      7       0.5656095       118.1062
2010    23      0       0.5526533       116.0095
2010    23      1       0.5679028       117.1675
2010    23      2       0.3318141       78.3973
2010    23      3       0.4483191       97.25114
2010    23      4       0.4600731       99.73776
2010    23      5       0.4959606       105.6614
2010    23      6       0.5723141       116.9558
2010    23      7       0.6050944       121.9293
2010    24      0       0.6157385       123.9063
2010    24      1       0.4809134       103.3242
2010    24      2       0.4725473       101.9258
2010    24      3       0.4721059       101.5439
2010    24      4       0.495383        104.76
2010    24      5       0.4725002       101.0449
2010    24      6       0.3051288       72.21065
2010    24      7       0.1370419       38.00389
2010    25      0       0.1506756       41.43923
2010    25      1       0.1781301       47.54693
2010    25      2       0.2027482       52.62259
2010    25      3       0.2220806       56.65161
2010    25      4       0.2624373       64.71467
2010    25      5       0.2982196       71.47412
2010    25      6       0.4495898       98.18796
2010    25      7       0.4774842       102.7478
2010    26      0       0.5523943       113.8736
2010    26      1       0.6732054       130.5827
2010    26      2       0.5219393       108.6207
2010    26      3       0.4119524       90.86233
2010    26      4       0.3130772       73.2029
2010    26      5       0.3050838       71.41122
2010    26      6       0.3017815       70.99665
2010    26      7       0.3478785       79.71863
2010    27      0       0.3729616       84.51963
2010    27      1       0.3492765       80.5579
2010    27      2       0.3031374       72.28456
2010    27      3       0.2753179       67.16855
2010    27      4       0.2163579       55.62021
2010    27      5       0.1532364       41.96577
2010    27      6       0.2030929       52.92783
2010    27      7       0.25795         64.58534
2010    28      0       0.2466886       62.32629
2010    28      1       0.2580285       64.37933
2010    28      2       0.2593059       65.44512
2010    28      3       0.2646535       66.54583
2010    28      4       0.2681389       67.66343
2010    28      5       0.2414742       62.15768
2010    28      6       0.3103405       75.68651
2010    28      7       0.3702084       86.35236
2010    29      0       0.4211135       95.20553
2010    29      1       0.4920071       107.2259
2010    29      2       0.4844116       105.3647
2010    29      3       0.5197588       110.1256
2010    29      4       0.4277418       94.81815
2010    29      5       0.3182993       74.8175
2010    29      6       0.3210728       74.65487
2010    29      7       0.3353177       76.99068
2010    30      0       0.2504337       61.00623
2010    30      1       0.162026        42.73848
2010    30      2       0.152661        40.95649
2010    30      3       0.1948889       49.97682
2010    30      4       0.2279582       56.25885
2010    30      5       0.2728797       64.67549
2010    30      6       0.2996231       69.94591
2010    30      7       0.3320643       76.28682
2011    1       0       0.3134628       75.26906
2011    1       1       0.2883192       70.33129
2011    1       2       0.2848639       69.57953
2011    1       3       0.3029944       73.01847
2011    1       4       0.3017573       72.81098
2011    1       5       0.267764        66.31767
2011    1       6       0.261655        65.14809
2011    1       7       0.215011        55.82809
2011    2       0       0.2100896       54.97144
2011    2       1       0.1942733       51.44238
2011    2       2       0.1856716       49.27831
2011    2       3       0.2232927       57.2601
2011    2       4       0.2867329       70.03766
2011    2       5       0.244364        61.93958
2011    2       6       0.2147657       56.29121
2011    2       7       0.2466759       63.2291
2011    3       0       0.2870967       71.61278
2011    3       1       0.2610282       66.20105
2011    3       2       0.2994125       74.02622
2011    3       3       0.3389621       81.21634
2011    3       4       0.4316942       96.9287
2011    3       5       0.5012578       107.5566
2011    3       6       0.527567        111.0534
2011    3       7       0.5117281       106.7725
2011    4       0       0.3531319       79.68968
2011    4       1       0.2310388       56.56007
2011    4       2       0.165762        43.0609
2011    4       3       0.145887        38.89552
2011    4       4       0.117328        32.52136
2011    4       5       0.1073123       30.33137
2011    4       6       0.1391001       37.49814
2011    4       7       0.2231677       55.59497
2011    5       0       0.2657018       64.80881
2011    5       1       0.2965574       71.12799
2011    5       2       0.3121322       74.29413
2011    5       3       0.2954879       71.48692
2011    5       4       0.296445        72.02265
2011    5       5       0.33384         79.43597
2011    5       6       0.3120186       74.99672
2011    5       7       0.2931175       71.7502
2011    6       0       0.3223964       77.82665
2011    6       1       0.3165663       76.40521
2011    6       2       0.2835803       69.75184
2011    6       3       0.3015563       73.19644
2011    6       4       0.4624482       101.5711
2011    6       5       0.4983829       106.9334
2011    6       6       0.5362971       112.318
2011    6       7       0.5845074       118.9006
2011    7       0       0.6087645       122.1815
2011    7       1       0.3876911       88.0111
2011    7       2       0.2008694       51.72616
2011    7       3       0.1703906       44.76233
2011    7       4       0.1380394       37.42751
2011    7       5       0.1415278       38.2148
2011    7       6       0.2204246       55.32454
2011    7       7       0.2522689       62.41008
2011    8       0       0.2721022       66.54939
2011    8       1       0.2448066       60.92961
2011    8       2       0.3003556       72.08194
2011    8       3       0.2836457       68.91363
2011    8       4       0.1919771       50.2037
2011    8       5       0.2268589       57.62308
2011    8       6       0.2174947       55.77434
2011    8       7       0.2097186       54.25258
2011    9       0       0.2158161       55.84591
2011    9       1       0.2322875       59.25081
2011    9       2       0.2646621       65.62681
2011    9       3       0.2510371       63.23874
2011    9       4       0.2419354       61.38587
2011    9       5       0.218075        56.31846
2011    9       6       0.3366454       79.47958
2011    9       7       0.365912        84.27238
2011    10      0       0.3272966       77.34503
2011    10      1       0.334121        78.51904
2011    10      2       0.4161293       92.72676
2011    10      3       0.3377814       77.92411
2011    10      4       0.1760614       45.73303
2011    10      5       0.1963295       50.19
2011    10      6       0.2608139       63.16415
2011    10      7       0.3033747       71.15889
2011    11      0       0.3125045       72.73484
2011    11      1       0.3043575       71.56947
2011    11      2       0.1834522       47.53733
2011    11      3       0.1476651       40.08417
2011    11      4       0.1190264       33.84155
2011    11      5       0.0908262       27.28793
2011    11      6       0.1161629       33.3825
2011    11      7       0.1450665       40.07613
2011    12      0       0.1815416       48.15777
2011    12      1       0.2180332       55.69411
2011    12      2       0.1994917       51.76801
2011    12      3       0.1693145       45.33021
2011    12      4       0.1611901       43.36537
2011    12      5       0.1927216       49.8406
2011    12      6       0.2257126       56.85616
2011    12      7       0.3149157       74.02257
2011    13      0       0.3189038       75.13109
2011    13      1       0.3049003       72.52259
2011    13      2       0.317283        74.71535
2011    13      3       0.3003381       71.75095
2011    13      4       0.2513121       62.59351
2011    13      5       0.2250463       57.60562
2011    13      6       0.2262681       57.79531
2011    13      7       0.3408651       80.03682
2011    14      0       0.4956141       105.6097
2011    14      1       0.5751699       117.5796
2011    14      2       0.4623214       101.1526
2011    14      3       0.586262        119.7629
2011    14      4       0.5321355       110.7165
2011    14      5       0.4310988       94.35458
2011    14      6       0.3961809       88.55154
2011    14      7       0.3893325       87.45807
2011    15      0       0.3808361       85.68445
2011    15      1       0.3348303       77.42378
2011    15      2       0.1914942       49.55757
2011    15      3       0.1442946       39.29598
2011    15      4       0.1379999       37.6944
2011    15      5       0.1219188       34.04234
2011    15      6       0.1393268       37.99533
2011    15      7       0.1478281       40.0168
2011    16      0       0.1523452       41.12204
2011    16      1       0.1490328       40.29463
2011    16      2       0.207446        52.80552
2011    16      3       0.285481        68.46101
2011    16      4       0.3313059       77.58102
2011    16      5       0.27176         66.56904
2011    16      6       0.3198201       75.82963
2011    16      7       0.5059849       107.2473
2011    17      0       0.4657191       101.4141
2011    17      1       0.3675418       85.10825
2011    17      2       0.330164        78.35361
2011    17      3       0.2822536       68.96651
2011    17      4       0.2861022       69.53368
2011    17      5       0.3288139       78.22755
2011    17      6       0.3893284       89.27572
2011    17      7       0.5241596       111.4475
2011    18      0       0.5608416       117.6142
2011    18      1       0.4859532       105.4534
2011    18      2       0.4572833       101.0008
2011    18      3       0.5383577       114.2363
2011    18      4       0.7012927       137.1674
2011    18      5       0.45129         100.553
2011    18      6       0.5325207       113.5723
2011    18      7       0.7026179       137.2407
2011    19      0       0.6527618       130.5811
2011    19      1       0.6428441       129.0349
2011    19      2       0.5378264       112.3533
2011    19      3       0.4586945       100.3289
2011    19      4       0.408652        91.41917
2011    19      5       0.4063745       90.77307
2011    19      6       0.4547869       98.48539
2011    19      7       0.3714406       84.40761
2011    20      0       0.3094184       73.21062
2011    20      1       0.2675262       64.95853
2011    20      2       0.1956976       50.66203
2011    20      3       0.2084857       53.21277
2011    20      4       0.2908704       69.51386
2011    20      5       0.3595403       82.14784
2011    20      6       0.4980551       105.4493
2011    20      7       0.547906        113.7875
2011    21      0       0.632272        126.2606
2011    21      1       0.54501         114.4067
2011    21      2       0.3905425       89.82054
2011    21      3       0.3540246       83.33637
2011    21      4       0.3764592       87.11526
2011    21      5       0.46544         101.5889
2011    21      6       0.2832608       69.57284
2011    21      7       0.406323        91.67038
2011    22      0       0.3758674       86.602
2011    22      1       0.3418933       79.99586
2011    22      2       0.4814052       103.8205
2011    22      3       0.3398992       79.18763
2011    22      4       0.19861         51.15744
2011    22      5       0.1980124       51.29121
2011    22      6       0.206408        52.87309
2011    22      7       0.1898994       49.5823
2011    23      0       0.1638904       43.95145
2011    23      1       0.1730313       45.61839
2011    23      2       0.2618372       63.70572
2011    23      3       0.3890916       86.63001
2011    23      4       0.3999272       88.58396
2011    23      5       0.476306        101.2872
2011    23      6       0.4898202       103.5021
2011    23      7       0.5193296       108.7568
2011    24      0       0.6038515       121.5713
2011    24      1       0.6085231       122.6335
2011    24      2       0.4473683       98.09056
2011    24      3       0.4560267       99.09415
2011    24      4       0.3441357       79.95784
2011    24      5       0.3028472       72.46439
2011    24      6       0.4497489       97.9808
2011    24      7       0.6074248       121.8075
2011    25      0       0.6588756       129.7591
2011    25      1       0.683279        132.7421
2011    25      2       0.5238486       110.2342
2011    25      3       0.3574551       82.68966
2011    25      4       0.3590575       82.27757
2011    25      5       0.3670144       83.25853
2011    25      6       0.3762247       85.01187
2011    25      7       0.4031647       89.58704
2011    26      0       0.4764731       101.683
2011    26      1       0.5260845       109.61
2011    26      2       0.3574315       82.31558
2011    26      3       0.2030106       52.23665
2011    26      4       0.2136555       54.36329
2011    26      5       0.2882731       68.78082
2011    26      6       0.3928289       87.57673
2011    26      7       0.3660929       82.55748
2011    27      0       0.3379333       77.3874
2011    27      1       0.341579        77.99709
2011    27      2       0.247705        60.30812
2011    27      3       0.2655824       63.89729
2011    27      4       0.2263047       56.25673
2011    27      5       0.2031757       51.33835
2011    27      6       0.2614812       63.35806
2011    27      7       0.3005002       70.47168
2011    28      0       0.2711193       65.14762
2011    28      1       0.2139348       54.01956
2011    28      2       0.115221        32.87093
2011    28      3       0.07535105      23.45842
2011    28      4       0.05562098      18.62654
2011    28      5       0.05536896      18.59766
2011    28      6       0.08363514      25.73373
2011    28      7       0.1276197       36.15141
2011    29      0       0.2055637       53.07847
2011    29      1       0.2505128       62.12268
2011    29      2       0.2867766       69.54479
2011    29      3       0.3040448       73.96593
2011    29      4       0.3284488       78.50303
2011    29      5       0.3401688       80.51964
2011    29      6       0.4337101       96.39631
2011    29      7       0.4186364       93.86275
2011    30      0       0.4353688       95.8702
2011    30      1       0.3732724       84.32213
2011    30      2       0.2304933       56.93391
2011    30      3       0.1226017       33.89347
2011    30      4       0.1237769       34.22432
2011    30      5       0.1209704       33.54646
2011    30      6       0.2093703       52.16196
2011    30      7       0.2557171       61.45692
2012    1       0       0.2902028       72.46656
2012    1       1       0.1973828       53.14327
2012    1       2       0.1417702       40.44272
2012    1       3       0.1477324       41.82378
2012    1       4       0.1059548       31.65078
2012    1       5       0.09710582      29.42868
2012    1       6       0.1656256       45.7906
2012    1       7       0.1996821       53.28545
2012    2       0       0.2329314       60.26855
2012    2       1       0.2669345       67.41349
2012    2       2       0.3048207       74.8224
2012    2       3       0.3181016       76.93925
2012    2       4       0.3986692       91.01782
2012    2       5       0.42081         94.4363
2012    2       6       0.4527732       99.67301
2012    2       7       0.4533216       99.38148
2012    3       0       0.3874733       88.24604
2012    3       1       0.4038902       90.40052
2012    3       2       0.3570641       82.73182
2012    3       3       0.3919114       88.62392
2012    3       4       0.557819        114.543
2012    3       5       0.4793108       102.9108
2012    3       6       0.4487438       98.22369
2012    3       7       0.4596565       100.0726
2012    4       0       0.3628384       83.43097
2012    4       1       0.3761813       85.8378
2012    4       2       0.4313725       95.58775
2012    4       3       0.3800411       86.82092
2012    4       4       0.3680169       84.75578
2012    4       5       0.3275088       77.66469
2012    4       6       0.2780157       68.50084
2012    4       7       0.2736936       67.8603
2012    5       0       0.3124646       75.36736
2012    5       1       0.317659        76.29164
2012    5       2       0.2336378       60.00437
2012    5       3       0.126636        36.53405
2012    5       4       0.1090148       32.27804
2012    5       5       0.1167972       34.07441
2012    5       6       0.1819316       48.68822
2012    5       7       0.29821         71.57186
2012    6       0       0.2757666       67.10157
2012    6       1       0.2659829       65.39749
2012    6       2       0.2997045       72.34222
2012    6       3       0.2841021       69.96774
2012    6       4       0.1583574       43.68916
2012    6       5       0.06082285      20.34877
2012    6       6       0.08523842      26.41122
2012    6       7       0.1009461       30.12255
2012    7       0       0.08688495      26.68416
2012    7       1       0.07490174      23.65789
2012    7       2       0.05633766      18.94645
2012    7       3       0.03915793      14.47518
2012    7       4       0.03455336      13.26126
2012    7       5       0.05818969      19.29577
2012    7       6       0.09898211      29.08898
2012    7       7       0.1162005       33.22192
2012    8       0       0.1246476       35.30581
2012    8       1       0.1132195       32.67947
2012    8       2       0.08414507      25.66842
2012    8       3       0.06303248      20.5626
2012    8       4       0.06489741      21.10707
2012    8       5       0.06626576      21.42277
2012    8       6       0.08612213      26.38441
2012    8       7       0.1172025       33.78724
2012    9       0       0.1465478       40.39614
2012    9       1       0.1494458       41.13374
2012    9       2       0.1437811       40.01544
2012    9       3       0.1615259       44.0467
2012    9       4       0.1832622       48.9063
2012    9       5       0.1600993       43.70567
2012    9       6       0.163834        44.58746
2012    9       7       0.2353896       59.63423
2012    10      0       0.3094913       74.23562
2012    10      1       0.2848719       69.9225
2012    10      2       0.2525953       63.81133
2012    10      3       0.2291977       59.22519
2012    10      4       0.1884845       50.5333
2012    10      5       0.1559201       43.28638
2012    10      6       0.2007995       52.90291
2012    10      7       0.3284184       77.83425
2012    11      0       0.3998489       90.76779
2012    11      1       0.3655694       85.31647
2012    11      2       0.3214123       77.34843
2012    11      3       0.3022223       73.65663
2012    11      4       0.3058991       74.4564
2012    11      5       0.3480494       82.41785
2012    11      6       0.4294748       97.06213
2012    11      7       0.645511        129.3523
2012    12      0       0.5086251       109.2882
2012    12      1       0.3768382       88.3457
2012    12      2       0.6418638       129.1729
2012    12      3       0.1517963       42.02425
2012    12      4       0.1581822       42.63069
2012    12      5       0.2055951       52.85601
2012    12      6       0.2727516       66.68335
2012    12      7       0.3557681       81.83758
2012    13      0       0.4370993       95.6087
2012    13      1       0.3921631       87.69543
2012    13      2       0.273842        65.89163
2012    13      3       0.2382269       59.13611
2012    13      4       0.2058625       52.4413
2012    13      5       0.1654728       43.88278
2012    13      6       0.1440337       39.22518
2012    13      7       0.2378987       58.37082
2012    14      0       0.3039359       71.41167
2012    14      1       0.378945        85.11328
2012    14      2       0.3508996       80.58634
2012    14      3       0.2488209       61.53981
2012    14      4       0.2076845       53.22589
2012    14      5       0.2115751       53.92798
2012    14      6       0.3112056       73.10099
2012    14      7       0.4370296       95.3934
2012    15      0       0.5540307       114.1042
2012    15      1       0.4683231       100.7606
2012    15      2       0.5042289       105.6077
2012    15      3       0.2953618       70.28552
2012    15      4       0.2408753       59.73458
2012    15      5       0.3376879       77.95288
2012    15      6       0.3727941       83.96933
2012    15      7       0.3667778       82.78429
2012    16      0       0.3555418       80.96605
2012    16      1       0.4192002       91.44991
2012    16      2       0.3111488       72.8642
2012    16      3       0.240414        59.25285
2012    16      4       0.2589906       62.68422
2012    16      5       0.2172124       54.5844
2012    16      6       0.2557859       62.59942
2012    16      7       0.2697313       65.62344
2012    17      0       0.2577803       63.73537
2012    17      1       0.1999581       51.92603
2012    17      2       0.1694054       45.2553
2012    17      3       0.1881502       49.13957
2012    17      4       0.2190217       55.62867
2012    17      5       0.2464227       61.15746
2012    17      6       0.2890746       69.67741
2012    17      7       0.3267837       76.92182
2012    18      0       0.297177        71.37827
2012    18      1       0.2422288       60.9282
2012    18      2       0.2747039       67.37229
2012    18      3       0.267902        66.38128
2012    18      4       0.2684437       66.31668
2012    18      5       0.2897579       70.19331
2012    18      6       0.3831995       87.70667
2012    18      7       0.4743693       102.7353
2012    19      0       0.5117805       109.0029
2012    19      1       0.6324826       126.5184
2012    19      2       0.594537        121.8553
2012    19      3       0.4465115       98.93604
2012    19      4       0.3207645       76.38827
2012    19      5       0.290145        69.92951
2012    19      6       0.4008863       89.52459
2012    19      7       0.5215627       108.5025
2012    20      0       0.5460438       112.5569
2012    20      1       0.483837        102.9325
2012    20      2       0.3896003       88.25085
2012    20      3       0.3564902       82.37872
2012    20      4       0.2946222       70.81638
2012    20      5       0.262264        64.69824
2012    20      6       0.3292738       78.03675
2012    20      7       0.3896339       89.5058
2012    21      0       0.419853        95.25947
2012    21      1       0.3711602       87.05802
2012    21      2       0.2696791       67.71481
2012    21      3       0.203897        53.78585
2012    21      4       0.2377132       60.84645
2012    21      5       0.2785109       69.32495
2012    21      6       0.3080728       75.01279
2012    21      7       0.3354924       80.39961
2012    22      0       0.3697177       86.63685
2012    22      1       0.3635683       85.60192
2012    22      2       0.3483937       82.83133
2012    22      3       0.3556526       84.09532
2012    22      4       0.3113621       75.77648
2012    22      5       0.2550655       64.47133
2012    22      6       0.2623562       65.86474
2012    22      7       0.3587558       84.27382
2012    23      0       0.4344558       97.63237
2012    23      1       0.3895103       90.16599
2012    23      2       0.3110245       76.01566
2012    23      3       0.2514005       64.07962
2012    23      4       0.2584734       65.21111
2012    23      5       0.3030577       74.02792
2012    23      6       0.3589226       84.7126
2012    23      7       0.4285714       97.29077
2012    24      0       0.5189337       111.9862
2012    24      1       0.4643085       103.6663
2012    24      2       0.4018753       93.22369
2012    24      3       0.3543623       84.41956
2012    24      4       0.2854858       71.14947
2012    24      5       0.2106108       55.61243
2012    24      6       0.2943325       72.90574
2012    24      7       0.4171354       95.42132
2012    25      0       0.4107144       94.4197
2012    25      1       0.2714201       68.87193
2012    25      2       0.2288728       59.81474
2012    25      3       0.2213581       57.63724
2012    25      4       0.2490605       63.29572
2012    25      5       0.3662848       85.73399
2012    25      6       0.4650439       102.8924
2012    25      7       0.7060378       137.6572
2012    26      0       0.6747978       133.5312
2012    26      1       0.6525862       131.0044
2012    26      2       0.7143829       139.3314
2012    26      3       0.5994255       124.0058
2012    26      4       0.4639819       103.2331
2012    26      5       0.5620729       118.296
2012    26      6       0.6703564       133.792
2012    26      7       0.723625        141.1254
2012    27      0       0.6892187       137.5789
2012    27      1       0.5773156       121.6172
2012    27      2       0.7502504       144.2905
2012    27      3       0.8719046       158.2078
2012    27      4       0.5885765       121.2303
2012    27      5       0.385472        88.43281
2012    27      6       0.2392763       61.25526
2012    27      7       0.2262202       58.32712
2012    28      0       0.2079229       54.04017
2012    28      1       0.1718144       45.9448
2012    28      2       0.1588713       42.76789
2012    28      3       0.1611532       43.01209
2012    28      4       0.1001888       29.19614
2012    28      5       0.08512658      25.69541
2012    28      6       0.1203106       33.91905
2012    28      7       0.1714133       45.11031
2012    29      0       0.2564329       62.61591
2012    29      1       0.330195        76.99777
2012    29      2       0.2284758       57.55122
2012    29      3       0.1692887       45.00603
2012    29      4       0.1812326       47.6763
2012    29      5       0.1974981       51.20211
2012    29      6       0.2545464       62.65851
2012    29      7       0.3463874       79.97723
2012    30      0       0.3063949       73.20472
2012    30      1       0.2836587       68.9697
2012    30      2       0.2411737       60.64189
2012    30      3       0.1842413       48.84027
2012    30      4       0.1617607       44.10176
2012    30      5       0.130986        37.07869
2012    30      6       0.1515214       41.81108
2012    30      7       0.19612         51.56275
2013    1       0       0.177369        47.23223
2013    1       1       0.185652        49.05008
2013    1       2       0.2058936       53.31141
2013    1       3       0.1918418       50.25321
2013    1       4       0.2182009       55.64573
2013    1       5       0.243025        60.67894
2013    1       6       0.3153164       74.39482
2013    1       7       0.4926289       104.3704
2013    2       0       0.5783154       117.7374
2013    2       1       0.475562        102.7114
2013    2       2       0.3629724       83.4696
2013    2       3       0.2913454       70.29577
2013    2       4       0.2891205       69.71766
2013    2       5       0.3197098       75.23884
2013    2       6       0.4406777       96.2835
2013    2       7       0.5345452       110.8528
2013    3       0       0.5660629       115.9518
2013    3       1       0.4099219       91.30239
2013    3       2       0.3345292       77.77443
2013    3       3       0.3013438       71.55375
2013    3       4       0.2914624       69.67929
2013    3       5       0.2225765       56.27192
2013    3       6       0.1469579       40.28362
2013    3       7       0.1554437       42.17521
2013    4       0       0.2358405       58.95422
2013    4       1       0.3289731       76.75451
2013    4       2       0.3603305       82.61534
2013    4       3       0.2745807       67.01295
2013    4       4       0.221771        56.64289
2013    4       5       0.1849025       48.89541
2013    4       6       0.2287061       58.12291
2013    4       7       0.2880935       69.99501
2013    5       0       0.2878603       70.18336
2013    5       1       0.2711926       66.86449
2013    5       2       0.2272794       57.85238
2013    5       3       0.2384697       59.98065
2013    5       4       0.304814        72.43399
2013    5       5       0.4325158       94.93833
2013    5       6       0.4668588       100.9795
2013    5       7       0.543703        113.1743
2013    6       0       0.4495621       98.87737
2013    6       1       0.4142232       93.34582
2013    6       2       0.2236296       57.47099
2013    6       3       0.1575355       43.07799
2013    6       4       0.1076645       31.49798
2013    6       5       0.1405114       38.60176
2013    6       6       0.2305185       57.46847
2013    6       7       0.3542667       81.15453
2013    7       0       0.4502371       97.64468
2013    7       1       0.5029955       106.3909
2013    7       2       0.5122297       107.9975
2013    7       3       0.3763516       86.35961
2013    7       4       0.274137        67.28932
2013    7       5       0.3336905       78.48529
2013    7       6       0.4582401       99.45983
2013    7       7       0.4168349       92.46445
2013    8       0       0.3931399       88.46285
2013    8       1       0.3148821       75.2615
2013    8       2       0.241271        60.98449
2013    8       3       0.204746        53.3394
2013    8       4       0.2578851       64.07291
2013    8       5       0.2872493       69.84778
2013    8       6       0.2751956       67.36067
2013    8       7       0.3192902       75.4297
2013    9       0       0.3392068       79.69891
2013    9       1       0.6577138       130.3527
2013    9       2       0.5672455       116.7232
2013    9       3       0.3028192       72.21332
2013    9       4       0.2972659       71.04546
2013    9       5       0.3678867       83.63248
2013    9       6       0.3725643       83.92471
2013    9       7       0.4493702       95.70086
2013    10      0       0.349521        78.403
2013    10      1       0.2425333       58.6462
2013    10      2       0.2317458       56.69479
2013    10      3       0.231556        56.9922
2013    10      4       0.2300289       56.51559
2013    10      5       0.2031401       50.99823
2013    10      6       0.2333408       57.33235
2013    10      7       0.3222109       74.23283
2013    11      0       0.2689798       64.57277
2013    11      1       0.1827547       47.4128
2013    11      2       0.1294987       35.95614
2013    11      3       0.2765545       66.68404
2013    11      4       0.383325        86.44425
2013    11      5       0.3435923       79.89519
2013    11      6       0.4424688       96.58374
2013    11      7       0.3918697       87.92737
2013    12      0       0.3299507       77.23348
2013    12      1       0.2801032       67.91077
2013    12      2       0.2280936       57.33232
2013    12      3       0.2214636       55.83037
2013    12      4       0.2376579       58.92768
2013    12      5       0.2657909       64.21809
2013    12      6       0.2997405       71.03528
2013    12      7       0.2522631       62.16622
2013    13      0       0.2335826       58.39291
2013    13      1       0.2017555       52.03015
2013    13      2       0.1485123       40.64734
2013    13      3       0.1478964       40.44845
2013    13      4       0.1368474       37.98206
2013    13      5       0.1665833       44.22356
2013    13      6       0.2318264       58.69335
2013    13      7       0.3499842       80.89823
2013    14      0       0.3219414       75.98292
2013    14      1       0.3646322       84.39487
2013    14      2       0.5672249       116.2404
2013    14      3       0.2856717       68.45204
2013    14      4       0.1829515       47.79555
2013    14      5       0.1355483       37.18719
2013    14      6       0.1620768       42.50776
2013    14      7       0.1559511       41.28775
2013    15      0       0.1757473       45.65644
2013    15      1       0.2005804       51.02407
2013    15      2       0.272659        65.64721
2013    15      3       0.3490277       79.64514
2013    15      4       0.4881551       103.0891
2013    15      5       0.4825999       103.3171
2013    15      6       0.527771        110.0114
2013    15      7       0.5493055       113.0619
2013    16      0       0.5809647       117.7469
2013    16      1       0.5587208       115.032
2013    16      2       0.519776        109.3651
2013    16      3       0.4599747       99.81387
2013    16      4       0.2998761       72.15895
2013    16      5       0.2621985       64.94005
2013    16      6       0.3754891       86.23916
2013    16      7       0.5207416       109.996
2013    17      0       0.5776247       118.2691
2013    17      1       0.5097857       107.8848
2013    17      2       0.4045507       90.84466
2013    17      3       0.2939199       70.67637
2013    17      4       0.3296535       77.09736
2013    17      5       0.4338128       94.76437
2013    17      6       0.4371437       94.59367
2013    17      7       0.4146821       90.2897
2013    18      0       0.3864053       85.02144
2013    18      1       0.272448        64.03597
2013    18      2       0.2107311       51.91683
2013    18      3       0.2404031       57.65005
2013    18      4       0.1624961       41.6847
2013    18      5       0.123996        33.56374
2013    18      6       0.1623323       41.82236
2013    18      7       0.1688131       43.44108
2013    19      0       0.1338967       36.32212
2013    19      1       0.1211754       33.29393
2013    19      2       0.1595514       41.9673
2013    19      3       0.1546248       41.15471
2013    19      4       0.1461866       39.39335
2013    19      5       0.166968        43.8351
2013    19      6       0.2311052       57.19968
2013    19      7       0.3257348       75.62753
2013    20      0       0.331356        76.70899
2013    20      1       0.3050124       71.83872
2013    20      2       0.3205979       74.57131
2013    20      3       0.3402512       78.29492
2013    20      4       0.3241347       75.69587
2013    20      5       0.4257253       93.37141
2013    20      6       0.491159        103.8816
2013    20      7       0.5193119       108.5692
2013    21      0       0.482571        102.9686
2013    21      1       0.4918815       103.799
2013    21      2       0.2859982       68.87806
2013    21      3       0.2107578       53.97399
2013    21      4       0.1603872       43.10228
2013    21      5       0.1615679       43.31197
2013    21      6       0.2280043       57.42761
2013    21      7       0.3838379       86.63093
2013    22      0       0.3941154       88.0236
2013    22      1       0.3582495       82.27822
2013    22      2       0.3781578       85.77665
2013    22      3       0.321945        75.80014
2013    22      4       0.4018186       89.55262
2013    22      5       0.42218         93.04416
2013    22      6       0.5333768       110.7221
2013    22      7       0.4965065       104.918
2013    23      0       0.4967421       104.3621
2013    23      1       0.4490404       96.02502
2013    23      2       0.3835175       84.89712
2013    23      3       0.3524801       79.51462
2013    23      4       0.2626852       63.24489
2013    23      5       0.267788        63.80576
2013    23      6       0.2360321       57.48826
2013    23      7       0.233026        56.82476
2013    24      0       0.2288348       56.22299
2013    24      1       0.1333866       36.32016
2013    24      2       0.09825344      28.29457
2013    24      3       0.1188835       32.8032
2013    24      4       0.1714956       44.00162
2013    24      5       0.200144        50.11245
2013    24      6       0.2460851       59.82671
2013    24      7       0.1720018       45.28421
2013    25      0       0.1429491       39.19456
2013    25      1       0.1058819       30.88497
2013    25      2       0.08240827      25.37615
2013    25      3       0.09140066      27.6272
2013    25      4       0.07244512      22.86657
2013    25      5       0.1086365       30.91206
2013    25      6       0.2202717       55.72534
2013    25      7       0.295861        71.39559
2013    26      0       0.3260999       77.25204
2013    26      1       0.307752        73.61902
2013    26      2       0.2309974       58.269
2013    26      3       0.1708175       45.29195
2013    26      4       0.1691522       44.83175
2013    26      5       0.1635447       43.59794
2013    26      6       0.1784046       46.94699
2013    26      7       0.2234558       56.51524
2013    27      0       0.2428471       60.73588
2013    27      1       0.2336636       59.00483
2013    27      2       0.2233863       56.96259
2013    27      3       0.1926901       50.62436
2013    27      4       0.1627259       44.1337
2013    27      5       0.1597421       43.60387
2013    27      6       0.1758695       47.29944
2013    27      7       0.2022355       53.19265
2013    28      0       0.2306347       59.18227
2013    28      1       0.2048662       53.92213
2013    28      2       0.1648888       45.07266
2013    28      3       0.2071379       54.35775
2013    28      4       0.2346586       60.19358
2013    28      5       0.2511629       63.36802
2013    28      6       0.3502115       82.73639
2013    28      7       0.3978118       91.33195
2013    29      0       0.4135289       94.0557
2013    29      1       0.4464739       99.1948
2013    29      2       0.5907305       121.3866
2013    29      3       0.6516577       130.1147
2013    29      4       0.3517399       83.82882
2013    29      5       0.2611597       66.02429
2013    29      6       0.2816333       69.93263
2013    29      7       0.3300725       79.70536
2013    30      0       0.33472         80.72913
2013    30      1       0.3003827       73.95225
2013    30      2       0.3765246       88.19688
2013    30      3       0.4559135       101.8139
2013    30      4       0.4898418       107.2786
2013    30      5       0.4735611       104.7301
2013    30      6       0.6274234       127.129
2013    30      7       0.692728        136.1189
2014    1       0       0.2085176       52.73418
2014    1       1       0.2456276       59.69112
2014    1       2       0.3149547       72.708
2014    1       3       0.3493364       79.16566
2014    1       4       0.2743518       66.11434
2014    1       5       0.2137206       54.3195
2014    1       6       0.2704216       65.64692
2014    1       7       0.2965551       70.40514
2014    2       0       0.2522106       62.19035
2014    2       1       0.2921702       69.59588
2014    2       2       0.3944593       88.03822
2014    2       3       0.2797963       67.82623
2014    2       4       0.212979        54.44398
2014    2       5       0.1917303       49.81613
2014    2       6       0.2449541       60.46969
2014    2       7       0.3116537       73.34737
2014    3       0       0.4119364       90.97026
2014    3       1       0.4632135       99.43736
2014    3       2       0.4923277       103.7772
2014    3       3       0.4603852       98.29113
2014    3       4       0.4268506       92.21417
2014    3       5       0.3701885       82.6916
2014    3       6       0.3293635       75.33763
2014    3       7       0.3055322       70.99421
2014    4       0       0.2886213       67.93076
2014    4       1       0.2841012       67.21531
2014    4       2       0.1955121       49.93694
2014    4       3       0.1540136       41.23325
2014    4       4       0.1415168       38.43908
2014    4       5       0.1418523       38.45255
2014    4       6       0.1963783       50.05829
2014    4       7       0.3095705       72.00592
2014    5       0       0.2907461       68.73023
2014    5       1       0.2575843       62.30819
2014    5       2       0.2418318       59.35117
2014    5       3       0.2527883       61.5137
2014    5       4       0.2343961       57.96905
2014    5       5       0.2385863       58.88522
2014    5       6       0.3289211       76.20016
2014    5       7       0.3819236       85.90003
2014    6       0       0.4468911       96.88457
2014    6       1       0.4490918       97.19237
2014    6       2       0.4573132       98.5389
2014    6       3       0.3398459       78.44025
2014    6       4       0.2431753       59.98111
2014    6       5       0.2202161       55.33709
2014    6       6       0.3229541       74.88721
2014    6       7       0.3374617       77.47975
2014    7       0       0.3894039       86.48048
2014    7       1       0.2189731       54.89879
2014    7       2       0.3701493       83.05804
2014    7       3       0.3181063       73.13072
2014    7       4       0.3636473       81.48276
2014    7       5       0.2164563       54.11113
2014    7       6       0.2687965       64.52014
2014    7       7       0.2732431       65.58203
2014    8       0       0.2802217       67.2363
2014    8       1       0.259775        63.51979
2014    8       2       0.2707715       65.93698
2014    8       3       0.2358453       59.22667
2014    8       4       0.2349624       59.07763
2014    8       5       0.2343598       59.07131
2014    8       6       0.2525016       63.05575
2014    8       7       0.250652        62.86512
2014    9       0       0.2146097       55.59827
2014    9       1       0.1810381       48.44172
2014    9       2       0.1725527       46.53915
2014    9       3       0.16599         44.95197
2014    9       4       0.1746657       46.94338
2014    9       5       0.1609134       43.76954
2014    9       6       0.2455406       62.05516
2014    9       7       0.3161313       76.10293
2014    10      0       0.3039631       73.91125
2014    10      1       0.2666657       66.464
2014    10      2       0.3154623       75.57118
2014    10      3       0.3517136       82.41773
2014    10      4       0.4409387       97.4493
2014    10      5       0.348802        81.87942
2014    10      6       0.3408907       80.66907
2014    10      7       0.4068114       92.05705
2014    11      0       0.350282        82.0164
2014    11      1       0.3741643       86.34097
2014    11      2       0.3680541       85.32537
2014    11      3       0.2992621       72.54747
2014    11      4       0.251481        63.06842
2014    11      5       0.2361995       59.94639
2014    11      6       0.2364239       60.5553
2014    11      7       0.2673714       67.2797
2014    12      0       0.2848436       70.75398
2014    12      1       0.262426        66.03776
2014    12      2       0.2625669       65.94784
2014    12      3       0.2939976       72.1752
2014    12      4       0.264165        65.95608
2014    12      5       0.2759737       67.89146
2014    12      6       0.4252533       94.59108
2014    12      7       0.4905265       105.8288
2014    13      0       0.5141223       109.8051
2014    13      1       0.6110648       124.1309
2014    13      2       0.5304207       112.2721
2014    13      3       0.6878309       134.2934
2014    13      4       0.5435162       113.2807
2014    13      5       0.4790947       102.7709
2014    13      6       0.4490788       97.30346
2014    13      7       0.4341021       94.14015
2014    14      0       0.3700935       82.6653
2014    14      1       0.2984338       69.26397
2014    14      2       0.2885882       67.04804
2014    14      3       0.2046046       50.68467
2014    14      4       0.1482898       39.07703
2014    14      5       0.08603924      25.41091
2014    14      6       0.1030649       29.28044
2014    14      7       0.1446159       38.73482
2014    15      0       0.1743596       45.44111
2014    15      1       0.1407134       38.21209
2014    15      2       0.1520359       40.83199
2014    15      3       0.183316        47.81303
2014    15      4       0.1786127       46.89362
2014    15      5       0.1778134       46.7087
2014    15      6       0.2521532       61.70621
2014    15      7       0.2689577       65.77298
2014    16      0       0.2370244       59.75298
2014    16      1       0.1980151       51.32322
2014    16      2       0.2616071       64.55337
2014    16      3       0.3490982       80.80497
2014    16      4       0.2022476       51.90747
2014    16      5       0.187949        48.99405
2014    16      6       0.2469175       61.08915
2014    16      7       0.4049995       89.51292
2014    17      0       0.5256293       108.8591
2014    17      1       0.5423826       111.1433
2014    17      2       0.3814031       85.95389
2014    17      3       0.2838463       68.2362
2014    17      4       0.2180961       55.14743
2014    17      5       0.1999541       51.45948
2014    17      6       0.233855        58.6456
2014    17      7       0.2835521       68.96967
2014    18      0       0.3196985       76.33206
2014    18      1       0.3009381       73.05683
2014    18      2       0.2822462       69.61404
2014    18      3       0.2928957       72.14788
2014    18      4       0.2354741       60.56827
2014    18      5       0.2419195       61.97098
2014    18      6       0.2947661       72.88188
2014    18      7       0.4467895       99.68841
2014    19      0       0.5432559       114.4676
2014    19      1       0.5377424       113.7005
2014    19      2       0.3576129       83.96933
2014    19      3       0.4335989       96.14144
2014    19      4       0.6030759       122.0367
2014    19      5       0.6359709       127.0777
2014    19      6       0.6211893       125.3428
2014    19      7       0.6985216       136.1299
2014    20      0       0.7345721       140.916
2014    20      1       0.6683315       132.1507
2014    20      2       0.5357605       113.6251
2014    20      3       0.4155362       94.21639
2014    20      4       0.3840167       88.62342
2014    20      5       0.457011        100.9307
2014    20      6       0.6149919       124.141
2014    20      7       0.6263181       125.881
2014    21      0       0.7226833       138.3943
2014    21      1       0.59615         121.37
2014    21      2       0.4031368       91.92835
2014    21      3       0.4341121       97.25445
2014    21      4       0.3978933       90.79819
2014    21      5       0.3443792       81.35097
2014    21      6       0.4433084       98.24136
2014    21      7       0.6576203       130.2068
2014    22      0       0.6968576       135.8789
2014    22      1       0.4366322       98.50421
2014    22      2       0.3734555       87.32169
2014    22      3       0.3421938       81.4051
2014    22      4       0.3914294       90.39478
2014    22      5       0.3582809       84.55906
2014    22      6       0.5104558       110.1742
2014    22      7       0.7524856       143.4687
2014    23      0       0.7143152       138.795
2014    23      1       0.537925        115.0652
2014    23      2       0.5764065       120.7667
2014    23      3       0.364806        85.79872
2014    23      4       0.3542288       83.43012
2014    23      5       0.2540703       64.23748
2014    23      6       0.3814231       87.89368
2014    23      7       0.4956779       105.8556
2014    24      0       0.5163064       108.7814
2014    24      1       0.3663159       83.30886
2014    24      2       0.177135        46.25611
2014    24      3       0.108309        31.18602
2014    24      4       0.09239949      27.37417
2014    24      5       0.1086797       31.21906
2014    24      6       0.1891373       49.13827
2014    24      7       0.2554435       63.10373
2014    25      0       0.2990179       72.0648
2014    25      1       0.2512923       62.78223
2014    25      2       0.249135        62.0157
2014    25      3       0.2480881       61.88529
2014    25      4       0.2463187       61.5082
2014    25      5       0.2452641       61.14321
2014    25      6       0.2744927       67.04456
2014    25      7       0.3794992       86.3527
2014    26      0       0.3726337       85.70637
2014    26      1       0.3196793       76.06063
2014    26      2       0.3215584       77.27303
2014    26      3       0.3233405       78.0595
2014    26      4       0.2522312       63.80918
2014    26      5       0.3097086       75.23438
2014    26      6       0.4760942       103.7757
2014    26      7       0.5134788       108.9401
2014    27      0       0.4268068       95.13295
2014    27      1       0.4225691       95.09916
2014    27      2       0.6566701       129.8014
2014    27      3       0.4949012       105.6074
2014    27      4       0.4592044       99.10352
2014    27      5       0.3768667       84.80823
2014    27      6       0.4112907       90.52916
2014    27      7       0.4186298       91.93461
2014    28      0       0.402316        89.05489
2014    28      1       0.3628528       82.06738
2014    28      2       0.2653377       64.15989
2014    28      3       0.209445        53.14899
2014    28      4       0.1702089       44.71716
2014    28      5       0.114889        32.4127
2014    28      6       0.2539626       61.16265
2014    28      7       0.2361401       57.76761
2014    29      0       0.2804164       66.18244
2014    29      1       0.2683188       64.00522
2014    29      2       0.2188343       54.40508
2014    29      3       0.264567        63.3883
2014    29      4       0.248703        60.30207
2014    29      5       0.3043316       70.97859
2014    29      6       0.3320546       76.09128
2014    29      7       0.3679234       82.31019
2014    30      0       0.364391        81.75258
2014    30      1       0.3667139       82.12504
2014    30      2       0.3448728       78.61217
2014    30      3       0.2639309       64.12154
2014    30      4       0.1820821       47.39787
2014    30      5       0.1759389       46.12019
2014    30      6       0.2466816       60.72825
2014    30      7       0.2388607       59.17978
2015    1       0       0.2816137       69.30497
2015    1       1       0.3000982       73.05988
2015    1       2       0.2717121       67.56947
2015    1       3       0.2467537       62.72538
2015    1       4       0.2623057       65.60233
2015    1       5       0.259102        64.83233
2015    1       6       0.3953627       89.47381
2015    1       7       0.5195217       109.7361
2015    2       0       0.4427228       97.37573
2015    2       1       0.2077356       53.86848
2015    2       2       0.1856307       48.59729
2015    2       3       0.3806428       85.12143
2015    2       4       0.4605233       99.06839
2015    2       5       0.3720864       84.74566
2015    2       6       0.388188        87.47521
2015    2       7       0.4836239       102.8873
2015    3       0       0.4699218       100.5702
2015    3       1       0.4063423       89.42335
2015    3       2       0.303207        70.75517
2015    3       3       0.2700413       64.15805
2015    3       4       0.2102374       52.39699
2015    3       5       0.1549348       40.97957
2015    3       6       0.1315635       36.17463
2015    3       7       0.1322936       36.43661
2015    4       0       0.1458873       39.54538
2015    4       1       0.1307071       36.31158
2015    4       2       0.1097398       31.5618
2015    4       3       0.07023246      22.19403
2015    4       4       0.0566019       18.83799
2015    4       5       0.05605964      18.69063
2015    4       6       0.08997447      27.12309
2015    4       7       0.1200047       34.25737
2015    5       0       0.1302509       36.60472
2015    5       1       0.1245994       35.3859
2015    5       2       0.1334619       37.34953
2015    5       3       0.1422235       39.16487
2015    5       4       0.162482        43.64186
2015    5       5       0.1600442       43.23774
2015    5       6       0.1702522       45.59463
2015    5       7       0.1792904       47.74954
2015    6       0       0.1748882       46.91296
2015    6       1       0.1584438       43.20194
2015    6       2       0.1442372       39.87508
2015    6       3       0.1523031       41.74668
2015    6       4       0.1256098       35.82642
2015    6       5       0.08536301      26.18722
2015    6       6       0.1319372       37.3343
2015    6       7       0.1789179       47.79009
2015    7       0       0.1927631       50.73589
2015    7       1       0.1660011       44.95998
2015    7       2       0.1579127       42.96404
2015    7       3       0.1443069       39.96801
2015    7       4       0.1259928       35.66009
2015    7       5       0.1216052       34.70908
2015    7       6       0.1462476       40.26269
2015    7       7       0.1848373       48.79378
2015    8       0       0.1978312       51.76336
2015    8       1       0.1956144       51.3285
2015    8       2       0.1917614       50.30916
2015    8       3       0.1556371       42.39324
2015    8       4       0.1199012       34.32825
2015    8       5       0.1284949       36.36455
2015    8       6       0.1914914       50.37712
2015    8       7       0.2757424       67.13955
2015    9       0       0.3178732       75.20572
2015    9       1       0.2653748       64.60726
2015    9       2       0.2171561       54.45588
2015    9       3       0.2133206       53.64282
2015    9       4       0.2452535       60.08219
2015    9       5       0.2395627       59.4778
2015    9       6       0.2815152       67.58747
2015    9       7       0.2207477       55.6959
2015    10      0       0.2731158       65.85632
2015    10      1       0.2183481       55.33787
2015    10      2       0.2316644       58.07354
2015    10      3       0.1960382       50.75574
2015    10      4       0.1553479       41.71163
2015    10      5       0.1487927       40.21699
2015    10      6       0.1807199       47.33606
2015    10      7       0.2903851       69.16443
2015    11      0       0.3313          77.0764
2015    11      1       0.2197364       55.91004
2015    11      2       0.1776485       47.01172
2015    11      3       0.1557192       42.23194
2015    11      4       0.1549837       41.9283
2015    11      5       0.1776534       46.58162
2015    11      6       0.2022817       51.92071
2015    11      7       0.2661922       64.87409
2015    12      0       0.2640123       65.07556
2015    12      1       0.2349724       59.4529
2015    12      2       0.1904397       50.14062
2015    12      3       0.18909         49.77747
2015    12      4       0.2179808       55.55701
2015    12      5       0.293675        70.48298
2015    12      6       0.4678926       100.366
2015    12      7       0.1866459       48.83653
2015    13      0       0.1060293       31.04915
2015    13      1       0.08409674      25.78549
2015    13      2       0.10499         30.70564
2015    13      3       0.1198217       34.21273
2015    13      4       0.1446735       39.86711
2015    13      5       0.1649103       44.37517
2015    13      6       0.1890345       49.74876
2015    13      7       0.2317546       58.92395
2015    14      0       0.2858928       69.64459
2015    14      1       0.2654838       65.976
2015    14      2       0.229775        58.88337
2015    14      3       0.1688424       45.7954
2015    14      4       0.1383633       38.6689
2015    14      5       0.1432573       39.61785
2015    14      6       0.1855023       49.20828
2015    14      7       0.2583074       63.94287
2015    15      0       0.3151645       74.78949
2015    15      1       0.2946985       71.32466
2015    15      2       0.2095637       54.61325
2015    15      3       0.2623426       65.52952
2015    15      4       0.0878995       26.6701
2015    15      5       0.09794772      29.26948
2015    15      6       0.2174673       55.57666
2015    15      7       0.1884813       49.17727
2015    16      0       0.2523284       62.67872
2015    16      1       0.324442        76.45319
2015    16      2       0.2879444       69.42069
2015    16      3       0.3978325       89.34626
2015    16      4       0.4441886       96.85344
2015    16      5       0.5245241       108.8682
2015    16      6       0.5225118       108.8036
2015    16      7       0.5076437       107.2215
2015    17      0       0.4962789       105.4082
2015    17      1       0.5292462       110.1234
2015    17      2       0.4803854       102.6389
2015    17      3       0.553805        114.3495
2015    17      4       0.292713        71.09565
2015    17      5       0.5094856       108.8205
2015    17      6       0.4639712       101.0327
2015    17      7       0.3752488       85.47688
2015    18      0       0.2341198       58.39539
2015    18      1       0.1572087       41.92267
2015    18      2       0.1903523       48.9591
2015    18      3       0.3106804       72.13767
2015    18      4       0.3365342       77.10123
2015    18      5       0.404451        89.06377
2015    18      6       0.3305278       76.51182
2015    18      7       0.3228248       75.09429
2015    19      0       0.3735069       83.88049
2015    19      1       0.3067434       72.32088
2015    19      2       0.2663644       64.95689
2015    19      3       0.3183616       74.86704
2015    19      4       0.1495393       40.29126
2015    19      5       0.1429493       38.80936
2015    19      6       0.1989894       50.85062
2015    19      7       0.3091388       72.76864
2015    20      0       0.375534        84.62809
2015    20      1       0.3988243       88.48008
2015    20      2       0.3458383       79.54922
2015    20      3       0.3575615       81.84389
2015    20      4       0.302161        71.77866
2015    20      5       0.280807        67.76289
2015    20      6       0.3540517       81.22465
2015    20      7       0.4127202       91.22663
2015    21      0       0.4442922       96.35871
2015    21      1       0.2802824       67.99558
2015    21      2       0.2568087       63.34103
2015    21      3       0.2725401       66.6553
2015    21      4       0.2302097       58.2848
2015    21      5       0.2124849       54.5603
2015    21      6       0.2734699       66.98552
2015    21      7       0.3370242       79.02333
2015    22      0       0.4570088       99.60961
2015    22      1       0.4566021       99.91034
2015    22      2       0.3932046       89.85822
2015    22      3       0.4087316       91.88823
2015    22      4       0.3482742       81.41818
2015    22      5       0.2954671       71.6797
2015    22      6       0.3496785       81.78732
2015    22      7       0.4824898       104.4195
2015    23      0       0.5146872       109.9514
2015    23      1       0.4543127       100.351
2015    23      2       0.3968116       90.49421
2015    23      3       0.3476304       81.47094
2015    23      4       0.2520714       63.3394
2015    23      5       0.215477        55.81048
2015    23      6       0.3311236       78.12375
2015    23      7       0.4767948       102.9984
2015    24      0       0.4213383       94.65296
2015    24      1       0.35069         82.11349
2015    24      2       0.2356065       59.91305
2015    24      3       0.2232682       57.14104
2015    24      4       0.2285626       57.97852
2015    24      5       0.2408055       60.47054
2015    24      6       0.3232819       76.37344
2015    24      7       0.5086025       107.7332
2015    25      0       0.4401726       97.28472
2015    25      1       0.3954884       89.7619
2015    25      2       0.376004        85.94118
2015    25      3       0.2743071       67.40891
2015    25      4       0.2149726       55.43218
2015    25      5       0.2772292       67.87843
2015    25      6       0.4608331       100.6751
2015    25      7       0.5906145       120.4093
2015    26      0       0.5583619       116.4128
2015    26      1       0.5715681       118.6188
2015    26      2       0.6011312       122.6747
2015    26      3       0.3951225       90.22983
2015    26      4       0.4397357       97.8405
2015    26      5       0.600011        122.1426
2015    26      6       0.6728757       131.4098
2015    26      7       0.6938349       134.4123
2015    27      0       0.6245357       125.5711
2015    27      1       0.5052522       107.8916
2015    27      2       0.4830716       104.2333
2015    27      3       0.3792662       86.7216
2015    27      4       0.4595374       99.73231
2015    27      5       0.4185529       93.30276
2015    27      6       0.4570328       100.1394
2015    27      7       0.5300993       111.6898
2015    28      0       0.4149025       93.37434
2015    28      1       0.3378951       79.58288
2015    28      2       0.2820508       68.76571
2015    28      3       0.2251011       57.22256
2015    28      4       0.2097759       54.2037
2015    28      5       0.1988624       52.0477
2015    28      6       0.2273636       58.23031
2015    28      7       0.2415148       61.42939
2015    29      0       0.3044682       74.12259
2015    29      1       0.3036823       74.15847
2015    29      2       0.24399         62.32032
2015    29      3       0.2119543       55.30741
2015    29      4       0.1654948       44.95211
2015    29      5       0.1577347       43.24649
2015    29      6       0.2101454       54.91032
2015    29      7       0.264115        66.36839
2015    30      0       0.3277985       79.11827
2015    30      1       0.3511161       83.65719
2015    30      2       0.2900285       71.90464
2015    30      3       0.2785941       69.61283
2015    30      4       0.3408251       81.50881
2015    30      5       0.3689863       86.46388
2015    30      6       0.4454365       99.46032
2015    30      7       0.5999131       123.1757
2016    1       0       0.263471        62.82316
2016    1       1       0.1284273       35.31142
2016    1       2       0.158368        41.57414
2016    1       3       0.1897344       48.25437
2016    1       4       0.1589267       41.74919
2016    1       5       0.1558617       41.0439
2016    1       6       0.2113276       52.91744
2016    1       7       0.2613614       63.14283
2016    2       0       0.259649        63.13917
2016    2       1       0.2201024       55.45711
2016    2       2       0.2149117       54.56038
2016    2       3       0.2266575       57.12459
2016    2       4       0.2034465       52.33645
2016    2       5       0.1811777       47.67179
2016    2       6       0.1789231       47.29872
2016    2       7       0.202323        52.4223
2016    3       0       0.211398        54.51204
2016    3       1       0.1885023       49.74278
2016    3       2       0.1395373       38.91697
2016    3       3       0.1518712       41.76975
2016    3       4       0.1460418       40.47127
2016    3       5       0.1368562       38.34118
2016    3       6       0.1987274       52.13308
2016    3       7       0.2470193       62.40067
2016    4       0       0.26445         65.91112
2016    4       1       0.2721174       67.19135
2016    4       2       0.3112134       74.50332
2016    4       3       0.3653038       84.32931
2016    4       4       0.3204668       76.16873
2016    4       5       0.2786949       68.33282
2016    4       6       0.3369538       79.50338
2016    4       7       0.3894881       88.90631
2016    5       0       0.4205919       94.07183
2016    5       1       0.3395081       80.14086
2016    5       2       0.2818518       69.20373
2016    5       3       0.2506358       62.76197
2016    5       4       0.2606278       64.76649
2016    5       5       0.3983054       89.97199
2016    5       6       0.4432314       96.30005
2016    5       7       0.4636416       99.45796
2016    6       0       0.1057494       30.44402
2016    6       1       0.1834036       47.19491
2016    6       2       0.1087158       31.43611
2016    6       3       0.1020425       29.70264
2016    6       4       0.1511162       41.18899
2016    6       5       0.1771587       47.32491
2016    6       6       0.1823791       48.72796
2016    6       7       0.2050026       53.88123
2016    7       0       0.2387771       61.0432
2016    7       1       0.2307884       59.07587
2016    7       2       0.2137204       55.26115
2016    7       3       0.2211851       56.82499
2016    7       4       0.2056667       53.45746
2016    7       5       0.1742195       46.51519
2016    7       6       0.2180156       55.91883
2016    7       7       0.2672549       66.08291
2016    8       0       0.2769552       68.24876
2016    8       1       0.2442136       61.72796
2016    8       2       0.2045689       53.5249
2016    8       3       0.186954        49.86705
2016    8       4       0.1550497       42.69489
2016    8       5       0.1402887       39.08776
2016    8       6       0.1738489       46.6422
2016    8       7       0.2227503       57.21955
2016    9       0       0.2177519       56.20958
2016    9       1       0.210354        54.54111
2016    9       2       0.2330941       59.50628
2016    9       3       0.2648284       66.25126
2016    9       4       0.3173144       76.35234
2016    9       5       0.3639654       84.79794
2016    9       6       0.4857656       105.5345
2016    9       7       0.5788811       119.4354
2016    10      0       0.5643458       117.3121
2016    10      1       0.3819455       88.02648
2016    10      2       0.2976036       72.35795
2016    10      3       0.2797357       68.77828
2016    10      4       0.3172974       75.4489
2016    10      5       0.4149358       92.66404
2016    10      6       0.4747996       102.9638
2016    10      7       0.5047206       107.1331
2016    11      0       0.4686266       101.5445
2016    11      1       0.4132856       93.07261
2016    11      2       0.3427434       80.3304
2016    11      3       0.3115202       74.30118
2016    11      4       0.353474        81.89373
2016    11      5       0.3845496       87.36899
2016    11      6       0.3945247       89.36314
2016    11      7       0.4751671       102.9008
2016    12      0       0.557395        115.378
2016    12      1       0.4529037       99.56654
2016    12      2       0.3639838       84.6164
2016    12      3       0.3217653       76.87389
2016    12      4       0.3365669       79.44669
2016    12      5       0.3812523       87.07712
2016    12      6       0.4758322       102.8585
2016    12      7       0.5192608       110.2141
2016    13      0       0.6162436       124.3528
2016    13      1       0.5843523       119.7313
2016    13      2       0.4783569       103.761
2016    13      3       0.3869874       88.66158
2016    13      4       0.3380548       79.87159
2016    13      5       0.3213732       76.73891
2016    13      6       0.3942003       89.87426
2016    13      7       0.4591051       101.0823
2016    14      0       0.5409218       113.6272
2016    14      1       0.4870667       105.6473
2016    14      2       0.4011377       91.61985
2016    14      3       0.4079999       92.55577
2016    14      4       0.3667338       85.10225
2016    14      5       0.3404781       80.80327
2016    14      6       0.4756476       104.1466
2016    14      7       0.5616604       117.0445
2016    15      0       0.5549963       115.9713
2016    15      1       0.3977825       91.38058
2016    15      2       0.3221883       77.99338
2016    15      3       0.4296837       96.08465
2016    15      4       0.3313496       78.44344
2016    15      5       0.3637687       83.66557
2016    15      6       0.5210443       109.2069
2016    15      7       0.6053594       121.773
2016    16      0       0.6436477       127.3042
2016    16      1       0.4073946       91.34895
2016    16      2       0.5008778       105.5448
2016    16      3       0.5809101       117.4972
2016    16      4       0.4967769       104.4506
2016    16      5       0.4931619       104.5971
2016    16      6       0.4595884       99.24799
2016    16      7       0.4873128       103.5347
2016    17      0       0.5372732       110.376
2016    17      1       0.4572044       98.27108
2016    17      2       0.430134        93.65118
2016    17      3       0.3941132       87.57645
2016    17      4       0.3804714       84.98378
2016    17      5       0.3200233       74.05113
2016    17      6       0.3973816       87.84964
2016    17      7       0.3912337       87.29655
2016    18      0       0.3384556       77.91966
2016    18      1       0.299571        70.68247
2016    18      2       0.2152717       54.19241
2016    18      3       0.2072493       52.52061
2016    18      4       0.2283212       56.73235
2016    18      5       0.2708952       64.92358
2016    18      6       0.3085821       72.42615
2016    18      7       0.3601478       81.9362
2016    19      0       0.3608598       81.94738
2016    19      1       0.2888316       68.78154
2016    19      2       0.2535463       62.10911
2016    19      3       0.262633        63.71831
2016    19      4       0.2735906       65.66395
2016    19      5       0.254189        61.87711
2016    19      6       0.3027933       71.62556
2016    19      7       0.3630114       82.69565
2016    20      0       0.3512391       80.74258
2016    20      1       0.3172862       74.85803
2016    20      2       0.2775199       67.61247
2016    20      3       0.2107714       54.16934
2016    20      4       0.2132127       54.4357
2016    20      5       0.2605971       64.29953
2016    20      6       0.5253271       109.3657
2016    20      7       0.5168178       108.8399
2016    21      0       0.4076636       92.07985
2016    21      1       0.3329323       78.90699
2016    21      2       0.266928        66.41069
2016    21      3       0.208169        54.36862
2016    21      4       0.1720117       46.63063
2016    21      5       0.1606108       43.96054
2016    21      6       0.1940712       51.28308
2016    21      7       0.2265335       58.2472
2016    22      0       0.2383071       60.88105
2016    22      1       0.2272263       58.6634
2016    22      2       0.2360925       60.54586
2016    22      3       0.2369398       60.75929
2016    22      4       0.2369568       60.88779
2016    22      5       0.2700249       67.77828
2016    22      6       0.3790872       88.32937
2016    22      7       0.5269379       112.6648
2016    23      0       0.5020611       109.4015
2016    23      1       0.3842563       90.0873
2016    23      2       0.2925455       72.79705
2016    23      3       0.2511263       64.18624
2016    23      4       0.2163969       56.77498
2016    23      5       0.1699734       46.09321
2016    23      6       0.2555129       64.64886
2016    23      7       0.4553871       101.5466
2016    24      0       0.5394407       114.959
2016    24      1       0.1614705       44.1693
2016    24      2       0.1882668       49.71974
2016    24      3       0.2190007       56.20176
2016    24      4       0.2348405       59.19947
2016    24      5       0.2948943       71.02984
2016    24      6       0.4443147       97.91873
2016    24      7       0.4168385       94.36686
2016    25      0       0.3761273       87.49702
2016    25      1       0.3418156       80.91612
2016    25      2       0.3417702       80.43808
2016    25      3       0.3582601       82.74183
2016    25      4       0.2935018       71.12462
2016    25      5       0.2226884       57.41487
2016    25      6       0.2632895       65.65736
2016    25      7       0.3894879       88.59429
2016    26      0       0.3758694       86.40545
2016    26      1       0.5756825       118.6871
2016    26      2       0.4361207       97.37634
2016    26      3       0.1576904       42.76145
2016    26      4       0.1944409       50.49043
2016    26      5       0.2381187       59.30869
2016    26      6       0.3426017       78.82093
2016    26      7       0.4483282       96.94127
2016    27      0       0.4696792       100.3641
2016    27      1       0.3999948       89.1537
2016    27      2       0.3110044       73.35107
2016    27      3       0.3352889       77.29175
2016    27      4       0.2324599       58.02292
2016    27      5       0.1990864       51.44585
2016    27      6       0.3906654       87.7558
2016    27      7       0.3659987       83.58208
2016    28      0       0.3158065       74.66953
2016    28      1       0.2961438       70.97851
2016    28      2       0.3019904       71.976
2016    28      3       0.338535        78.87824
2016    28      4       0.4156996       92.63704
2016    28      5       0.4446995       97.26635
2016    28      6       0.4927997       104.1744
2016    28      7       0.4845456       103.4686
2016    29      0       0.4176509       93.10869
2016    29      1       0.4914106       104.9563
2016    29      2       0.4204661       93.70225
2016    29      3       0.517045        108.2066
2016    29      4       0.4152873       91.64011
2016    29      5       0.5453827       112.2654
2016    29      6       0.4490957       97.36465
2016    29      7       0.4680499       100.6212
2016    30      0       0.44363         96.46383
2016    30      1       0.426139        93.16358
2016    30      2       0.4557958       97.8225
2016    30      3       0.4562219       97.69791
2016    30      4       0.3465638       79.54381
2016    30      5       0.3286923       76.43002
2016    30      6       0.4718372       100.0709
2016    30      7       0.4231745       92.40122
2017    1       0       0.4978358       105.9805
2017    1       1       0.4219738       93.47606
2017    1       2       0.4379834       95.49869
2017    1       3       0.217162        55.54616
2017    1       4       0.2149638       54.8444
2017    1       5       0.2587727       63.58051
2017    1       6       0.3486764       80.55041
2017    1       7       0.4466385       97.31957
2017    2       0       0.3605555       83.1974
2017    2       1       0.3613691       83.18338
2017    2       2       0.280458        68.32865
2017    2       3       0.2389396       60.24009
2017    2       4       0.1972242       51.67606
2017    2       5       0.163789        44.30894
2017    2       6       0.2136785       54.95635
2017    2       7       0.3173122       75.25088
2017    3       0       0.4814263       103.0761
2017    3       1       0.5356531       111.508
2017    3       2       0.4739195       102.4128
2017    3       3       0.5758304       117.2051
2017    3       4       0.1793123       47.34234
2017    3       5       0.0540261       18.19906
2017    3       6       0.08552488      25.84588
2017    3       7       0.1281422       35.42737
2017    4       0       0.1668432       43.68515
2017    4       1       0.2675499       64.10491
2017    4       2       0.3482592       79.33216
2017    4       3       0.3877581       85.60987
2017    4       4       0.4123387       89.85388
2017    4       5       0.4103851       89.58157
2017    4       6       0.4503874       95.88104
2017    4       7       0.4641737       97.75474
2017    5       0       0.4482413       95.4979
2017    5       1       0.3079534       71.40522
2017    5       2       0.20873         52.30685
2017    5       3       0.1326915       36.36322
2017    5       4       0.07416387      22.91542
2017    5       5       0.06607065      20.87101
2017    5       6       0.1318605       36.2573
2017    5       7       0.2039167       51.9903
2017    6       0       0.2655375       64.67225
2017    6       1       0.3205678       74.76002
2017    6       2       0.307456        72.80844
2017    6       3       0.3027047       72.42351
2017    6       4       0.2615052       64.57026
2017    6       5       0.2383818       60.00172
2017    6       6       0.2519401       62.81318
2017    6       7       0.2718985       66.98534
2017    7       0       0.2782976       68.47019
2017    7       1       0.2750461       68.0164
2017    7       2       0.2453053       61.98948
2017    7       3       0.2488907       62.47594
2017    7       4       0.3667764       84.98882
2017    7       5       0.338161        80.09621
2017    7       6       0.3768281       87.88893
2017    7       7       0.4349264       98.48868
2017    8       0       0.4394079       99.1492
2017    8       1       0.401649        92.65855
2017    8       2       0.3607836       85.1923
2017    8       3       0.2330892       60.49853
2017    8       4       0.1948517       52.0878
2017    8       5       0.2418408       61.67224
2017    8       6       0.3916776       90.25674
2017    8       7       0.4635225       102.2364
2017    9       0       0.3193791       76.8559
2017    9       1       0.2456825       61.93613
2017    9       2       0.2692155       66.65838
2017    9       3       0.3216808       76.39073
2017    9       4       0.2157075       55.6092
2017    9       5       0.1596039       43.10572
2017    9       6       0.1991844       51.34697
2017    9       7       0.2051059       52.27223
2017    10      0       0.1419093       38.67462
2017    10      1       0.08649544      26.04395
2017    10      2       0.07067587      22.2583
2017    10      3       0.05477941      18.33806
2017    10      4       0.04759693      16.48702
2017    10      5       0.05576262      18.4983
2017    10      6       0.09085593      27.04092
2017    10      7       0.127537        35.41629
2017    11      0       0.1655481       43.81408
2017    11      1       0.1793596       46.78833
2017    11      2       0.1443964       39.19758
2017    11      3       0.1168705       33.08256
2017    11      4       0.1246481       35.03475
2017    11      5       0.1248205       35.16388
2017    11      6       0.1515967       41.08554
2017    11      7       0.1975156       50.81799
2017    12      0       0.3143924       73.30542
2017    12      1       0.2533842       62.40832
2017    12      2       0.2616896       64.38191
2017    12      3       0.2618822       64.64998
2017    12      4       0.2723981       66.68925
2017    12      5       0.2130293       55.22614
2017    12      6       0.2231769       57.63007
2017    12      7       0.2645369       66.33989
2017    13      0       0.3190526       76.85112
2017    13      1       0.3593073       84.07328
2017    13      2       0.2961789       72.76521
2017    13      3       0.2235123       58.30998
2017    13      4       0.1814604       49.30268
2017    13      5       0.1723771       47.32059
2017    13      6       0.2205806       57.90428
2017    13      7       0.2725033       68.52606
2017    14      0       0.3637803       85.27449
2017    14      1       0.3077225       75.21452
2017    14      2       0.1738673       47.48016
2017    14      3       0.182549        49.66157
2017    14      4       0.1117192       33.24932
2017    14      5       0.08973921      27.82473
2017    14      6       0.1677785       45.93348
2017    14      7       0.2389179       60.72278
2017    15      0       0.2803482       69.0414
2017    15      1       0.244208        62.08999
2017    15      2       0.2646116       66.23225
2017    15      3       0.3217827       77.40426
2017    15      4       0.2671234       66.7728
2017    15      5       0.2318386       59.31745
2017    15      6       0.2961837       71.71214
2017    15      7       0.332974        78.68649
2017    16      0       0.3655306       84.73581
2017    16      1       0.3333009       79.1824
2017    16      2       0.3209564       76.88244
2017    16      3       0.2500074       62.78148
2017    16      4       0.2320632       58.69831
2017    16      5       0.2598731       64.14237
2017    16      6       0.3218516       76.10997
2017    16      7       0.4652961       100.8378
2017    17      0       0.4404208       97.1681
2017    17      1       0.3921002       89.21473
2017    17      2       0.3624502       84.2202
2017    17      3       0.3063807       74.05468
2017    17      4       0.254985        63.90242
2017    17      5       0.2125907       54.95842
2017    17      6       0.2367606       59.96335
2017    17      7       0.3434058       80.44704
2017    18      0       0.4452592       98.81721
2017    18      1       0.3858913       89.71805
2017    18      2       0.3696964       86.74267
2017    18      3       0.3670157       86.25386
2017    18      4       0.3641997       85.62933
2017    18      5       0.4521393       100.9133
2017    18      6       0.5491121       116.4033
2017    18      7       0.4931756       108.3031
2017    19      0       0.3698521       87.4263
2017    19      1       0.3388581       81.61104
2017    19      2       0.3361711       80.76518
2017    19      3       0.3303406       79.61843
2017    19      4       0.2827549       70.5146
2017    19      5       0.3337588       80.07948
2017    19      6       0.4337033       97.34574
2017    19      7       0.4198129       94.75951
2017    20      0       0.382182        88.05396
2017    20      1       0.3549176       82.9222
2017    20      2       0.3200888       76.47578
2017    20      3       0.2415875       61.05307
2017    20      4       0.190718        50.47209
2017    20      5       0.2997902       72.66136
2017    20      6       0.530134        111.3183
2017    20      7       0.5814367       119.122
2017    21      0       0.6144167       123.8481
2017    21      1       0.5670378       117.153
2017    21      2       0.4266442       94.89086
2017    21      3       0.5832966       118.1604
2017    21      4       0.537111        111.0903
2017    21      5       0.3418165       78.2966
2017    21      6       0.449051        96.86884
2017    21      7       0.4837491       102.5228
2017    22      0       0.4920693       103.8463
2017    22      1       0.3822931       86.00939
2017    22      2       0.3327585       77.26934
2017    22      3       0.3694362       83.78573
2017    22      4       0.3856436       86.47201
2017    22      5       0.3667405       83.35833
2017    22      6       0.3447692       79.74939
2017    22      7       0.2801832       68.06317
2017    23      0       0.1999584       52.33816
2017    23      1       0.1610353       44.04662
2017    23      2       0.1401152       39.39373
2017    23      3       0.1342011       37.81571
2017    23      4       0.136347        38.15118
2017    23      5       0.1265459       36.0261
2017    23      6       0.2126216       55.50042
2017    23      7       0.3109991       75.71058
2017    24      0       0.3831828       89.21618
2017    24      1       0.3570661       84.79206
2017    24      2       0.2668197       67.13407
2017    24      3       0.3249417       78.20646
2017    24      4       0.3418712       81.24764
2017    24      5       0.3349919       79.57283
2017    24      6       0.4493187       98.94033
2017    24      7       0.6644309       130.5746
2017    25      0       0.7121923       137.4607
2017    25      1       0.5619749       117.3213
2017    25      2       0.6478046       128.9676
2017    25      3       0.3622742       84.29543
2017    25      4       0.3239578       76.70111
2017    25      5       0.2076721       53.34657
2017    25      6       0.3222308       75.23902
2017    25      7       0.4415079       95.77035
2017    26      0       0.4629553       99.37526
2017    26      1       0.3865441       87.1624
2017    26      2       0.2953447       70.41513
2017    26      3       0.2067097       52.81344
2017    26      4       0.1862849       48.63205
2017    26      5       0.2503937       61.9341
2017    26      6       0.3690219       83.55683
2017    26      7       0.3878981       87.26022
2017    27      0       0.4254314       94.0218
2017    27      1       0.4577528       98.96242
2017    27      2       0.4710857       101.0254
2017    27      3       0.4068938       91.04905
2017    27      4       0.4991855       105.5382
2017    27      5       0.5075999       106.8713
2017    27      6       0.4870271       103.7833
2017    27      7       0.3579502       81.83355
2017    28      0       0.2846021       68.19955
2017    28      1       0.3043836       72.13236
2017    28      2       0.2082796       53.09036
2017    28      3       0.1751059       45.92856
2017    28      4       0.1530836       41.05222
2017    28      5       0.1562788       41.77309
2017    28      6       0.2537567       61.59022
2017    28      7       0.3348469       77.1447
2017    29      0       0.4510543       97.25824
2017    29      1       0.4601917       98.40663
2017    29      2       0.3825994       85.23083
2017    29      3       0.3340894       76.4999
2017    29      4       0.308545        71.77742
2017    29      5       0.4145595       89.93277
2017    29      6       0.3608443       81.09435
2017    29      7       0.4561203       96.90558
2017    30      0       0.3830655       84.91732
2017    30      1       0.2752849       65.48719
2017    30      2       0.2121687       53.07468
2017    30      3       0.1560031       41.54759
2017    30      4       0.1120561       32.0006
2017    30      5       0.07040927      22.1512
2017    30      6       0.1248984       35.2024
2017    30      7       0.2334594       58.8167
2018    1       0       0.4307257       95.60127
2018    1       1       0.4718069       102.5051
2018    1       2       0.3599195       83.74412
2018    1       3       0.4316061       96.1273
2018    1       4       0.4265144       95.23154
2018    1       5       0.2794317       68.71593
2018    1       6       0.2961284       72.10354
2018    1       7       0.2943288       71.74148
2018    2       0       0.2846613       70.05211
2018    2       1       0.2534178       63.97708
2018    2       2       0.2316421       59.27261
2018    2       3       0.3041973       73.98108
2018    2       4       0.2453294       61.9997
2018    2       5       0.2160356       56.09343
2018    2       6       0.3138366       75.85273
2018    2       7       0.4566511       100.633
2018    3       0       0.4397323       97.79411
2018    3       1       0.4485124       99.46387
2018    3       2       0.4199414       93.96496
2018    3       3       0.07512995      23.26546
2018    3       4       0.07882779      24.08751
2018    3       5       0.06814647      21.45953
2018    3       6       0.07800832      23.72694
2018    3       7       0.09367658      27.47241
2018    4       0       0.1024612       29.58186
2018    4       1       0.09390342      27.5298
2018    4       2       0.1057389       30.16882
2018    4       3       0.135016        36.67731
2018    4       4       0.161277        42.47115
2018    4       5       0.1653857       43.83165
2018    4       6       0.2144936       54.3032
2018    4       7       0.2991819       71.08857
2018    5       0       0.3213758       75.26374
2018    5       1       0.2792902       67.23491
2018    5       2       0.2962261       71.09405
2018    5       3       0.2892262       70.39397
2018    5       4       0.2275518       58.06989
2018    5       5       0.1997005       52.27243
2018    5       6       0.2816461       68.97879
2018    5       7       0.3815388       87.3919
2018    6       0       0.5578747       114.9465
2018    6       1       0.5471158       113.7416
2018    6       2       0.4740122       102.5426
2018    6       3       0.4946468       106.0246
2018    6       4       0.4681425       101.9007
2018    6       5       0.5072358       107.5935
2018    6       6       0.6027117       121.6583
2018    6       7       0.4967618       106.1349
2018    7       0       0.4546364       99.5535
2018    7       1       0.4730788       102.6215
2018    7       2       0.494061        106.3519
2018    7       3       0.4517069       99.70091
2018    7       4       0.4075728       92.32727
2018    7       5       0.4037701       91.74361
2018    7       6       0.4820891       105.0495
2018    7       7       0.6208961       126.2429
2018    8       0       0.7033933       137.5494
2018    8       1       0.6036833       123.9333
2018    8       2       0.7914524       147.9665
2018    8       3       0.5885797       122.1023
2018    8       4       0.3706996       84.98616
2018    8       5       0.1094392       31.99237
2018    8       6       0.2076327       53.50353
2018    8       7       0.4081455       90.92029
2018    9       0       0.4024482       89.48962
2018    9       1       0.2948808       70.71734
2018    9       2       0.2994841       71.06685
2018    9       3       0.3081521       72.44791
2018    9       4       0.315859        73.56849
2018    9       5       0.4756777       100.7307
2018    9       6       0.3281046       76.47742
2018    9       7       0.3166298       74.10955
2018    10      0       0.2852476       68.60616
2018    10      1       0.1854396       48.59507
2018    10      2       0.1524854       41.47785
2018    10      3       0.1504977       41.1492
2018    10      4       0.1487506       40.73034
2018    10      5       0.1542129       41.81869
2018    10      6       0.1646699       44.65666
2018    10      7       0.1772224       47.47769
2018    11      0       0.2545943       62.82268
2018    11      1       0.3706571       84.26576
2018    11      2       0.3010657       72.93
2018    11      3       0.3097023       74.72808
2018    11      4       0.3108094       74.43549
2018    11      5       0.2165471       55.74229
2018    11      6       0.2753361       68.52734
2018    11      7       0.2385881       61.82253
2018    12      0       0.2101915       55.52542
2018    12      1       0.2233682       58.13214
2018    12      2       0.2434244       61.80166
2018    12      3       0.2219873       57.82575
2018    12      4       0.1565328       43.37082
2018    12      5       0.1437549       40.12381
2018    12      6       0.2337207       59.57222
2018    12      7       0.2853553       69.77537
2018    13      0       0.2925407       70.87298
2018    13      1       0.3822406       87.12302
2018    13      2       0.4655933       100.5914
2018    13      3       0.4095517       89.41097
2018    13      4       0.2895909       67.81478
2018    13      5       0.2704549       64.49793
2018    13      6       0.273287        64.91393
2018    13      7       0.3156642       72.89825
2018    14      0       0.3137226       72.43296
2018    14      1       0.3028786       70.20993
2018    14      2       0.2719545       64.3957
2018    14      3       0.2473341       59.71921
2018    14      4       0.1988636       50.34063
2018    14      5       0.1342194       36.80118
2018    14      6       0.1347902       36.90823
2018    14      7       0.1850786       47.83398
2018    15      0       0.2621932       63.66264
2018    15      1       0.2882058       68.65633
2018    15      2       0.2878639       68.80406
2018    15      3       0.2856813       68.63067
2018    15      4       0.2925222       69.95496
2018    15      5       0.288887        69.41541
2018    15      6       0.3840075       86.88609
2018    15      7       0.3927235       88.5636
2018    16      0       0.4162064       92.75819
2018    16      1       0.4204614       93.52641
2018    16      2       0.4110156       92.34808
2018    16      3       0.3056984       73.44095
2018    16      4       0.2441363       61.43753
2018    16      5       0.2222649       57.07329
2018    16      6       0.2429554       61.74058
2018    16      7       0.2924907       71.67916
2018    17      0       0.3815828       87.85813
2018    17      1       0.3053586       74.61752
2018    17      2       0.168684        45.91068
2018    17      3       0.1580058       44.21094
2018    17      4       0.155778        43.5928
2018    17      5       0.1202933       34.87888
2018    17      6       0.1965678       51.49231
2018    17      7       0.1297286       36.04584
2018    18      0       0.1379473       37.63476
2018    18      1       0.09807192      28.636
2018    18      2       0.07491658      23.16271
2018    18      3       0.08536706      25.66142
2018    18      4       0.08585369      25.84869
2018    18      5       0.0830873       25.05134
2018    18      6       0.1201276       33.64513
2018    18      7       0.1472372       39.86854
2018    19      0       0.143549        39.1439
2018    19      1       0.1441209       39.25291
2018    19      2       0.1421205       38.90762
2018    19      3       0.1288201       35.94469
2018    19      4       0.1386847       38.22907
2018    19      5       0.1187275       33.66267
2018    19      6       0.1435197       39.50367
2018    19      7       0.2149241       55.1658
2018    20      0       0.2785412       67.88587
2018    20      1       0.283714        69.14828
2018    20      2       0.3345094       79.24941
2018    20      3       0.3397758       81.39163
2018    20      4       0.4220182       95.65302
2018    20      5       0.4346071       97.37524
2018    20      6       0.4163375       93.90326
2018    20      7       0.7040848       135.6921
2018    21      0       0.6378654       126.7764
2018    21      1       0.5920294       120.4929
2018    21      2       0.5856375       118.1415
2018    21      3       0.5368722       110.4989
2018    21      4       0.360689        81.97342
2018    21      5       0.4043397       90.0813
2018    21      6       0.4948093       104.4754
2018    21      7       0.5610211       115.021
2018    22      0       0.4376179       96.5011
2018    22      1       0.3691359       85.46918
2018    22      2       0.2481519       62.62923
2018    22      3       0.2215403       57.18553
2018    22      4       0.2173897       56.39993
2018    22      5       0.2167792       56.29804
2018    22      6       0.2345084       60.14691
2018    22      7       0.2641805       66.40067
2018    23      0       0.2909091       71.68491
2018    23      1       0.3308341       79.1835
2018    23      2       0.3693561       86.04733
2018    23      3       0.3897707       89.56401
2018    23      4       0.3380095       80.25381
2018    23      5       0.3224237       77.09528
2018    23      6       0.41558         93.69113
2018    23      7       0.5093269       109.1073
2018    24      0       0.4524818       100.3973
2018    24      1       0.5469463       114.4811
2018    24      2       0.7556706       143.5188
2018    24      3       0.6714093       130.9535
2018    24      4       0.4298571       95.21194
2018    24      5       0.2982505       71.60174
2018    24      6       0.3750688       85.07136
2018    24      7       0.3991728       88.72281
2018    25      0       0.3899731       86.92245
2018    25      1       0.2306953       57.70199
2018    25      2       0.2001678       51.26701
2018    25      3       0.1248427       35.32195
2018    25      4       0.07062573      22.57299
2018    25      5       0.04481772      16.02181
2018    25      6       0.0673601       21.83131
2018    25      7       0.1007267       30.09049
2018    26      0       0.1401921       39.3887
2018    26      1       0.1441061       40.26394
2018    26      2       0.1221083       34.87209
2018    26      3       0.2669255       65.89559
2018    26      4       0.3602789       83.03529
2018    26      5       0.3272415       77.05563
2018    26      6       0.3176581       75.40419
2018    26      7       0.2111804       54.66061
2018    27      0       0.1839175       49.1079
2018    27      1       0.1604283       44.07774
2018    27      2       0.1343177       38.11905
2018    27      3       0.1065724       31.54184
2018    27      4       0.08971914      27.44948
2018    27      5       0.08813919      27.10071
2018    27      6       0.1203858       34.88295
2018    27      7       0.1587906       43.77236
2018    28      0       0.2044839       53.84405
2018    28      1       0.2238089       57.79172
2018    28      2       0.2139503       55.62369
2018    28      3       0.20577         54.17444
2018    28      4       0.2059287       54.04079
2018    28      5       0.2358672       60.00723
2018    28      6       0.2897457       70.78945
2018    28      7       0.418708        94.18857
2018    29      0       0.6027034       122.7113
2018    29      1       0.660559        131.0468
2018    29      2       0.4475867       99.72961
2018    29      3       0.3481016       82.72755
2018    29      4       0.3103966       75.09557
2018    29      5       0.2194767       56.59507
2018    29      6       0.2067873       54.33225
2018    29      7       0.2181309       56.64247
2018    30      0       0.2783971       68.43529
2018    30      1       0.2378595       60.46037
2018    30      2       0.1794026       48.08406
2018    30      3       0.1864987       49.4936
2018    30      4       0.1856416       49.04543
2018    30      5       0.2201342       56.34039
2018    30      6       0.2776898       68.21261
2018    30      7       0.3478599       80.86647
