####################################################################################################
# Month: 08Aug                                                                                     #
# Station: YBG                                                                                     #
# Frequency: 230 GHz                                                                               #
# Columns are: year    day     tau     Tb (K)                                                      #
####################################################################################################
2009    1       0.84544968      156.50625
2009    2       0.76905054      147.5384375
2009    3       0.58517864      121.184515
2009    4       0.48239571      106.88431875
2009    5       0.48402809      107.0389975
2009    6       0.71620822      139.248925
2009    7       0.71060254      138.767375
2009    8       0.64667618      130.515525
2009    9       0.66906691      133.344975
2009    10      0.63238746      127.8944625
2009    11      0.5551319       116.5114375
2009    12      0.38084019      87.89708125
2009    13      0.27669862      69.1895675
2009    14      0.33170992      80.01633125
2009    15      0.62308272      126.837325
2009    16      0.57661291      119.8161625
2009    17      0.74196764      142.675575
2009    18      0.64806828      130.3321875
2009    19      0.64881379      130.4306375
2009    20      0.5777471       119.34923375
2009    21      0.51778174      110.63369125
2009    22      0.56700475      118.195175
2009    23      0.63259284      127.2816875
2009    24      0.6164525       124.7096
2009    25      0.66096435      131.094575
2009    26      0.56349161      118.1318375
2009    27      0.55566924      117.0552125
2009    28      0.4191614       92.27496375
2009    29      0.19607985      51.65219
2009    30      0.32875719      78.70702625
2009    31      0.53941665      114.27515375
2010    1       0.46953655      103.5299975
2010    2       0.59003338      122.2342875
2010    3       0.65359681      130.4589625
2010    4       0.69277801      136.5021625
2010    5       0.67626055      135.2291
2010    6       0.53927029      115.21745
2010    7       0.48765259      105.70991625
2010    8       0.43099088      96.9545975
2010    9       0.5266078       112.8120125
2010    10      0.59943982      123.62505
2010    11      0.63574746      128.898075
2010    12      0.56646159      119.1523125
2010    13      0.56724335      119.502775
2010    14      0.67652795      134.7667875
2010    15      0.70218641      138.4864875
2010    16      0.63351679      129.6521
2010    17      0.75066802      144.31675
2010    18      0.6201115       126.9699375
2010    19      0.73411069      141.8643125
2010    20      0.6854882       135.59465
2010    21      0.64084975      129.9439375
2010    22      0.74767198      144.0763875
2010    23      0.67448572      133.9475125
2010    24      0.78225729      146.8875875
2010    25      0.62764035      127.5143375
2010    26      0.65198249      131.8974
2010    27      0.68581025      136.6058125
2010    28      0.62553419      127.9534875
2010    29      0.64497026      130.1288375
2010    30      0.59995958      123.8545875
2010    31      0.61507102      125.925275
2011    1       0.85050208      157.57625
2011    2       0.88369339      160.7629125
2011    3       0.81426655      151.9222875
2011    4       0.46669583      102.4579175
2011    5       0.40551941      91.46411
2011    6       0.29589558      71.88534375
2011    7       0.27366934      67.7230925
2011    8       0.3877629       89.2476225
2011    9       0.59623897      122.9415125
2011    10      0.65091314      130.9893
2011    11      0.57689357      120.37955
2011    12      0.5977972       122.8793375
2011    13      0.5931306       122.6910125
2011    14      0.59057085      122.4019625
2011    15      0.67639181      134.481575
2011    16      0.72056291      140.02685
2011    17      0.59984904      122.9869125
2011    18      0.62165931      126.5468625
2011    19      0.45738472      101.60343375
2011    20      0.43024115      97.41862125
2011    21      0.61166704      125.4369875
2011    22      0.43305081      97.269315
2011    23      0.32361036      77.9309525
2011    24      0.22651802      58.46076375
2011    25      0.25009515      62.98683875
2011    26      0.21352145      55.651135
2011    27      0.32879439      78.839665
2011    28      0.49991601      108.94648875
2011    29      0.45026221      101.62772375
2011    30      0.53672454      114.930875
2011    31      0.36064215      84.4848425
2012    1       0.49023106      107.397235
2012    2       0.39972514      91.29265625
2012    3       0.60579416      124.0182125
2012    4       0.50255646      109.1038125
2012    5       0.46980642      103.99678375
2012    6       0.47705566      105.73705
2012    7       0.66098005      132.553025
2012    8       0.54656831      115.38831125
2012    9       0.37396681      87.43018875
2012    10      0.48532526      105.3152325
2012    11      0.53482701      113.387175
2012    12      0.53352751      112.8815875
2012    13      0.51907312      110.5168275
2012    14      0.50525604      108.34831875
2012    15      0.44976301      99.97983625
2012    16      0.5704526       119.7075
2012    17      0.5709592       119.3611875
2012    18      0.63619334      128.081375
2012    19      0.66752909      133.56265
2012    20      0.65415548      130.875375
2012    21      0.3716474       86.671065
2012    22      0.57766904      119.23672125
2012    23      0.43714088      96.0653225
2012    24      0.35006055      82.4768025
2012    25      0.47513375      104.26229
2012    26      0.57447749      120.0101875
2012    27      0.6028461       123.8857625
2012    28      0.66360745      132.9882875
2012    29      0.68234865      135.0248375
2012    30      0.64104226      129.7940625
2012    31      0.61278598      124.0675075
2013    1       0.43038942      96.452255
2013    2       0.48622129      104.987045
2013    3       0.42362685      94.88539625
2013    4       0.41859636      94.226595
2013    5       0.54472136      115.593305
2013    6       0.69188248      136.4523
2013    7       0.39589458      90.41672
2013    8       0.4184053       94.74232875
2013    9       0.62930429      128.46235
2013    10      0.60510181      123.679855
2013    11      0.44411212      100.4560175
2013    12      0.34093369      82.2202175
2013    13      0.46581304      103.46777625
2013    14      0.43263418      98.14379125
2013    15      0.41577492      95.24636625
2013    16      0.37309498      87.1314525
2013    17      0.57547022      120.500875
2013    18      0.43688475      98.3634875
2013    19      0.4117573       93.12004375
2013    20      0.49451269      107.064375
2013    21      0.50904701      109.94806625
2013    22      0.546169        115.855325
2013    23      0.59131093      122.3397625
2013    24      0.52936478      113.4476375
2013    25      0.57061859      119.37
2013    26      0.61353675      125.3147625
2013    27      0.61659746      125.780275
2013    28      0.62404971      126.5727625
2013    29      0.65335598      131.2941375
2013    30      0.7068919       139.1203375
2013    31      0.70094906      138.559175
2014    1       0.69555648      137.9096875
2014    2       0.71118459      138.3732875
2014    3       0.79572828      149.4798625
2014    4       0.67470606      135.0416375
2014    5       0.65577969      132.227025
2014    6       0.6718747       133.8460875
2014    7       0.74261888      143.4607875
2014    8       0.72578934      141.53485
2014    9       0.71646154      140.1587375
2014    10      0.69086471      137.229425
2014    11      0.71148369      138.76655
2014    12      0.51436559      110.46862625
2014    13      0.68520539      133.964625
2014    14      0.72357252      140.0806
2014    15      0.67648556      133.9494625
2014    16      0.63476895      128.3433375
2014    17      0.57513355      120.0334125
2014    18      0.52661851      111.90376375
2014    19      0.65727998      131.3158375
2014    20      0.71423925      138.8494125
2014    21      0.69857661      137.068575
2014    22      0.61635955      124.40125
2014    23      0.55570624      115.5772125
2014    24      0.50855165      109.00744875
2014    25      0.63167816      126.8240375
2014    26      0.47138546      103.19542
2014    27      0.63451201      127.702125
2014    28      0.68772328      135.5228625
2014    29      0.63554384      129.037125
2014    30      0.63783278      129.2009
2014    31      0.66498691      132.8247875
2015    1       0.53235392      113.69795
2015    2       0.50947173      110.0626175
2015    3       0.48802779      107.42381375
2015    4       0.64794488      131.472425
2015    5       0.66587144      133.593825
2015    6       0.79051458      149.3793
2015    7       0.49274338      106.478895
2015    8       0.24520778      62.33160875
2015    9       0.249212        62.52574625
2015    10      0.43593215      97.91718625
2015    11      0.56318761      118.7880125
2015    12      0.51770355      112.3621125
2015    13      0.65520886      132.36025
2015    14      0.61627664      126.3352625
2015    15      0.72251669      140.31055
2015    16      0.66031278      132.07075
2015    17      0.66738189      132.8684625
2015    18      0.66869736      132.9250375
2015    19      0.47266552      103.11382875
2015    20      0.54672915      113.9035125
2015    21      0.58133206      119.2156875
2015    22      0.61760614      124.4307875
2015    23      0.53046339      112.3219625
2015    24      0.52678814      112.169525
2015    25      0.47939368      105.1787025
2015    26      0.5523084       115.7936375
2015    27      0.61359366      124.6016875
2015    28      0.5813677       120.8431
2015    29      0.64494089      130.5373375
2015    30      0.56032081      117.39063375
2015    31      0.53914325      114.25686
2016    1       0.53478589      113.5582125
2016    2       0.54044384      113.58504125
2016    3       0.5716595       119.9684
2016    4       0.6236013       127.24385
2016    5       0.71233218      139.210725
2016    6       0.66793428      133.72485
2016    7       0.69264452      136.587775
2016    8       0.44251036      98.1081925
2016    9       0.59656086      123.766625
2016    10      0.59740539      124.0169125
2016    11      0.66958089      134.74
2016    12      0.75904515      146.032075
2016    13      0.80766596      152.74835
2016    14      0.74305789      144.1502125
2016    15      0.74981655      144.3776625
2016    16      0.57889308      120.6782
2016    17      0.56116669      117.494125
2016    18      0.6321103       128.66705
2016    19      0.60331176      124.9237125
2016    20      0.5403814       114.76409375
2016    21      0.43121152      97.186285
2016    22      0.49065951      106.83960125
2016    23      0.68525041      135.9160125
2016    24      0.53296255      113.655325
2016    25      0.468279        102.50232375
2016    26      0.3910396       87.47646625
2016    27      0.37040821      86.034435
2016    28      0.49287089      107.1574875
2016    29      0.55339394      116.9809
2016    30      0.64446782      129.6112375
2016    31      0.62046574      125.7324125
2017    1       0.65996811      132.44855
2017    2       0.46750094      103.91422125
2017    3       0.5802349       120.8297375
2017    4       0.7630364       147.0573125
2017    5       0.76068591      146.430025
2017    6       0.65163317      132.528375
2017    7       0.67618233      134.49265
2017    8       0.68206998      135.4914375
2017    9       0.74353046      143.3266125
2017    10      0.55688499      116.33054625
2017    11      0.38989182      89.446925
2017    12      0.62966299      127.1976975
2017    13      0.60747181      124.6700375
2017    14      0.66501102      132.905625
2017    15      0.71481378      140.8834
2017    16      0.73251312      143.50555
2017    17      0.78277672      149.1046625
2017    18      0.80938569      151.740075
2017    19      0.80946531      151.6867875
2017    20      0.83890894      155.3587125
2017    21      0.70370158      137.9159125
2017    22      0.69282982      137.0959125
2017    23      0.5479765       116.210075
2017    24      0.37742856      87.41122625
2017    25      0.4831868       104.4734
2017    26      0.47819942      104.28284625
2017    27      0.44547135      98.4950125
2017    28      0.4679981       102.6675825
2017    29      0.49963253      107.95519125
2017    30      0.55546626      116.8497375
2017    31      0.57821579      119.4527375
