####################################################################################################
# Month: 08Aug                                                                                     #
# Station: LOS                                                                                     #
# Frequency: 345 GHz                                                                               #
# Columns are: year    day     tau     Tb (K)                                                      #
####################################################################################################
2009    1       1.38879762      205.5447
2009    2       1.10905001      183.8492375
2009    3       1.40780025      209.1331
2009    4       1.791164        230.777425
2009    5       2.107457        243.5725
2009    6       2.0562075       238.74565
2009    7       1.63475491      210.3915
2009    8       0.63806571      124.59448125
2009    9       0.58563485      123.4146125
2009    10      0.83112515      154.1021875
2009    11      0.7824273       149.3465125
2009    12      1.04305498      174.544875
2009    13      2.42387537      251.203375
2009    14      2.984726        259.1071
2009    15      1.52586         212.5374
2009    16      0.89892179      164.2626375
2009    17      0.98630832      173.4923
2009    18      0.85185618      157.2446375
2009    19      0.75511472      142.76324625
2009    20      0.8529253       158.835975
2009    21      1.1421643       188.1249
2009    22      1.60345838      220.7235
2009    23      1.83957962      226.8838
2009    24      2.44163838      247.0989375
2009    25      1.84843075      223.1098875
2009    26      1.5204125       212.5533875
2009    27      1.74700113      225.8408875
2009    28      1.23001105      186.9662
2009    29      1.39955212      205.8651
2009    30      2.05096138      237.0970125
2009    31      1.44497312      207.4119625
2010    1       2.71149512      255.4627125
2010    2       2.23375538      244.3421875
2010    3       2.018144        237.9692375
2010    4       2.34048088      249.2498875
2010    5       2.2788215       247.9554125
2010    6       1.94817087      235.27315
2010    7       2.16907088      243.9988625
2010    8       2.06287663      239.7853875
2010    9       2.35479625      248.2891625
2010    10      1.66747175      221.3062375
2010    11      1.33572         203.3429375
2010    12      1.93574362      234.2607875
2010    13      1.64967875      219.489275
2010    14      1.03210444      176.82115
2010    15      1.97843962      235.2699875
2010    16      3.20094238      263.7860625
2010    17      1.87025826      219.6880375
2010    18      1.70805788      222.9262125
2010    19      2.1864955       243.7474125
2010    20      1.05073053      177.6457625
2010    21      0.86230626      158.6982375
2010    22      2.85557562      253.5903625
2010    23      2.9854495       262.6394875
2010    24      2.58606087      254.85145
2010    25      1.32176765      197.8222
2010    26      1.38154312      206.67025
2010    27      1.39439587      205.93035
2010    28      1.74539035      212.870425
2010    29      1.5541685       213.102725
2010    30      1.75380112      224.211525
2010    31      1.02672347      171.41275
2011    1       3.24572288      267.777125
2011    2       3.25819262      268.5926125
2011    3       3.14769625      266.5588375
2011    4       3.0425235       263.1602
2011    5       2.7071075       258.1775875
2011    6       1.97475875      236.8422875
2011    7       1.343539        202.8937
2011    8       0.57291006      119.1372125
2011    9       0.50612087      112.8499825
2011    10      1.76168439      223.6012875
2011    11      2.4823975       253.3787625
2011    12      2.03736812      239.6969125
2011    13      2.4732425       252.735175
2011    14      2.39756275      248.5268375
2011    15      2.23459725      245.2648375
2011    16      2.04835638      240.630875
2011    17      2.38867362      248.8820375
2011    18      2.56769812      250.3251125
2011    19      2.64928388      254.2453625
2011    20      2.93115575      259.8066125
2011    21      3.246034        266.0600625
2011    22      2.71695212      258.02035
2011    23      2.406398        253.14525
2011    24      2.67000263      259.49875
2011    25      2.72478762      259.046975
2011    26      2.51291812      254.670725
2011    27      2.87242638      262.4689375
2011    28      3.10316288      267.1476125
2011    29      2.469958        252.0648
2011    30      2.04814275      242.5956625
2011    31      1.46712038      212.6979875
2012    1       1.68731638      225.8379875
2012    2       2.0571535       241.976825
2012    3       2.01109725      237.4771125
2012    4       1.982646        233.9705125
2012    5       2.3012675       245.5221375
2012    6       2.59885938      254.688
2012    7       2.42863862      250.087725
2012    8       2.1806895       243.1195125
2012    9       1.37542288      204.1050125
2012    10      1.80143825      230.076
2012    11      2.07849113      240.8516125
2012    12      1.90176912      233.25485
2012    13      2.366673        247.91105
2012    14      1.99355312      236.2549875
2012    15      1.91858038      233.0212
2012    16      1.66432675      218.9578
2012    17      2.61348775      254.03705
2012    18      2.01467875      232.2764
2012    19      2.1572725       240.93065
2012    20      2.551358        253.3268375
2012    21      1.96291         233.1062375
2012    22      2.57860975      252.2648375
2012    23      2.53094075      250.1923875
2012    24      2.14207025      239.7719
2012    25      1.94464375      229.9426
2012    26      2.31904688      246.4815
2012    27      2.36754625      248.693
2012    28      1.48261702      207.8665875
2012    29      1.26162838      198.9075625
2012    30      1.4392605       210.7788625
2012    31      1.29722737      201.0840625
2013    1       2.93682025      259.8942625
2013    2       2.80706975      258.7219625
2013    3       2.8531615       260.21045
2013    4       2.26094775      246.3500375
2013    5       2.34133175      248.9163625
2013    6       2.2284445       245.0348875
2013    7       2.41783088      250.5012875
2013    8       2.155638        241.852725
2013    9       1.5827565       215.9976
2013    10      1.86766838      229.529925
2013    11      1.80428925      229.33085
2013    12      2.31502613      244.9793875
2013    13      1.89865862      234.3868375
2013    14      1.74134412      228.8379625
2013    15      1.52658688      216.6710375
2013    16      1.63861037      223.56395
2013    17      1.94652188      236.4063375
2013    18      2.12298012      242.8868125
2013    19      2.4663425       252.5349
2013    20      2.376793        249.7578375
2013    21      2.26745312      247.7312875
2013    22      2.03104338      240.4126125
2013    23      1.48546246      207.165
2013    24      2.79524212      256.0598375
2013    25      2.83062275      257.67575
2013    26      2.28949025      244.22735
2013    27      1.54734581      211.2086
2013    28      1.576963        215.7934
2013    29      2.560635        253.9354625
2013    30      2.485779        253.3980125
2013    31      2.2114355       240.07225
2014    1       2.96783275      260.9824
2014    2       2.63744875      253.759175
2014    3       1.99929812      235.155325
2014    4       2.7599675       256.6520375
2014    5       2.40350612      246.5616625
2014    6       1.10500262      185.2982125
2014    7       1.84669713      227.193
2014    8       1.35648463      192.1323375
2014    9       1.12227443      185.23595
2014    10      1.43723725      208.0826875
2014    11      2.41742625      248.3512375
2014    12      1.79959212      225.33615
2014    13      2.10900862      239.8763375
2014    14      2.76699825      257.3955125
2014    15      1.95090825      233.9443625
2014    16      2.05300662      234.8564875
2014    17      1.87696463      229.7727375
2014    18      1.66673175      218.7998625
2014    19      2.02463512      237.2248125
2014    20      2.5604795       251.5487375
2014    21      1.70751938      224.0629375
2014    22      2.47973612      249.72795
2014    23      1.46484268      204.728975
2014    24      1.24064288      197.351475
2014    25      1.709705        224.200975
2014    26      2.86721575      258.9723125
2014    27      2.61009925      252.2699375
2014    28      1.620187        217.3461
2014    29      1.61683188      219.7138375
2014    30      1.74041412      226.289375
2014    31      1.64181375      222.8933375
2015    1       3.41286875      267.7579375
2015    2       2.927258        261.080975
2015    3       2.44683037      249.3981375
2015    4       1.55373225      217.227775
2015    5       1.3112085       202.832275
2015    6       1.14135772      189.46045
2015    7       1.67188998      213.08315
2015    8       2.41847063      246.0337375
2015    9       1.980055        235.6095875
2015    10      1.92738163      232.2033625
2015    11      2.29646275      243.88225
2015    12      1.68683088      219.486925
2015    13      1.41937938      209.51125
2015    14      2.10209738      241.3689625
2015    15      2.24874525      244.8480125
2015    16      2.46196738      248.359875
2015    17      2.23624325      246.1849
2015    18      1.33610852      198.9104375
2015    19      0.7682399       148.8215125
2015    20      0.97821913      171.516225
2015    21      1.51083975      211.4247
2015    22      1.38156575      205.5531125
2015    23      1.88680888      231.694525
2015    24      1.70829188      222.923575
2015    25      1.52865624      211.9794625
2015    26      2.016945        232.64305
2015    27      2.39095787      245.0430875
2015    28      2.17717012      244.2396125
2015    29      2.17047662      240.5723875
2015    30      1.95944862      235.2302875
2015    31      1.9773755       235.4258375
2016    1       2.16003113      240.2015375
2016    2       3.166367        264.2497
2016    3       3.49464912      268.51335
2016    4       3.405269        268.4451875
2016    5       3.19994575      265.335225
2016    6       2.97945025      262.3966
2016    7       2.36214588      249.272975
2016    8       2.58769862      256.475425
2016    9       1.91885162      235.7530125
2016    10      2.85175775      260.8379625
2016    11      2.71076062      257.73935
2016    12      1.53204862      218.428175
2016    13      2.19016638      243.889175
2016    14      2.23695962      243.102225
2016    15      1.55312112      214.16425
2016    16      1.6809825       221.9852
2016    17      2.214593        241.37715
2016    18      2.25473838      245.3601875
2016    19      2.29304862      245.7252375
2016    20      2.16299638      241.7826375
2016    21      2.33925875      245.4148875
2016    22      2.16804262      239.5313625
2016    23      1.705677        223.518875
2016    24      1.82593225      227.104575
2016    25      1.451071        203.582225
2016    26      1.84187338      227.8451375
2016    27      1.419543        205.15715
2016    28      1.600336        215.4597375
2016    29      1.86083587      225.18035
2016    30      1.99954512      235.382675
2016    31      2.21257325      242.6932875
2017    1       2.6566095       250.9908875
2017    2       1.57130538      215.6357875
2017    3       2.24643787      244.9664625
2017    4       2.10692212      238.8265125
2017    5       2.56616738      252.4309125
2017    6       2.58420725      252.9996625
2017    7       2.1872785       241.583175
2017    8       1.8019675       228.6355375
2017    9       1.54519088      215.302425
2017    10      1.64666975      221.642275
2017    11      2.2458515       239.9705375
2017    12      2.550653        251.9556875
2017    13      1.95721525      235.177
2017    14      1.84921388      231.2569
2017    15      1.58143462      218.70445
2017    16      1.3890345       204.447375
2017    17      1.446441        208.492725
2017    18      1.55328638      217.3728125
2017    19      1.836415        230.59475
2017    20      2.5643815       253.7333
2017    21      2.54483288      251.73305
2017    22      2.574586        253.372625
2017    23      1.89957962      232.5312
2017    24      2.3168885       246.0945125
2017    25      2.04611125      235.321425
2017    26      1.75638062      220.8404375
2017    27      1.70169625      222.29715
2017    28      1.812689        226.786
2017    29      1.64617038      219.5201875
2017    30      1.43118651      199.4851625
2017    31      1.76919612      226.8202125
2018    1       2.25613725      247.06395
2018    2       2.11048175      243.277975
2018    3       3.0899155       265.161025
2018    4       1.75579137      223.2209625
2018    5       2.0063675       239.1459625
2018    6       2.13772425      244.98725
2018    7       1.17260568      184.4349625
2018    8       1.44649269      210.1407875
2018    9       2.26589062      245.9363625
2018    10      2.569494        254.3264375
2018    11      1.58728419      212.68675
2018    12      1.28068639      196.1199
2018    13      1.86083063      230.3277375
2018    14      2.15566875      241.9156125
2018    15      2.909629        262.8142875
2018    16      2.71889912      258.1272
2018    17      3.03469538      262.5352
2018    18      2.59346         255.6087
2018    19      1.19568938      178.593975
2018    20      0.99903435      174.5180125
2018    21      1.60330906      210.9024125
2018    22      2.91077475      257.7341875
2018    23      2.78398037      258.0215875
2018    24      1.74953688      226.245125
2018    25      2.5150785       252.55725
2018    26      2.5120345       251.9117875
2018    27      1.59132338      216.195675
2018    28      0.68673045      136.72284875
2018    29      1.0700769       177.6594625
2018    30      1.12741678      185.5487625
2018    31      1.65654625      219.8223625
