####################################################################################################
# Month: 11Nov                                                                                     #
# Station: LOS                                                                                     #
# Frequency: 345 GHz                                                                               #
# Columns are: year    day     tau     Tb (K)                                                      #
####################################################################################################
2009    1       0.3044554       74.7349075
2009    2       0.38904841      90.509835
2009    3       0.30326948      74.438185
2009    4       0.26755565      67.30757
2009    5       0.39236502      87.49681875
2009    6       0.71503206      138.12655
2009    7       0.69205596      133.28614875
2009    8       0.54477744      114.28836
2009    9       0.75158004      143.3021
2009    10      0.64006612      129.725075
2009    11      0.63653573      128.14715
2009    12      0.75752341      143.8614
2009    13      1.51721138      208.6081625
2009    14      0.97006671      165.181475
2009    15      0.68574941      128.68084
2009    16      0.24617979      59.36343
2009    17      0.27372072      67.66963
2009    18      0.22246752      58.58570625
2009    19      0.31789994      75.53156125
2009    20      0.28736555      70.032755
2009    21      0.20619611      53.7809325
2009    22      0.33421008      77.91163875
2009    23      0.30114154      71.67846875
2009    24      0.13406035      37.91380875
2009    25      0.17123211      46.11705125
2009    26      0.32124358      77.59839875
2009    27      0.17715006      47.85528625
2009    28      0.42168615      91.71954125
2009    29      0.960828        162.712925
2009    30      0.42492525      90.6165125
2010    1       0.45174317      97.44560625
2010    2       0.53903409      111.3141075
2010    3       0.81393846      152.5729
2010    4       0.80690936      151.27515
2010    5       0.64669935      129.9831875
2010    6       0.51842011      112.15852875
2010    7       0.4797524       106.45589
2010    8       0.49979261      109.515765
2010    9       0.66664331      130.58794625
2010    10      0.26071011      63.5762125
2010    11      0.39387714      88.9256475
2010    12      0.33960235      76.88491125
2010    13      0.27554141      67.413475
2010    14      0.43862417      95.9004025
2010    15      0.61041296      120.742
2010    16      0.50838655      106.318435
2010    17      0.29462569      70.04989
2010    18      0.35828641      83.60154875
2010    19      0.20139871      53.51247875
2010    20      0.31849367      75.24048125
2010    21      0.49398031      105.1171625
2010    22      0.51186064      107.29433125
2010    23      0.14753919      41.1446225
2010    24      0.45099735      95.5684675
2010    25      0.47931357      95.45748625
2010    26      0.25659356      62.65342375
2010    27      0.2484996       62.98145875
2010    28      0.24821372      60.300415
2010    29      0.34660549      77.97773
2010    30      0.26884319      63.0871875
2011    1       0.53926916      113.67731625
2011    2       0.51016336      106.77635375
2011    3       0.20592169      54.40767125
2011    4       0.70724001      134.0337425
2011    5       1.00471385      166.7313375
2011    6       0.46680244      101.74234
2011    7       0.67471072      129.35308125
2011    8       0.70962329      133.4502875
2011    9       0.37008991      84.2384675
2011    10      0.25103151      62.6565675
2011    11      0.34349328      77.5551025
2011    12      0.81355811      147.718675
2011    13      0.93041869      161.0745125
2011    14      0.8590343       144.94894375
2011    15      0.48444262      105.228495
2011    16      0.49884168      103.767305
2011    17      0.39385545      88.90483125
2011    18      0.39586209      91.04853375
2011    19      0.31875939      76.2086675
2011    20      0.85501748      148.34815
2011    21      0.87330411      154.3681375
2011    22      0.5000585       103.8448875
2011    23      0.26559319      66.51366875
2011    24      0.29377916      69.48399875
2011    25      1.39489765      197.202225
2011    26      0.22787896      56.7411275
2011    27      0.26866868      65.45341125
2011    28      0.52470786      111.4515525
2011    29      0.5000861       105.646205
2011    30      0.22516379      57.91126125
2012    1       0.36618191      86.621525
2012    2       0.38843644      89.868185
2012    3       0.91111958      158.3039375
2012    4       0.59761497      120.8152075
2012    5       0.81106364      151.662
2012    6       0.6039503       124.5335625
2012    7       0.46891711      103.35556875
2012    8       0.5817787       113.58095625
2012    9       1.06280882      169.8508625
2012    10      1.06288202      171.93915
2012    11      0.32865566      75.49719375
2012    12      0.25120252      61.9968625
2012    13      0.36194285      83.4688025
2012    14      0.24460896      61.32121375
2012    15      0.29869879      69.87019
2012    16      0.67081568      128.45419875
2012    17      0.57575921      116.91342125
2012    18      0.65009949      126.93705375
2012    19      0.22791799      58.47243125
2012    20      0.35995256      82.4961375
2012    21      0.41675786      91.2293075
2012    22      0.43681884      95.9861125
2012    23      0.35458879      83.80531
2012    24      0.2598214       65.64013875
2012    25      0.19122871      51.38368875
2012    26      0.323071        77.15133375
2012    27      0.18895096      50.219445
2012    28      0.15534795      42.91571
2012    29      0.50789155      108.82028
2012    30      0.60459656      122.24402625
2013    1       0.3603202       83.8429875
2013    2       0.36477031      86.11285375
2013    3       0.62488086      120.9207325
2013    4       0.30661231      72.155995
2013    5       0.9409316       156.00217
2013    6       0.18749141      49.2130425
2013    7       0.37701445      87.04085875
2013    8       0.39926715      90.3016775
2013    9       0.48507431      106.3172625
2013    10      0.49501306      107.3227775
2013    11      0.51136902      109.34273125
2013    12      0.47026266      103.13397125
2013    13      0.35954421      82.10650625
2013    14      0.53811532      109.15345875
2013    15      0.62758404      117.0968075
2013    16      1.16671436      181.7682625
2013    17      0.49614476      103.92051875
2013    18      0.28832788      71.26961375
2013    19      0.53141725      111.14998625
2013    20      1.05011883      171.1951375
2013    21      1.18186051      181.760325
2013    22      1.67835475      216.2240375
2013    23      1.26318265      188.357325
2013    24      1.25088011      186.7356875
2013    25      0.79197016      143.3830625
2013    26      0.64286346      127.0245375
2013    27      0.40298808      91.2529375
2013    28      0.43990456      96.597545
2013    29      0.41419232      93.2977725
2013    30      0.30365898      73.53245625
2014    1       1.43338288      204.7169875
2014    2       1.24123914      189.044725
2014    3       0.66619055      110.65830125
2014    4       0.35931489      83.77147
2014    5       0.24549089      62.17522875
2014    6       0.4353649       98.3075575
2014    7       0.52040334      111.85296875
2014    8       0.67152988      131.60115375
2014    9       0.33148719      78.86938625
2014    10      0.56633205      118.198725
2014    11      0.482335        104.81098375
2014    12      0.8843114       156.2721625
2014    13      1.01312163      169.8087
2014    14      1.09340799      176.51505
2014    15      0.81959281      142.98383875
2014    16      0.90134258      149.6236725
2014    17      0.17900454      47.656045
2014    18      0.15910766      43.331595
2014    19      0.25624321      62.87806375
2014    20      0.6305445       123.6393925
2014    21      0.4611222       99.318825
2014    22      0.399656        89.72196625
2014    23      0.68463705      130.302155
2014    24      0.29592395      67.884165
2014    25      0.37861739      82.203355
2014    26      0.5523853       116.284425
2014    27      0.4703574       102.86675125
2014    28      0.40615         91.91266
2014    29      0.25142222      64.2741375
2014    30      0.31703511      75.9032975
2015    1       0.52984411      113.1769425
2015    2       0.3867103       89.4561425
2015    3       0.35030146      83.5527275
2015    4       0.88266844      153.8286125
2015    5       0.59707121      117.2368525
2015    6       0.36546976      81.94435
2015    7       0.28050911      68.6898625
2015    8       0.21441822      56.41813625
2015    9       0.1932355       51.59021125
2015    10      0.44695578      99.4710925
2015    11      0.51296976      106.08884875
2015    12      0.19526225      51.8044825
2015    13      0.16579628      45.158035
2015    14      0.27055015      66.47447125
2015    15      0.81211194      143.285675
2015    16      1.30478837      194.3993
2015    17      0.78610655      141.414125
2015    18      0.45694251      98.72109625
2015    19      0.37409605      85.9912575
2015    20      0.5090607       109.57122375
2015    21      0.19682051      50.88814375
2015    22      0.24315985      61.3382375
2015    23      0.281221        69.685805
2015    24      0.33553189      80.20681
2015    25      0.71358285      131.29298625
2015    26      1.537267        207.059175
2015    27      1.48256438      204.9269
2015    28      0.52627271      102.26020125
2015    29      0.45132849      96.534395
2015    30      0.35400846      76.8929775
2016    1       1.05015366      175.031625
2016    2       0.81861426      152.1315375
2016    3       1.02147568      172.0131375
2016    4       1.26936888      193.0263875
2016    5       1.975309        232.250275
2016    6       1.55069012      205.4764
2016    7       0.78208022      145.5790625
2016    8       0.78097813      145.6663875
2016    9       0.3386426       77.14567
2016    10      0.21260534      55.159925
2016    11      0.60529814      122.112175
2016    12      0.90408298      159.7379125
2016    13      0.8295096       151.73345
2016    14      0.6467746       129.221075
2016    15      0.62658904      126.7541775
2016    16      0.53567715      114.0299775
2016    17      0.68956778      131.2465925
2016    18      0.2392858       60.3670175
2016    19      0.44309379      98.54451875
2016    20      0.74613656      136.80168875
2016    21      1.668794        215.7466625
2016    22      0.97920296      160.542525
2016    23      0.30012509      71.60405375
2016    24      0.19750621      51.868245
2016    25      0.15793146      42.959005
2016    26      0.13559658      38.66080875
2016    27      0.9987322       158.3979425
2016    28      0.53534979      107.10323
2016    29      0.56355805      112.83323875
2016    30      0.26043485      61.6470775
2017    1       0.69807885      137.0551
2017    2       0.64853118      131.2530125
2017    3       0.46919405      102.2064375
2017    4       1.14328754      176.4927625
2017    5       0.9181487       160.9441
2017    6       1.03003719      173.732575
2017    7       1.26916612      192.3753375
2017    8       0.6840816       117.42429625
2017    9       0.35816495      82.51424875
2017    10      0.30988931      75.73534375
2017    11      0.60401919      123.17049625
2017    12      0.43339821      95.27032375
2017    13      1.12780631      181.108225
2017    14      0.4994328       107.7480725
2017    15      0.52145498      110.6854725
2017    16      0.70076794      134.8506625
2017    17      1.65875962      217.551525
2017    18      0.56411358      91.9537475
2017    19      0.16095875      44.05207625
2017    20      0.37193931      80.32929625
2017    21      0.86774961      156.8428
2017    22      0.9706121       167.17715
2017    23      0.67037229      133.240325
2017    24      0.70503799      137.901025
2017    25      0.6012776       122.59424625
2017    26      0.74228189      139.2230525
2017    27      0.26087756      66.93378875
2017    28      0.65835888      129.7921125
2017    29      0.36315814      82.54508875
2017    30      1.18111253      183.17525
2018    1       0.60429958      119.43126625
2018    2       0.66661058      130.4598
2018    3       0.42674484      94.13748375
2018    4       0.82814096      145.9685375
2018    5       0.75236581      132.67393875
2018    6       0.42895126      95.93761625
2018    7       0.44021548      96.77298625
2018    8       0.63869814      126.71745
2018    9       0.1639189       44.29434375
2018    10      0.24007652      60.5856375
2018    11      0.60944876      122.6438625
2018    12      0.52788164      106.67846
2018    13      0.31706546      73.87256625
2018    14      0.43542845      96.11577625
2018    15      0.38130669      86.9179075
2018    16      0.38072712      87.542965
2018    17      0.48466131      103.702755
2018    18      0.5684378       116.41339875
2018    19      0.18128031      47.93300375
2018    20      0.22693482      58.11761375
2018    21      0.19213156      50.66058
2018    22      0.51205381      98.16787375
2018    23      0.5714642       112.01529625
2018    24      0.68975875      135.091625
2018    25      0.29354774      65.9657275
2018    26      0.26960575      65.6437925
2018    27      0.33110299      77.53634125
2018    28      0.76953634      144.152475
2018    29      0.51337551      109.47588125
2018    30      0.85692385      152.1056625
