####################################################################################################
# Month: 02Feb                                                                                     #
# Station: SPX                                                                                     #
# Frequency: 345 GHz                                                                               #
# Columns are: year    day     tau     Tb (K)                                                      #
####################################################################################################
2009    1       0.20432366      48.56543875
2009    2       0.46210321      97.153835
2009    3       0.45011285      95.9396675
2009    4       0.33587996      76.33085375
2009    5       0.39886016      84.51529125
2009    6       0.53648855      108.4479075
2009    7       0.51153876      104.5730875
2009    8       0.31687196      71.1135025
2009    9       0.41487706      86.38521125
2009    10      0.33186365      73.78698125
2009    11      0.16676233      43.14945375
2009    12      0.16508766      42.72649125
2009    13      0.12121872      33.88612125
2009    14      0.10163638      29.62984125
2009    15      0.17593281      44.43549125
2009    16      0.31971894      72.54289
2009    17      0.59574295      116.24034125
2009    18      0.14427431      38.75899
2009    19      0.13709161      37.4613475
2009    20      0.24378174      59.1603275
2009    21      0.38545639      84.32290125
2009    22      0.61694251      115.29236125
2009    23      0.31611279      72.1642225
2009    24      0.14804426      39.7290325
2009    25      0.19827996      50.349065
2009    26      0.37911056      82.99465375
2009    27      0.48198989      102.35960125
2009    28      0.40425749      89.144095
2010    1       0.14302084      37.73455375
2010    2       0.32493934      71.84096875
2010    3       0.30118595      69.04993625
2010    4       0.28768575      67.47912125
2010    5       0.75420785      136.8543625
2010    6       0.32175975      73.0651575
2010    7       0.19376668      48.68322875
2010    8       0.11657786      33.64469
2010    9       0.34331561      75.51445
2010    10      0.39024091      84.12595625
2010    11      0.39355356      85.3034375
2010    12      0.16626909      43.61348875
2010    13      0.10920685      31.31769125
2010    14      0.17737112      45.49355125
2010    15      0.16532615      43.28525625
2010    16      0.21913384      51.22527375
2010    17      0.71774099      133.5005625
2010    18      0.39036382      82.05269375
2010    19      0.67532752      124.97056875
2010    20      0.16307933      42.5905325
2010    21      0.22166444      53.86750625
2010    22      0.45526376      94.051085
2010    23      0.56698541      112.9530675
2010    24      0.47028055      98.0829975
2010    25      0.51887059      101.230385
2010    26      0.35217291      75.32899125
2010    27      0.45314222      85.2409125
2010    28      0.41720639      87.41948
2011    1       0.13213689      36.468165
2011    2       0.15331714      41.3247425
2011    3       0.32567983      73.85244875
2011    4       0.40747982      87.43867375
2011    5       0.21572206      53.70354
2011    6       0.10755291      31.78609
2011    7       0.17052541      45.02697
2011    8       0.21856942      54.25852
2011    9       0.20330604      51.6958125
2011    10      0.23808143      55.91207375
2011    11      0.5128177       105.99691375
2011    12      0.38519978      84.077055
2011    13      0.39504568      86.4883875
2011    14      0.38763567      85.4631275
2011    15      0.53084865      107.776855
2011    16      0.43589473      92.13825125
2011    17      0.36929134      80.5790025
2011    18      0.1887676       48.1565775
2011    19      0.44098464      90.79283
2011    20      0.5667487       111.07443875
2011    21      0.2058807       51.84444125
2011    22      0.19244661      48.51269875
2011    23      0.24172751      57.59408375
2011    24      0.51843002      103.36650625
2011    25      0.3714519       82.6939125
2011    26      0.54957989      110.64613625
2011    27      0.31765342      71.99302
2011    28      0.32880112      74.40923875
2012    1       0.22604104      54.4853775
2012    2       0.29814752      68.1832275
2012    3       0.15085795      39.74049
2012    4       0.10093002      29.40679125
2012    5       0.08032505      24.86834125
2012    6       0.09006046      26.9055475
2012    7       0.2920571       67.06277
2012    8       0.20831657      51.21247
2012    9       0.21116771      51.90899
2012    10      0.09230229      27.43389125
2012    11      0.12094868      33.719805
2012    12      0.12346246      34.41187875
2012    13      0.25242648      59.77672375
2012    14      0.22555869      55.06655625
2012    15      0.47502062      97.3324825
2012    16      0.33060836      76.35840625
2012    17      0.26606562      62.91168875
2012    18      0.36868995      82.433445
2012    19      0.37996181      78.7857375
2012    20      0.06617667      21.74081625
2012    21      0.17297074      44.40925375
2012    22      0.15803052      42.6125275
2012    23      0.59415771      113.6280775
2012    24      0.5992776       119.7994125
2012    25      0.47488051      98.607375
2012    26      0.17771291      45.3873325
2012    27      0.29182894      68.76218125
2012    28      0.50072325      103.91105625
2012    29      0.48474256      102.92173125
2013    1       0.76182152      137.9956875
2013    2       0.42527515      87.29339
2013    3       0.20398276      48.6158425
2013    4       0.43302409      88.52892875
2013    5       0.25406317      59.9048375
2013    6       0.23190738      55.6458375
2013    7       0.1720194       43.9090125
2013    8       0.12891612      35.02758875
2013    9       0.11100194      31.27958125
2013    10      0.17790245      44.3241625
2013    11      0.47161128      97.717115
2013    12      0.31018205      70.2528775
2013    13      0.08235702      25.396365
2013    14      0.25519641      58.4730175
2013    15      0.18836041      47.37651625
2013    16      0.12106894      34.08058875
2013    17      0.11467964      32.70906125
2013    18      0.10922839      31.4893325
2013    19      0.40975186      87.10651125
2013    20      0.14111064      37.1106675
2013    21      0.08233426      25.49519375
2013    22      0.1087911       31.26431875
2013    23      0.1500765       39.66326125
2013    24      0.2974314       68.03571
2013    25      0.16203679      42.41065125
2013    26      0.15183522      40.2762
2013    27      0.32756315      74.6922775
2013    28      0.23593555      58.1356325
2014    1       0.39001298      81.39603375
2014    2       0.56147669      111.6125575
2014    3       0.51797979      105.9088975
2014    4       0.3432947       77.54011375
2014    5       0.43105862      88.61873
2014    6       0.40368541      85.776215
2014    7       0.42739721      89.69016125
2014    8       0.58937901      113.12572875
2014    9       0.251018        59.946765
2014    10      0.6450458       122.85300625
2014    11      0.23233077      53.5538975
2014    12      0.18664025      47.03644125
2014    13      0.49273385      100.98601875
2014    14      0.52173084      103.227075
2014    15      0.40131295      88.03531125
2014    16      0.52428787      106.5437425
2014    17      0.2274405       55.752575
2014    18      0.40661902      87.94224
2014    19      0.43391144      91.75022625
2014    20      0.15230474      40.6762625
2014    21      0.44796574      94.19559625
2014    22      0.20337017      50.05286125
2014    23      0.15986166      42.849445
2014    24      0.09179579      27.97079
2014    25      0.25368828      60.60293625
2014    26      0.50188028      102.367055
2014    27      0.34520766      76.2756125
2014    28      0.31113057      70.84666125
2015    1       0.19647145      49.105095
2015    2       0.20155999      50.10897625
2015    3       0.27955913      65.33382375
2015    4       0.3140311       71.689005
2015    5       0.40314834      86.90346625
2015    6       0.3197715       73.70026875
2015    7       0.24052648      58.977235
2015    8       0.26521134      63.93916625
2015    9       0.26881557      64.8002175
2015    10      0.22500659      56.94001
2015    11      0.15876135      43.3076325
2015    12      0.1910222       49.7614625
2015    13      0.35486482      79.19442
2015    14      0.40856161      88.08337875
2015    15      0.3614766       79.43111875
2015    16      0.2238234       54.86261875
2015    17      0.28451675      66.52880125
2015    18      0.09930925      29.6161225
2015    19      0.1000072       29.82975875
2015    20      0.09238719      28.23853875
2015    21      0.44531204      92.79194125
2015    22      0.28399013      64.52346625
2015    23      0.43641606      89.09689625
2015    24      0.22983479      55.40342875
2015    25      0.13176743      36.072155
2015    26      0.24298038      58.534515
2015    27      0.57778518      114.08247
2015    28      0.19638185      49.83643625
2016    1       0.3496629       78.097035
2016    2       0.57183414      112.67997375
2016    3       0.44464931      91.6499575
2016    4       0.39323713      82.82750125
2016    5       0.37351141      83.14095
2016    6       0.33618656      76.900925
2016    7       0.5870343       115.17484
2016    8       0.31361912      71.57171125
2016    9       0.45038366      93.14633
2016    10      0.19162359      48.21827625
2016    11      0.17795392      45.04779
2016    12      0.35558831      77.32761125
2016    13      0.42958225      90.44391125
2016    14      0.48750114      99.26832
2016    15      0.22984005      56.30727
2016    16      0.23462645      57.5076125
2016    17      0.275034        65.40404375
2016    18      0.11757952      33.14234125
2016    19      0.19481126      47.7874675
2016    20      0.73617402      126.83489125
2016    21      0.7196187       135.9245
2016    22      0.39121506      84.5973875
2016    23      0.51213391      102.23672625
2016    24      0.34768789      72.4737975
2016    25      0.36276639      76.5388275
2016    26      0.11542147      32.51651125
2016    27      0.24381221      59.1979475
2016    28      0.50349242      103.98532875
2016    29      0.61332099      119.3107225
2017    1       0.56794602      114.150895
2017    2       0.44022485      94.96004125
2017    3       0.49048943      97.02401625
2017    4       0.42345875      87.262065
2017    5       0.56722766      110.3418025
2017    6       0.48232231      99.7475225
2017    7       0.62413928      119.34621875
2017    8       0.42798361      91.611035
2017    9       0.41182338      89.161475
2017    10      0.30939842      69.2062125
2017    11      0.279604        64.54188375
2017    12      0.44265566      94.37509375
2017    13      0.25886642      62.891935
2017    14      0.2992447       70.90653125
2017    15      0.16827028      44.933745
2017    16      0.3146418       71.5741275
2017    17      0.29999226      67.5830325
2017    18      0.12832196      35.89799
2017    19      0.17735512      46.3106025
2017    20      0.44152821      90.22590625
2017    21      0.47177506      99.63995875
2017    22      0.4829966       101.071695
2017    23      0.42059201      91.254485
2017    24      0.31512069      71.83058875
2017    25      0.39271821      85.53222375
2017    26      0.62459345      121.033275
2017    27      0.25996475      63.24416125
2017    28      0.53595829      107.25277125
2018    1       0.41957001      86.53647125
2018    2       0.10017772      29.24608875
2018    3       0.12396452      34.35314375
2018    4       0.30688836      70.31861
2018    5       0.35900742      79.4336475
2018    6       0.38469616      84.2325575
2018    7       0.38896442      84.9368825
2018    8       0.24661125      59.93799
2018    9       0.16222308      42.949065
2018    10      0.1999487       50.80705125
2018    11      0.36430719      79.76103125
2018    12      0.1399113       37.52014375
2018    13      0.08272366      25.24577375
2018    14      0.13802422      37.090115
2018    15      0.8601133       148.6836075
2018    16      0.48206468      98.57911125
2018    17      0.57135453      112.91919
2018    18      0.12139963      34.51405375
2018    19      0.23364956      56.6035825
2018    20      0.18160519      46.95416375
2018    21      0.1624403       43.122515
2018    22      0.35451619      78.92700625
2018    23      0.31133122      71.38394
2018    24      0.33819745      76.8774675
2018    25      0.15593116      41.40569
2018    26      0.09858574      28.7858575
2018    27      0.16029616      41.67938125
2018    28      0.25447536      57.46861
