####################################################################################################
# Month: 01Jan                                                                                     #
# Station: WF                                                                                      #
# Frequency: 230 GHz                                                                               #
# Columns are: year    day     segment         tau     Tb (K)                                      #
####################################################################################################
2009    1       0       0.2757876       64.52853
2009    1       1       0.2187497       53.15492
2009    1       2       0.191746        47.56111
2009    1       3       0.1630848       41.61367
2009    1       4       0.147828        38.50197
2009    1       5       0.1420186       37.49584
2009    1       6       0.1632266       42.29037
2009    1       7       0.1816978       46.3063
2009    2       0       0.1515253       40.03976
2009    2       1       0.1624699       42.37403
2009    2       2       0.2360972       57.79638
2009    2       3       0.2358675       57.7582
2009    2       4       0.2351839       57.48307
2009    2       5       0.2719938       64.54557
2009    2       6       0.5240016       108.1773
2009    2       7       0.5807335       117.3005
2009    3       0       0.4949835       105.06
2009    3       1       0.487891        103.6592
2009    3       2       0.5432015       111.2098
2009    3       3       0.5759715       115.6621
2009    3       4       0.4273749       92.64547
2009    3       5       0.3730331       83.27685
2009    3       6       0.3436709       78.57561
2009    3       7       0.336647        77.78375
2009    4       0       0.3273761       75.86086
2009    4       1       0.3189911       74.09983
2009    4       2       0.294324        71.68345
2009    4       3       0.3320163       79.60615
2009    4       4       0.4010351       90.24171
2009    4       5       0.4817525       104.3856
2009    4       6       0.468339        102.5345
2009    4       7       0.5362468       114.2848
2009    5       0       0.6132929       125.5575
2009    5       1       0.6837893       134.8173
2009    5       2       0.7819194       147.4298
2009    5       3       0.6903009       135.8958
2009    5       4       0.9148222       162.9281
2009    5       5       0.8099463       149.38
2009    5       6       0.7364468       140.455
2009    5       7       0.6676762       131.401
2009    6       0       0.5589079       114.9073
2009    6       1       0.4238583       93.14865
2009    6       2       0.3455339       79.76864
2009    6       3       0.3136751       73.80715
2009    6       4       0.3039139       72.20052
2009    6       5       0.330789        80.21479
2009    6       6       0.395057        89.09573
2009    6       7       0.4720195       102.0146
2009    7       0       0.5054754       107.3846
2009    7       1       0.6555768       130.7383
2009    7       2       0.8619524       157.0158
2009    7       3       1.037614        177.0357
2009    7       4       1.264085        196.7624
2009    7       5       1.265042        198.6697
2009    7       6       1.208068        194.1783
2009    7       7       1.631881        227.9689
2009    8       0       2.448135        248.4699
2009    8       1       1.839001        227.9712
2009    8       2       1.15359         183.5125
2009    8       3       0.7345275       139.3234
2009    8       4       0.6198681       123.9919
2009    8       5       0.5863717       118.8112
2009    8       6       0.5685428       115.8939
2009    8       7       0.5657774       115.083
2009    9       0       0.4675819       99.89843
2009    9       1       0.3723377       83.5029
2009    9       2       0.361311        81.34867
2009    9       3       0.3327686       76.10489
2009    9       4       0.3077545       71.29587
2009    9       5       0.3236619       74.05189
2009    9       6       0.3405635       77.27834
2009    9       7       0.3503986       78.98805
2009    10      0       0.3137997       72.22134
2009    10      1       0.2725602       64.62451
2009    10      2       0.2456667       59.74045
2009    10      3       0.2276272       56.60227
2009    10      4       0.2111422       53.30813
2009    10      5       0.2143059       53.92662
2009    10      6       0.2417084       60.98481
2009    10      7       0.2928575       71.33387
2009    11      0       0.3787085       85.73794
2009    11      1       0.6297725       123.1149
2009    11      2       0.6473655       128.4335
2009    11      3       1.025991        170.4591
2009    11      4       1.211818        186.9243
2009    11      5       1.068929        174.5984
2009    11      6       0.6674018       130.1885
2009    11      7       0.3647102       83.76059
2009    12      0       0.3491315       80.51439
2009    12      1       0.3507648       80.49841
2009    12      2       0.4006913       88.88253
2009    12      3       0.4410009       95.30851
2009    12      4       0.4714346       99.57735
2009    12      5       0.3767751       83.78079
2009    12      6       0.2873647       67.7807
2009    12      7       0.3629802       82.27938
2009    13      0       0.3096698       72.85725
2009    13      1       0.2606381       63.52498
2009    13      2       0.2916947       69.05353
2009    13      3       0.4072175       89.04966
2009    13      4       0.3389577       77.94696
2009    13      5       0.3705457       84.0221
2009    13      6       0.5416646       112.0415
2009    13      7       0.7546228       141.2115
2009    14      0       0.9938791       167.4454
2009    14      1       1.420829        202.4222
2009    14      2       0.8057946       147.3401
2009    14      3       0.6408654       125.6296
2009    14      4       0.2524702       60.86005
2009    14      5       0.1434505       38.70141
2009    14      6       0.1682898       44.2237
2009    14      7       0.2440527       59.2677
2009    15      0       0.246835        58.66097
2009    15      1       0.179177        45.34354
2009    15      2       0.1945671       48.29329
2009    15      3       0.2887144       66.64634
2009    15      4       0.1639609       41.98259
2009    15      5       0.1761545       44.37757
2009    15      6       0.1774076       44.65423
2009    15      7       0.173419        43.91808
2009    16      0       0.1713319       43.4104
2009    16      1       0.1457835       37.97569
2009    16      2       0.1353205       35.63815
2009    16      3       0.1379677       36.06484
2009    16      4       0.1738099       43.46365
2009    16      5       0.1414209       36.65859
2009    16      6       0.1317834       34.64641
2009    16      7       0.2450911       57.66915
2009    17      0       0.2041621       49.78072
2009    17      1       0.1766234       44.1804
2009    17      2       0.1667497       42.05153
2009    17      3       0.1683453       42.34142
2009    17      4       0.1556733       39.95291
2009    17      5       0.1561375       40.26095
2009    17      6       0.1645178       42.10177
2009    17      7       0.2024376       49.84004
2009    18      0       0.2057742       50.73726
2009    18      1       0.327705        74.17508
2009    18      2       0.5075517       104.4012
2009    18      3       0.6445956       124.9488
2009    18      4       1.066477        172.7101
2009    18      5       1.068371        173.4464
2009    18      6       0.9126093       158.4103
2009    18      7       0.7891989       144.6988
2009    19      0       0.7475764       139.9685
2009    19      1       0.8506682       152.1869
2009    19      2       0.9694161       164.8498
2009    19      3       0.8949048       156.5763
2009    19      4       0.5236575       109.6028
2009    19      5       0.462781        100.1315
2009    19      6       0.4697          100.8719
2009    19      7       0.48349         102.643
2009    20      0       0.4970113       104.4803
2009    20      1       0.5286586       109.0118
2009    20      2       0.4751657       100.636
2009    20      3       0.447692        96.71384
2009    20      4       0.4423066       95.92753
2009    20      5       0.4511561       97.40006
2009    20      6       0.4280669       93.45057
2009    20      7       0.3861631       86.31324
2009    21      0       0.3685921       83.06806
2009    21      1       0.3272737       75.56332
2009    21      2       0.2953872       69.57112
2009    21      3       0.2674817       64.16047
2009    21      4       0.2530006       61.22995
2009    21      5       0.2448311       59.4308
2009    21      6       0.2624496       62.62606
2009    21      7       0.2274391       55.59639
2009    22      0       0.2953283       68.87866
2009    22      1       0.3184837       73.76038
2009    22      2       0.3587448       81.44566
2009    22      3       0.3885012       86.73864
2009    22      4       0.4551083       98.09989
2009    22      5       0.4885301       103.6899
2009    22      6       0.5484814       113.2198
2009    22      7       0.6198102       123.6587
2009    23      0       0.5989646       121.1296
2009    23      1       0.5751665       118.1351
2009    23      2       0.5982958       121.3734
2009    23      3       0.5552011       114.9456
2009    23      4       0.5655793       116.4939
2009    23      5       0.5648304       116.6976
2009    23      6       0.6096363       123.0765
2009    23      7       0.7403585       140.7753
2009    24      0       0.645379        128.8495
2009    24      1       0.6622378       132.1326
2009    24      2       0.9834511       169.3546
2009    24      3       0.8936543       158.7752
2009    24      4       0.8212641       149.4248
2009    24      5       0.2799226       67.09396
2009    24      6       0.2456858       59.71272
2009    24      7       0.2214466       54.50835
2009    25      0       0.1560527       40.6952
2009    25      1       0.1198239       32.78442
2009    25      2       0.1329154       35.6402
2009    25      3       0.1803101       45.70146
2009    25      4       0.202739        50.27918
2009    25      5       0.2175696       53.3862
2009    25      6       0.2401315       58.05226
2009    25      7       0.3229579       73.8231
2009    26      0       0.3432932       77.47764
2009    26      1       0.2641105       62.83734
2009    26      2       0.2512707       60.32701
2009    26      3       0.2747018       64.83948
2009    26      4       0.2691616       63.75187
2009    26      5       0.2735995       64.68396
2009    26      6       0.3685231       82.02646
2009    26      7       0.4487063       95.60859
2009    27      0       0.3365311       76.74644
2009    27      1       0.3100949       71.82083
2009    27      2       0.378513        83.29727
2009    27      3       0.4192303       90.28222
2009    27      4       0.281627        66.16935
2009    27      5       0.2249952       55.36015
2009    27      6       0.2902303       68.32491
2009    27      7       0.3904149       86.75275
2009    28      0       0.2590725       62.70103
2009    28      1       0.2854745       67.36394
2009    28      2       0.4712415       99.21088
2009    28      3       0.6363834       124.9559
2009    28      4       0.8190628       148.5228
2009    28      5       1.070646        176.8062
2009    28      6       1.142365        185.7778
2009    28      7       1.468852        207.3541
2009    29      0       1.631282        218.9473
2009    29      1       0.8515344       155.9366
2009    29      2       0.5806861       118.8622
2009    29      3       0.327744        79.86184
2009    29      4       0.2951842       70.92965
2009    29      5       0.2927497       72.08786
2009    29      6       0.3489454       80.59229
2009    29      7       0.4324422       95.06625
2009    30      0       0.4644724       100.1228
2009    30      1       0.4998943       105.6478
2009    30      2       0.4326211       94.53538
2009    30      3       0.3811957       85.9059
2009    30      4       0.3860161       86.82393
2009    30      5       0.4065093       90.25006
2009    30      6       0.4071134       90.32701
2009    30      7       0.5040075       105.7813
2009    31      0       0.4888057       103.0498
2009    31      1       0.4697818       99.80256
2009    31      2       0.4813385       101.1026
2009    31      3       0.3848109       85.09833
2009    31      4       0.359037        80.38206
2009    31      5       0.2604887       61.90108
2009    31      6       0.3566725       79.44914
2009    31      7       0.3061829       70.30898
2010    1       0       0.6266521       126.0298
2010    1       1       0.6928495       134.6924
2010    1       2       0.8866285       157.227
2010    1       3       0.9128745       160.0934
2010    1       4       0.8663889       155.1559
2010    1       5       0.8172782       149.8735
2010    1       6       0.8956402       159.2797
2010    1       7       1.251127        191.4143
2010    2       0       1.383845        200.6243
2010    2       1       1.155139        182.6032
2010    2       2       0.8039364       147.1118
2010    2       3       0.7740722       142.1934
2010    2       4       0.7146053       134.4765
2010    2       5       0.6836588       130.3565
2010    2       6       0.6480762       125.6319
2010    2       7       0.6280097       122.9079
2010    3       0       0.5802648       115.9018
2010    3       1       0.5757262       114.6117
2010    3       2       0.9750934       161.8771
2010    3       3       0.4721161       99.3523
2010    3       4       0.4295392       92.82818
2010    3       5       0.6554214       126.8817
2010    3       6       0.6812886       132.3012
2010    3       7       0.7990355       145.9593
2010    4       0       0.7698098       142.9795
2010    4       1       0.7766318       143.8524
2010    4       2       0.7144242       136.1598
2010    4       3       0.5062686       107.8043
2010    4       4       0.4620896       100.382
2010    4       5       0.4250508       94.03607
2010    4       6       0.4381861       96.24099
2010    4       7       0.4460784       97.37095
2010    5       0       0.4481347       97.55055
2010    5       1       0.4414712       96.52253
2010    5       2       0.4772917       102.4569
2010    5       3       0.5023811       106.6437
2010    5       4       0.5064302       107.2773
2010    5       5       0.5175489       108.959
2010    5       6       0.5791907       117.6812
2010    5       7       0.6109288       121.8187
2010    6       0       0.5347647       110.9595
2010    6       1       0.4405572       96.27804
2010    6       2       0.3949907       88.70108
2010    6       3       0.3975179       89.13938
2010    6       4       0.3976523       89.02959
2010    6       5       0.3965947       88.8832
2010    6       6       0.4655427       100.7278
2010    6       7       0.4501794       97.99332
2010    7       0       0.4302153       94.17126
2010    7       1       0.4801998       101.8258
2010    7       2       0.4703877       100.3533
2010    7       3       0.481383        102.2612
2010    7       4       0.4871439       103.3719
2010    7       5       0.477937        102.1682
2010    7       6       0.4963668       105.0974
2010    7       7       0.5137329       107.8887
2010    8       0       0.449492        97.71053
2010    8       1       0.3675243       83.67581
2010    8       2       0.3683563       83.52814
2010    8       3       0.4198829       92.04411
2010    8       4       0.4945067       103.1858
2010    8       5       0.5118987       105.7138
2010    8       6       0.5260618       108.1837
2010    8       7       0.4787844       100.593
2010    9       0       0.4571096       97.05787
2010    9       1       0.4138927       90.13913
2010    9       2       0.3657635       82.0363
2010    9       3       0.3498513       79.36925
2010    9       4       0.2915999       68.80608
2010    9       5       0.2331219       57.30845
2010    9       6       0.2647929       63.43862
2010    9       7       0.2418989       58.86232
2010    10      0       0.1822387       46.62811
2010    10      1       0.1643171       42.74186
2010    10      2       0.1744338       44.79508
2010    10      3       0.188532        47.81658
2010    10      4       0.2039588       51.05088
2010    10      5       0.181929        46.59116
2010    10      6       0.2067029       51.75016
2010    10      7       0.2071727       51.95111
2010    11      0       0.2172108       53.79685
2010    11      1       0.3229414       74.51057
2010    11      2       0.4007299       88.68505
2010    11      3       0.4379902       95.16987
2010    11      4       0.4371392       94.92732
2010    11      5       0.4107955       90.50791
2010    11      6       0.4896168       103.6115
2010    11      7       0.5475328       112.67
2010    12      0       0.560378        114.1918
2010    12      1       0.51384         107.3667
2010    12      2       0.5038582       105.6379
2010    12      3       0.5886744       117.5604
2010    12      4       0.4412222       95.00768
2010    12      5       0.3036232       71.47486
2010    12      6       0.3388643       77.57952
2010    12      7       0.2683116       64.16659
2010    13      0       0.2179906       53.67841
2010    13      1       0.2035529       50.87988
2010    13      2       0.1473515       39.24294
2010    13      3       0.1193083       32.86582
2010    13      4       0.1444404       38.30887
2010    13      5       0.1557845       40.8848
2010    13      6       0.2934107       68.9328
2010    13      7       0.4271074       93.00778
2010    14      0       0.3804423       85.75961
2010    14      1       0.3621265       82.99513
2010    14      2       0.3201838       75.64293
2010    14      3       0.265956        65.43367
2010    14      4       0.2817064       68.71142
2010    14      5       0.3067136       75.30758
2010    14      6       0.3790125       89.86039
2010    14      7       0.4770738       107.8128
2010    15      0       0.608208        128.4361
2010    15      1       0.6015573       123.8568
2010    15      2       0.6528088       132.1257
2010    15      3       0.4498402       100.731
2010    15      4       0.7108393       140.7139
2010    15      5       0.8264106       153.9092
2010    15      6       0.7993989       150.2013
2010    15      7       0.8243849       152.7758
2010    16      0       0.6563807       131.566
2010    16      1       0.7253077       140.0622
2010    16      2       0.5593296       116.9477
2010    16      3       0.4994476       107.7557
2010    16      4       0.4770204       104.416
2010    16      5       0.4283077       96.66521
2010    16      6       0.531095        113.4831
2010    16      7       0.6911124       135.8926
2010    17      0       0.4911905       107.2752
2010    17      1       0.5875908       122.0474
2010    17      2       0.5723713       119.8313
2010    17      3       0.5506573       116.2873
2010    17      4       0.5781276       119.9001
2010    17      5       0.9370486       164.5306
2010    17      6       1.41137         203.9384
2010    17      7       1.609587        215.3772
2010    18      0       1.848089        226.6062
2010    18      1       1.489007        208.8965
2010    18      2       1.151035        183.4909
2010    18      3       1.85528         226.5229
2010    18      4       1.293425        194.5737
2010    18      5       1.205993        188.3428
2010    18      6       1.254117        192.0765
2010    18      7       1.172681        185.654
2010    19      0       0.8449208       154.0044
2010    19      1       0.757233        143.714
2010    19      2       0.7080018       137.2165
2010    19      3       0.8712187       155.7452
2010    19      4       1.022259        170.7129
2010    19      5       1.176766        184.1501
2010    19      6       1.261539        190.6912
2010    19      7       1.206183        186.8519
2010    20      0       1.104633        178.4388
2010    20      1       0.9204571       160.6184
2010    20      2       0.7293742       138.7845
2010    20      3       0.6653063       129.9065
2010    20      4       0.6432293       126.6813
2010    20      5       0.7108875       135.625
2010    20      6       1.255887        188.5211
2010    20      7       0.7826057       143.4112
2010    21      0       0.6050551       120.7298
2010    21      1       0.5399826       111.6764
2010    21      2       0.4173718       92.38503
2010    21      3       0.4050027       90.45759
2010    21      4       0.3722265       84.81462
2010    21      5       0.3613939       83.3705
2010    21      6       0.4109917       92.35022
2010    21      7       0.5273375       111.6264
2010    22      0       0.3757003       86.7059
2010    22      1       0.3292349       78.38781
2010    22      2       0.3303022       78.60991
2010    22      3       0.3205471       76.79718
2010    22      4       0.3107615       74.97716
2010    22      5       0.3358411       79.59903
2010    22      6       0.4104092       92.55092
2010    22      7       0.3691866       85.24213
2010    23      0       0.241005        60.47924
2010    23      1       0.1642127       43.80354
2010    23      2       0.1070581       30.83709
2010    23      3       0.09981188      29.21825
2010    23      4       0.1225707       34.4167
2010    23      5       0.136189        37.67708
2010    23      6       0.1532064       41.68127
2010    23      7       0.1809293       47.83258
2010    24      0       0.191312        49.91257
2010    24      1       0.204214        52.47131
2010    24      2       0.2305508       57.86958
2010    24      3       0.235728        59.03036
2010    24      4       0.2328025       58.513
2010    24      5       0.2064515       52.67688
2010    24      6       0.4020629       90.7513
2010    24      7       1.007648        172.5019
2010    25      0       1.273318        196.5925
2010    25      1       1.712138        225.1506
2010    25      2       1.533861        216.6071
2010    25      3       1.438826        211.2009
2010    25      4       1.518998        216.2313
2010    25      5       1.963508        238.1322
2010    25      6       2.20211         246.9434
2010    25      7       2.264994        249.1844
2010    26      0       1.828339        233.8398
2010    26      1       1.392554        208.1682
2010    26      2       0.8090998       152.5517
2010    26      3       0.521635        111.5029
2010    26      4       0.7417371       139.5609
2010    26      5       0.554776        114.5267
2010    26      6       0.5879745       119.5139
2010    26      7       0.5880852       119.3131
2010    27      0       0.5359181       111.6627
2010    27      1       0.5870962       119.1073
2010    27      2       0.6539314       128.5934
2010    27      3       0.6656351       130.0898
2010    27      4       0.6429987       126.9549
2010    27      5       0.670638        130.8683
2010    27      6       0.5719161       117.534
2010    27      7       0.4939826       105.9983
2010    28      0       0.471022        102.2652
2010    28      1       0.4400625       96.69836
2010    28      2       0.4089024       91.3304
2010    28      3       0.4389092       96.00464
2010    28      4       0.4000552       89.2396
2010    28      5       0.4908523       103.5025
2010    28      6       0.7591947       140.5628
2010    28      7       0.7914002       144.5503
2010    29      0       0.4616448       98.06323
2010    29      1       0.2687968       63.90703
2010    29      2       0.2119942       52.35837
2010    29      3       0.1990967       49.56862
2010    29      4       0.1725857       43.99096
2010    29      5       0.1544584       40.23798
2010    29      6       0.1538572       40.18679
2010    29      7       0.1566214       40.7545
2010    30      0       0.1515805       39.5328
2010    30      1       0.1435662       37.79267
2010    30      2       0.1308626       35.48403
2010    30      3       0.1436854       38.01399
2010    30      4       0.1880734       47.66809
2010    30      5       0.1736685       44.86677
2010    30      6       0.1898859       48.14944
2010    30      7       0.2290067       56.0331
2010    31      0       0.2206801       54.26649
2010    31      1       0.1820653       46.38286
2010    31      2       0.1700993       43.73705
2010    31      3       0.1473102       39.00192
2010    31      4       0.1498334       39.53365
2010    31      5       0.2169081       53.54424
2010    31      6       0.2569477       61.79619
2010    31      7       0.2747324       65.53346
2011    1       0       0.8897488       162.6656
2011    1       1       0.9863387       173.9428
2011    1       2       1.450195        212.3815
2011    1       3       1.618326        223.1779
2011    1       4       1.609843        223.2283
2011    1       5       1.53934         219.4793
2011    1       6       1.595687        222.7059
2011    1       7       1.524979        218.0783
2011    2       0       1.419947        210.1254
2011    2       1       1.611955        221.9819
2011    2       2       2.088647        242.2035
2011    2       3       1.788972        231.0837
2011    2       4       1.66193         224.3194
2011    2       5       1.08394         182.6339
2011    2       6       0.8903943       162.5023
2011    2       7       1.078339        179.7438
2011    3       0       1.102738        180.3479
2011    3       1       0.7268313       140.2671
2011    3       2       0.5170457       109.7388
2011    3       3       0.3958071       89.29007
2011    3       4       0.3807444       85.95485
2011    3       5       0.4111211       91.07219
2011    3       6       0.3621814       82.49676
2011    3       7       0.3282506       76.10213
2011    4       0       0.310022        72.55922
2011    4       1       0.3113777       72.73322
2011    4       2       0.3294653       75.95381
2011    4       3       0.3632845       82.01972
2011    4       4       0.3832483       85.62718
2011    4       5       0.4742086       100.6035
2011    4       6       0.5272898       108.8352
2011    4       7       0.5139808       107.1259
2011    5       0       0.4500237       97.19653
2011    5       1       0.4655309       99.70275
2011    5       2       0.5131967       106.7859
2011    5       3       0.4990421       104.2161
2011    5       4       0.4585413       97.67788
2011    5       5       0.4399437       94.92258
2011    5       6       0.4497784       97.0261
2011    5       7       0.3461432       79.37723
2011    6       0       0.3018203       71.13991
2011    6       1       0.2729585       65.50062
2011    6       2       0.2826588       67.12112
2011    6       3       0.2759039       65.77012
2011    6       4       0.2916027       68.78933
2011    6       5       0.3079311       71.86049
2011    6       6       0.3320552       76.18936
2011    6       7       0.3376648       77.13034
2011    7       0       0.3002588       70.34537
2011    7       1       0.285551        67.57205
2011    7       2       0.314693        72.88421
2011    7       3       0.3566663       80.38088
2011    7       4       0.4052347       88.71751
2011    7       5       0.4536593       96.85105
2011    7       6       0.5195277       107.3879
2011    7       7       0.5357941       110.2758
2011    8       0       0.5417624       111.2056
2011    8       1       0.5469081       111.7936
2011    8       2       0.6338977       123.8967
2011    8       3       0.6589891       127.4133
2011    8       4       0.6780547       129.7969
2011    8       5       0.712471        134.5025
2011    8       6       0.8536188       151.4277
2011    8       7       0.7334645       137.7657
2011    9       0       0.6771476       130.5097
2011    9       1       0.7537618       139.9092
2011    9       2       0.7680426       141.9542
2011    9       3       0.6132875       121.7549
2011    9       4       0.4968689       104.4255
2011    9       5       0.4548866       97.73566
2011    9       6       0.4547924       97.91707
2011    9       7       0.4348097       94.8451
2011    10      0       0.3783704       85.04395
2011    10      1       0.3398866       77.91658
2011    10      2       0.4055572       88.90045
2011    10      3       0.3658022       82.02476
2011    10      4       0.3259513       75.21424
2011    10      5       0.3531229       80.59277
2011    10      6       0.3967688       88.64605
2011    10      7       0.4309118       94.83547
2011    11      0       0.4540988       99.5367
2011    11      1       0.4186949       93.77973
2011    11      2       0.353645        81.95623
2011    11      3       0.2620935       64.31877
2011    11      4       0.2402478       59.68828
2011    11      5       0.2629073       64.05948
2011    11      6       0.3074543       72.53978
2011    11      7       0.4026956       89.2482
2011    12      0       0.46908         100.3437
2011    12      1       1.411654        200.1547
2011    12      2       1.015562        169.8196
2011    12      3       0.863449        153.8673
2011    12      4       0.9154011       159.477
2011    12      5       0.9537228       163.2635
2011    12      6       1.105756        177.5685
2011    12      7       0.9700368       163.9881
2011    13      0       0.7135889       135.2011
2011    13      1       0.5910163       118.7244
2011    13      2       0.527291        109.162
2011    13      3       0.4983084       104.5835
2011    13      4       0.4263126       93.3206
2011    13      5       0.3552943       80.92466
2011    13      6       0.3774843       84.76738
2011    13      7       0.3821294       85.48391
2011    14      0       0.3435605       78.45755
2011    14      1       0.3188058       73.84364
2011    14      2       0.3155254       73.22442
2011    14      3       0.3227265       74.68366
2011    14      4       0.3339425       76.64839
2011    14      5       0.3515766       79.66341
2011    14      6       0.3856692       85.41546
2011    14      7       0.4400434       94.37365
2011    15      0       0.3675998       82.01608
2011    15      1       0.333218        75.88928
2011    15      2       0.2922334       68.51028
2011    15      3       0.2747336       65.31091
2011    15      4       0.2898754       68.29011
2011    15      5       0.3367723       76.93508
2011    15      6       0.4035007       88.86742
2011    15      7       0.5146732       106.8377
2011    16      0       0.6630826       128.7338
2011    16      1       0.6312859       125.1113
2011    16      2       0.5630984       115.4889
2011    16      3       0.538397        110.964
2011    16      4       0.4402132       95.55406
2011    16      5       0.4759497       100.7781
2011    16      6       0.4400549       94.70191
2011    16      7       0.4062021       88.9146
2011    17      0       0.3268471       74.76046
2011    17      1       0.2539872       60.99627
2011    17      2       0.2262712       55.51533
2011    17      3       0.2083063       51.7744
2011    17      4       0.1692965       43.52413
2011    17      5       0.1368609       36.77087
2011    17      6       0.1617731       43.28404
2011    17      7       0.1689915       45.53443
2011    18      0       0.2787474       68.81267
2011    18      1       0.1695555       45.03491
2011    18      2       0.2145571       54.34988
2011    18      3       0.3870517       86.03044
2011    18      4       0.6435089       126.5626
2011    18      5       0.959768        163.7699
2011    18      6       1.541928        211.2718
2011    18      7       1.763274        224.2689
2011    19      0       1.599241        216.0097
2011    19      1       1.954408        233.7703
2011    19      2       2.546736        251.2271
2011    19      3       1.431069        207.1887
2011    19      4       1.282886        196.743
2011    19      5       1.267391        193.6593
2011    19      6       1.073557        175.9792
2011    19      7       0.9893142       167.6151
2011    20      0       0.8753516       155.206
2011    20      1       0.8726276       154.6126
2011    20      2       0.6043475       120.7395
2011    20      3       0.4476403       96.82751
2011    20      4       0.3396843       78.44389
2011    20      5       0.3212493       75.22326
2011    20      6       0.3796947       85.52116
2011    20      7       0.4480597       96.96205
2011    21      0       0.4562833       98.04418
2011    21      1       0.576634        115.8064
2011    21      2       0.6149081       121.1464
2011    21      3       0.7033047       133.2243
2011    21      4       0.7737273       141.9246
2011    21      5       0.7890998       144.6277
2011    21      6       0.4390546       95.17666
2011    21      7       0.3807957       84.82197
2011    22      0       0.3277735       74.92188
2011    22      1       0.2993694       69.41712
2011    22      2       0.2373051       57.63853
2011    22      3       0.2180762       54.13199
2011    22      4       0.2057762       51.56207
2011    22      5       0.2131329       52.93841
2011    22      6       0.2866657       67.30583
2011    22      7       0.3484078       78.67262
2011    23      0       0.3683205       82.26672
2011    23      1       0.3444062       78.08073
2011    23      2       0.2931886       68.74746
2011    23      3       0.304742        70.6525
2011    23      4       0.2832448       66.39025
2011    23      5       0.259112        61.64784
2011    23      6       0.3103647       70.97979
2011    23      7       0.2631193       61.65506
2011    24      0       0.1333551       35.3651
2011    24      1       0.09164581      26.20098
2011    24      2       0.08205894      24.06099
2011    24      3       0.0875239       25.31527
2011    24      4       0.1041517       28.97836
2011    24      5       0.1183108       32.41967
2011    24      6       0.1209542       33.13287
2011    24      7       0.1312215       35.09715
2011    25      0       0.1430349       37.6965
2011    25      1       0.1604952       41.40329
2011    25      2       0.2439021       58.29998
2011    25      3       0.3962485       86.34745
2011    25      4       0.4623363       98.05704
2011    25      5       0.5491426       112.183
2011    25      6       0.5463121       112.7922
2011    25      7       0.5470892       113.5318
2011    26      0       0.5867885       119.3969
2011    26      1       0.5870388       119.8066
2011    26      2       0.5965099       121.6958
2011    26      3       0.5539702       115.75
2011    26      4       0.617681        124.1539
2011    26      5       0.7404251       139.8179
2011    26      6       0.8822542       156.5405
2011    26      7       0.9984151       173.1899
2011    27      0       1.170642        184.4553
2011    27      1       1.097           177.6818
2011    27      2       0.8486979       157.3742
2011    27      3       0.7801913       145.5019
2011    27      4       0.5790975       117.7383
2011    27      5       0.3940804       88.83869
2011    27      6       0.439099        96.43957
2011    27      7       0.4428059       96.75959
2011    28      0       0.4585009       99.2361
2011    28      1       0.437307        95.39427
2011    28      2       0.421409        92.37826
2011    28      3       0.4005273       88.76735
2011    28      4       0.3827879       85.54873
2011    28      5       0.402142        88.84938
2011    28      6       0.4989298       104.5737
2011    28      7       0.5207276       108.1732
2011    29      0       0.5186224       108.1215
2011    29      1       0.5722663       115.7548
2011    29      2       0.5976852       119.3531
2011    29      3       0.5502637       112.7991
2011    29      4       0.5092899       106.4436
2011    29      5       0.4828813       102.4038
2011    29      6       0.4790579       102.0614
2011    29      7       0.4959544       104.587
2011    30      0       0.545894        111.6933
2011    30      1       0.4828888       102.48
2011    30      2       0.4260416       93.64526
2011    30      3       0.3990535       89.06078
2011    30      4       0.3881147       86.93534
2011    30      5       0.3861197       86.18633
2011    30      6       0.3957815       88.18208
2011    30      7       0.4588956       98.88207
2011    31      0       0.4040431       89.23838
2011    31      1       0.298067        70.00928
2011    31      2       0.2104664       52.6799
2011    31      3       0.08616564      25.52365
2011    31      4       0.09301901      27.00715
2011    31      5       0.118803        32.71869
2011    31      6       0.1436744       38.11064
2011    31      7       0.1706985       43.93803
2012    1       0       1.012951        173.7843
2012    1       1       0.8975813       161.7974
2012    1       2       0.8296371       154.5192
2012    1       3       0.769433        147.8625
2012    1       4       0.7506491       145.8985
2012    1       5       0.7740405       148.5019
2012    1       6       0.8785238       160.8479
2012    1       7       1.024046        176.0098
2012    2       0       1.422353        207.1834
2012    2       1       1.463644        209.3771
2012    2       2       2.021379        237.9009
2012    2       3       0.8372169       155.5457
2012    2       4       0.8123652       151.21
2012    2       5       0.6119538       124.4936
2012    2       6       0.5623642       116.5573
2012    2       7       0.5105848       108.1146
2012    3       0       0.4515207       98.22858
2012    3       1       0.4607971       99.27843
2012    3       2       0.4898595       103.5376
2012    3       3       0.4046454       89.32692
2012    3       4       0.3429085       78.03427
2012    3       5       0.2635945       63.02834
2012    3       6       0.2434246       59.10036
2012    3       7       0.2296003       56.26856
2012    4       0       0.2036515       50.85561
2012    4       1       0.1875151       47.45028
2012    4       2       0.1650652       43.70161
2012    4       3       0.1624696       42.93585
2012    4       4       0.1891828       48.12583
2012    4       5       0.2273097       56.75758
2012    4       6       0.2512498       62.01908
2012    4       7       0.2881017       69.45411
2012    5       0       0.3302665       76.32775
2012    5       1       0.3560091       81.19832
2012    5       2       0.3334178       77.43746
2012    5       3       0.3834689       86.67729
2012    5       4       0.4351879       95.48511
2012    5       5       0.5254769       109.3944
2012    5       6       0.483281        103.4243
2012    5       7       0.4407636       96.60804
2012    6       0       0.3806991       86.26304
2012    6       1       0.3578721       81.87098
2012    6       2       0.4214437       92.07668
2012    6       3       0.5153          107.5888
2012    6       4       0.7149264       136.3899
2012    6       5       0.6459054       128.8512
2012    6       6       0.6653559       132.5197
2012    6       7       0.8369591       154.3517
2012    7       0       0.9242018       163.5587
2012    7       1       0.9956267       171.5161
2012    7       2       0.9580872       168.9976
2012    7       3       0.9511869       168.4125
2012    7       4       0.993815        172.6674
2012    7       5       0.8381222       157.0177
2012    7       6       0.8267393       156.2166
2012    7       7       0.985259        172.8999
2012    8       0       0.9159205       163.9865
2012    8       1       0.7302832       142.0173
2012    8       2       0.5782838       120.0847
2012    8       3       0.5439512       114.3686
2012    8       4       0.61234         123.6491
2012    8       5       0.6306696       126.0022
2012    8       6       0.5090537       108.0986
2012    8       7       0.423351        93.93227
2012    9       0       0.3549281       81.69502
2012    9       1       0.288735        69.1545
2012    9       2       0.2219456       55.72462
2012    9       3       0.2317463       57.36733
2012    9       4       0.220391        55.08937
2012    9       5       0.1904693       49.36967
2012    9       6       0.2952949       70.64589
2012    9       7       0.3710451       85.08194
2012    10      0       0.3879844       87.86838
2012    10      1       0.2796507       67.28271
2012    10      2       0.3348203       77.11612
2012    10      3       0.6146152       122.3222
2012    10      4       0.5951587       120.2892
2012    10      5       0.5726635       117.4423
2012    10      6       0.6604901       130.5764
2012    10      7       0.6469387       129.2914
2012    11      0       0.6393689       127.6657
2012    11      1       0.7196798       137.7729
2012    11      2       0.2798341       67.42583
2012    11      3       0.1977338       50.58998
2012    11      4       0.2046781       51.83101
2012    11      5       0.2382256       58.98269
2012    11      6       0.3492248       80.82233
2012    11      7       0.4064457       91.24848
2012    12      0       0.4538873       99.2951
2012    12      1       0.5990916       121.384
2012    12      2       0.7645836       143.4647
2012    12      3       1.152657        183.0495
2012    12      4       1.35999         199.3545
2012    12      5       1.472647        208.1201
2012    12      6       1.21923         190.8267
2012    12      7       2.124192        239.8573
2012    13      0       2.334051        246.5041
2012    13      1       1.9684          234.6088
2012    13      2       1.866301        229.8654
2012    13      3       2.608748        252.1481
2012    13      4       2.249425        243.4521
2012    13      5       2.236254        244.7007
2012    13      6       0.9652232       167.7326
2012    13      7       0.5234871       109.668
2012    14      0       0.5293198       109.1758
2012    14      1       0.5407175       112.0975
2012    14      2       0.5420459       113.0696
2012    14      3       0.5109757       107.6703
2012    14      4       0.4516647       97.66873
2012    14      5       0.4335811       93.53528
2012    14      6       0.3309582       75.51701
2012    14      7       0.3306702       75.33017
2012    15      0       0.2247811       55.18207
2012    15      1       0.1789749       45.63596
2012    15      2       0.1664977       42.834
2012    15      3       0.1615729       41.67226
2012    15      4       0.1604598       41.25909
2012    15      5       0.1659781       42.34666
2012    15      6       0.1822333       45.80372
2012    15      7       0.1910649       47.54331
2012    16      0       0.1416523       37.18819
2012    16      1       0.1253297       33.98402
2012    16      2       0.1623556       42.2946
2012    16      3       0.1671611       43.4706
2012    16      4       0.1741759       44.99787
2012    16      5       0.1705747       44.51412
2012    16      6       0.1779471       45.9853
2012    16      7       0.3540678       79.88754
2012    17      0       0.4449712       96.20347
2012    17      1       0.5787838       117.9128
2012    17      2       0.6983183       134.9582
2012    17      3       0.825842        150.5818
2012    17      4       0.9025782       159.9523
2012    17      5       0.8398498       154.1272
2012    17      6       1.021734        173.9512
2012    17      7       1.343891        199.8769
2012    18      0       1.707458        223.6331
2012    18      1       2.417133        250.7006
2012    18      2       1.77797         230.305
2012    18      3       0.7697245       147.7511
2012    18      4       0.4709908       103.1195
2012    18      5       0.3727475       84.9729
2012    18      6       0.3092174       72.73302
2012    18      7       0.2647047       63.72747
2012    19      0       0.184707        47.16183
2012    19      1       0.1347825       36.38931
2012    19      2       0.1435715       38.28297
2012    19      3       0.1608379       42.01861
2012    19      4       0.1847028       47.00216
2012    19      5       0.2420331       58.63188
2012    19      6       0.3629014       81.18833
2012    19      7       0.4663222       98.82675
2012    20      0       0.4648316       98.66024
2012    20      1       0.5871219       116.692
2012    20      2       0.9293411       158.6596
2012    20      3       0.5350302       109.9294
2012    20      4       0.4321496       94.002
2012    20      5       0.4490463       96.36752
2012    20      6       0.2684527       64.394
2012    20      7       0.2460859       59.9767
2012    21      0       0.1845486       47.39114
2012    21      1       0.1938111       49.57293
2012    21      2       0.2886335       68.36864
2012    21      3       0.3891927       86.39241
2012    21      4       0.4998188       105.4991
2012    21      5       0.6578605       127.3725
2012    21      6       0.6506122       127.9891
2012    21      7       0.4318346       98.34655
2012    22      0       0.2640088       67.05244
2012    22      1       0.240488        61.73114
2012    22      2       0.2236701       57.32524
2012    22      3       0.2250139       57.03156
2012    22      4       0.218725        55.53285
2012    22      5       0.2083995       53.28667
2012    22      6       0.2989895       71.32656
2012    22      7       0.3744013       85.20844
2012    23      0       0.3778574       86.39641
2012    23      1       0.3785771       86.70234
2012    23      2       0.2690424       67.03209
2012    23      3       0.3120892       76.78828
2012    23      4       0.5885936       126.4727
2012    23      5       0.8615019       163.6182
2012    23      6       1.326761        201.2948
2012    23      7       1.702319        224.8865
2012    24      0       2.314256        248.92
2012    24      1       2.800753        261.4788
2012    24      2       1.894607        235.8917
2012    24      3       1.208486        194.4528
2012    24      4       0.9444597       169.7292
2012    24      5       0.6176701       128.1447
2012    24      6       0.7122258       140.7026
2012    24      7       0.8040185       152.4675
2012    25      0       0.7150213       140.1612
2012    25      1       0.6705152       133.4539
2012    25      2       0.4943206       106.4007
2012    25      3       0.5564648       116.1453
2012    25      4       0.6531555       129.7601
2012    25      5       0.547326        115.1298
2012    25      6       0.5974293       122.5964
2012    25      7       0.6122877       124.1541
2012    26      0       0.5975155       121.0921
2012    26      1       0.5653727       115.0938
2012    26      2       0.5726543       115.9252
2012    26      3       0.6069327       121.6367
2012    26      4       0.2852833       69.22701
2012    26      5       0.2420783       60.82118
2012    26      6       0.3118917       74.5881
2012    26      7       0.5955894       120.4926
2012    27      0       0.910047        162.3286
2012    27      1       1.165946        188.0281
2012    27      2       1.31144         200.4542
2012    27      3       1.675999        220.252
2012    27      4       2.310663        246.2272
2012    27      5       2.356431        251.158
2012    27      6       2.274922        248.7407
2012    27      7       1.826883        230.8583
2012    28      0       0.9767189       170.7862
2012    28      1       0.7266498       139.9277
2012    28      2       0.5540193       116.2395
2012    28      3       0.5289973       112.2714
2012    28      4       0.3552095       82.52154
2012    28      5       0.3039782       72.06009
2012    28      6       0.421326        93.26708
2012    28      7       0.5475799       114.2878
2012    29      0       0.5863768       120.6739
2012    29      1       0.545287        115.239
2012    29      2       0.4776742       103.6568
2012    29      3       0.4201724       93.12058
2012    29      4       0.4423602       95.8761
2012    29      5       0.4062767       89.68934
2012    29      6       0.4894084       103.4845
2012    29      7       0.4817953       102.3924
2012    30      0       0.4369919       95.18928
2012    30      1       0.39208         87.62534
2012    30      2       0.3552835       80.95532
2012    30      3       0.6035208       120.5011
2012    30      4       0.594011        118.4587
2012    30      5       0.2642142       63.1974
2012    30      6       0.2993539       70.14781
2012    30      7       0.3529927       80.24071
2012    31      0       0.389006        86.39067
2012    31      1       0.4335934       94.10318
2012    31      2       0.4749098       100.483
2012    31      3       0.5785614       116.676
2012    31      4       1.206887        185.9521
2012    31      5       0.7226504       137.9856
2012    31      6       0.9434901       164.0823
2012    31      7       0.8551939       155.776
2013    1       0       0.627432        125.0027
2013    1       1       0.7355796       138.2699
2013    1       2       0.7621994       142.3616
2013    1       3       0.6010865       122.1781
2013    1       4       0.5089409       108.2807
2013    1       5       0.4703687       101.4846
2013    1       6       0.4288377       93.96215
2013    1       7       0.297594        70.31571
2013    2       0       0.2322688       57.36332
2013    2       1       0.1845747       47.33609
2013    2       2       0.1947522       49.30295
2013    2       3       0.2230431       55.12801
2013    2       4       0.2550648       61.77662
2013    2       5       0.3546264       81.05503
2013    2       6       0.3720256       84.34043
2013    2       7       0.3005562       71.75192
2013    3       0       0.2373048       58.35516
2013    3       1       0.1603801       42.33771
2013    3       2       0.08695899      25.64884
2013    3       3       0.1817677       47.89551
2013    3       4       0.171704        45.0302
2013    3       5       0.1742342       45.47909
2013    3       6       0.2092604       52.36228
2013    3       7       0.2417725       58.96971
2013    4       0       0.3229794       74.26797
2013    4       1       0.3828699       85.02071
2013    4       2       0.454381        97.85951
2013    4       3       0.5153988       108.74
2013    4       4       0.5472013       113.6273
2013    4       5       0.6456326       127.4046
2013    4       6       0.7813995       144.9095
2013    4       7       0.7547553       141.697
2013    5       0       0.5954228       121.4196
2013    5       1       0.487341        105.1689
2013    5       2       0.4985362       106.5635
2013    5       3       0.4774598       103.3818
2013    5       4       0.4774671       103.7762
2013    5       5       0.6083526       123.2183
2013    5       6       0.6517063       128.9048
2013    5       7       0.5733632       121.8808
2013    6       0       0.407664        91.462
2013    6       1       0.3737562       85.35511
2013    6       2       0.5039394       106.5656
2013    6       3       0.7256393       136.9289
2013    6       4       0.6934103       133.752
2013    6       5       0.6170918       124.3151
2013    6       6       0.6604158       130.5068
2013    6       7       0.6732123       132.1856
2013    7       0       0.6537521       129.0883
2013    7       1       0.6828666       132.7044
2013    7       2       0.6818803       132.7197
2013    7       3       0.6952118       134.6415
2013    7       4       0.5112925       108.3723
2013    7       5       0.39921         89.71512
2013    7       6       0.4259805       94.0596
2013    7       7       0.3948667       88.97112
2013    8       0       0.2790562       69.3415
2013    8       1       0.2790069       70.56235
2013    8       2       0.3259703       77.87676
2013    8       3       0.4590187       101.783
2013    8       4       0.3275243       78.55401
2013    8       5       0.3405168       81.02752
2013    8       6       0.3774798       87.88157
2013    8       7       0.3329938       79.58392
2013    9       0       0.3901853       89.81033
2013    9       1       0.4592816       101.7306
2013    9       2       0.4594446       101.5189
2013    9       3       0.4492836       100.0708
2013    9       4       0.439203        98.66972
2013    9       5       0.3329775       79.61662
2013    9       6       0.3340415       79.18539
2013    9       7       1.053383        176.0168
2013    10      0       0.927277        164.9924
2013    10      1       0.6565734       130.4643
2013    10      2       0.6332591       127.0701
2013    10      3       0.6110227       123.6138
2013    10      4       1.238482        191.0425
2013    10      5       0.8787581       158.2076
2013    10      6       0.7478545       143.2748
2013    10      7       0.5423347       114.8772
2013    11      0       0.3961383       90.5552
2013    11      1       0.3041504       73.52567
2013    11      2       0.2532672       63.51466
2013    11      3       0.2450154       61.71245
2013    11      4       0.246656        61.53658
2013    11      5       0.3217573       75.50976
2013    11      6       0.5216242       109.4323
2013    11      7       0.8077552       149.1846
2013    12      0       0.8429929       153.9824
2013    12      1       2.297973        244.4698
2013    12      2       1.919675        232.8621
2013    12      3       2.46868         250.801
2013    12      4       2.347164        249.2035
2013    12      5       2.122332        243.4876
2013    12      6       1.758333        229.9435
2013    12      7       2.686426        258.8867
2013    13      0       2.609779        257.5108
2013    13      1       1.975592        239.4791
2013    13      2       1.358443        207.0055
2013    13      3       1.190414        194.4327
2013    13      4       1.100606        186.7926
2013    13      5       1.061139        183.4264
2013    13      6       1.652346        226.6092
2013    13      7       1.95567         240.6816
2013    14      0       2.064754        244.5984
2013    14      1       1.970493        240.9445
2013    14      2       1.900075        238.8105
2013    14      3       1.873828        237.2793
2013    14      4       2.010487        243.3724
2013    14      5       1.038617        180.5681
2013    14      6       0.6352105       130.9868
2013    14      7       0.7815207       149.9478
2013    15      0       0.7115371       139.3037
2013    15      1       0.6797602       133.5737
2013    15      2       0.7746215       144.8183
2013    15      3       0.5653316       120.3363
2013    15      4       0.4232339       99.05762
2013    15      5       0.4344246       101.3687
2013    15      6       0.4459383       102.3459
2013    15      7       0.5184023       110.6988
2013    16      0       0.4672709       106.0176
2013    16      1       0.5002084       109.4637
2013    16      2       0.6138663       122.5267
2013    16      3       0.8306515       150.1028
2013    16      4       0.9472946       163.7403
2013    16      5       1.254745        198.5643
2013    16      6       1.511701        209.5575
2013    16      7       1.58113         213.5619
2013    17      0       0.7614334       144.4603
2013    17      1       0.6570688       131.3477
2013    17      2       0.6177762       126.0731
2013    17      3       0.3605353       83.4829
2013    17      4       0.6572421       129.8143
2013    17      5       0.5980113       121.6531
2013    17      6       0.5598489       116.1867
2013    17      7       0.5830899       118.4217
2013    18      0       0.5278839       108.5303
2013    18      1       0.4542865       96.38309
2013    18      2       0.3577434       80.18427
2013    18      3       0.2793373       65.37627
2013    18      4       0.1436434       38.20097
2013    18      5       0.1391149       37.11656
2013    18      6       0.173718        44.80686
2013    18      7       0.2160923       53.823
2013    19      0       0.2466446       59.95513
2013    19      1       0.3043347       71.18503
2013    19      2       0.3434178       78.46189
2013    19      3       0.4679204       99.78204
2013    19      4       0.5381156       110.9452
2013    19      5       0.535606        111.6816
2013    19      6       0.5955281       121.2713
2013    19      7       0.6404805       127.9706
2013    20      0       0.6263635       126.106
2013    20      1       0.5813704       119.9172
2013    20      2       0.5517594       115.3353
2013    20      3       0.5226616       111.8988
2013    20      4       0.4151321       94.90084
2013    20      5       0.6974059       138.1566
2013    20      6       0.7147705       139.9892
2013    20      7       0.4395821       97.2072
2013    21      0       0.36977         84.01347
2013    21      1       0.3168611       73.90722
2013    21      2       0.2928136       69.03152
2013    21      3       0.2459639       59.87856
2013    21      4       0.221713        54.63643
2013    21      5       0.2464233       59.26852
2013    21      6       0.2934634       68.47539
2013    21      7       0.4191556       90.20488
2013    22      0       0.4496854       95.09423
2013    22      1       0.4357983       93.23118
2013    22      2       0.4509413       95.7459
2013    22      3       0.3878702       85.4538
2013    22      4       0.3559998       79.22804
2013    22      5       0.326562        73.56036
2013    22      6       0.2400377       57.45188
2013    22      7       0.2256687       54.56977
2013    23      0       0.2340016       55.98295
2013    23      1       0.1813815       45.26612
2013    23      2       0.1911113       47.30695
2013    23      3       0.1867697       46.27879
2013    23      4       0.1417039       36.8282
2013    23      5       0.129352        34.12715
2013    23      6       0.1269352       33.73568
2013    23      7       0.1344058       35.43723
2013    24      0       0.137801        36.01202
2013    24      1       0.1284761       33.87718
2013    24      2       0.1083869       29.49206
2013    24      3       0.1053559       28.86527
2013    24      4       0.1087772       29.59975
2013    24      5       0.1237128       32.92368
2013    24      6       0.1533923       39.43165
2013    24      7       0.1714004       43.33062
2013    25      0       0.1624139       41.45419
2013    25      1       0.1523838       39.33066
2013    25      2       0.1480272       38.60036
2013    25      3       0.1440091       38.10222
2013    25      4       0.1328217       35.77591
2013    25      5       0.1112024       31.00059
2013    25      6       0.1572435       40.92947
2013    25      7       0.223569        54.40551
2013    26      0       0.2743208       63.81548
2013    26      1       0.3208162       72.39881
2013    26      2       0.3100558       70.82536
2013    26      3       0.2783043       65.14848
2013    26      4       0.2404274       58.04203
2013    26      5       0.2193604       53.9882
2013    26      6       0.2320767       56.61824
2013    26      7       0.2482876       59.51364
2013    27      0       0.2146547       52.56203
2013    27      1       0.196618        48.75727
2013    27      2       0.2261765       54.75015
2013    27      3       0.195696        48.86599
2013    27      4       0.1097179       30.75078
2013    27      5       0.1105113       31.01966
2013    27      6       0.1652498       43.13335
2013    27      7       0.1817935       46.67049
2013    28      0       0.1207789       33.36533
2013    28      1       0.1183183       32.87591
2013    28      2       0.1396117       37.70485
2013    28      3       0.14252         38.35825
2013    28      4       0.2020171       50.74574
2013    28      5       0.3441793       77.96526
2013    28      6       0.5776886       117.6254
2013    28      7       0.7786745       145.1589
2013    29      0       0.7012311       139.0718
2013    29      1       0.9389064       169.927
2013    29      2       0.8611378       155.4747
2013    29      3       0.968838        167.0069
2013    29      4       0.8836985       158.9443
2013    29      5       0.9855686       176.2197
2013    29      6       0.9940654       178.013
2013    29      7       1.172369        196.173
2013    30      0       1.502545        214.7365
2013    30      1       1.101575        186.9444
2013    30      2       1.418485        205.6225
2013    30      3       2.323353        247.5462
2013    30      4       3.141056        265.3168
2013    30      5       2.08001         245.1015
2013    30      6       2.090036        246.8502
2013    30      7       2.224368        250.942
2013    31      0       2.37798         254.9368
2013    31      1       2.399917        255.4904
2013    31      2       2.874672        264.704
2013    31      3       2.992466        266.4434
2013    31      4       2.715025        262.2952
2013    31      5       1.007193        174.1172
2013    31      6       0.5952268       122.4172
2013    31      7       0.4087617       92.04294
2014    1       0       0.348772        78.55639
2014    1       1       0.323539        74.35174
2014    1       2       0.2949681       69.13519
2014    1       3       0.2993251       70.0401
2014    1       4       0.2602071       62.48338
2014    1       5       0.2512583       60.71489
2014    1       6       0.3302608       75.55654
2014    1       7       0.3450052       78.27971
2014    2       0       0.3503849       79.15328
2014    2       1       0.3837682       84.79079
2014    2       2       0.4590356       96.80017
2014    2       3       0.530937        107.5252
2014    2       4       0.548117        110.3563
2014    2       5       0.6426749       124.2114
2014    2       6       0.9087187       159.2861
2014    2       7       0.9194518       156.9422
2014    3       0       0.8519561       150.9456
2014    3       1       0.7375098       135.9572
2014    3       2       0.5849995       115.7972
2014    3       3       0.5419843       110.0639
2014    3       4       0.4481965       94.98566
2014    3       5       0.3146787       71.33867
2014    3       6       0.2281775       54.99869
2014    3       7       0.1368048       36.20878
2014    4       0       0.08922844      25.83664
2014    4       1       0.1211054       32.95357
2014    4       2       0.1636871       42.83865
2014    4       3       0.2075608       52.27216
2014    4       4       0.2182619       54.70283
2014    4       5       0.2176458       54.52787
2014    4       6       0.1972958       50.31574
2014    4       7       0.2246317       57.15912
2014    5       0       0.2124475       53.6874
2014    5       1       0.2119169       53.66063
2014    5       2       0.2058368       53.18285
2014    5       3       0.2545844       63.66712
2014    5       4       0.3098477       74.70413
2014    5       5       0.2980636       72.39495
2014    5       6       0.3327368       79.33215
2014    5       7       0.9204158       165.0165
2014    6       0       1.338702        201.7524
2014    6       1       2.404466        249.9545
2014    6       2       2.755423        259.9714
2014    6       3       3.094737        266.9292
2014    6       4       2.618238        258.8422
2014    6       5       2.544797        258.6802
2014    6       6       1.97017         238.2148
2014    6       7       1.035464        175.8115
2014    7       0       0.7142614       138.1419
2014    7       1       0.3843942       87.223
2014    7       2       0.3133381       73.20744
2014    7       3       0.2103846       52.18105
2014    7       4       0.1826342       46.00892
2014    7       5       0.1653056       42.078
2014    7       6       0.1514692       39.11278
2014    7       7       0.1483509       38.66957
2014    8       0       0.1457593       38.09997
2014    8       1       0.1458619       38.27261
2014    8       2       0.1608271       41.57325
2014    8       3       0.1658178       42.70674
2014    8       4       0.1719279       44.10818
2014    8       5       0.1866147       47.21855
2014    8       6       0.2351976       57.22568
2014    8       7       0.2366002       57.82665
2014    9       0       0.2200923       54.6026
2014    9       1       0.2676378       63.66727
2014    9       2       0.3008497       69.84932
2014    9       3       0.2584657       62.08825
2014    9       4       0.2668942       63.91692
2014    9       5       0.2419647       59.20908
2014    9       6       0.2537555       61.94145
2014    9       7       0.245399        60.36082
2014    10      0       0.2235731       56.0241
2014    10      1       0.2265751       56.73691
2014    10      2       0.2648626       64.24134
2014    10      3       0.3589008       81.37958
2014    10      4       0.5902242       118.3842
2014    10      5       0.7961383       145.8939
2014    10      6       0.8264873       149.9156
2014    10      7       0.7067651       137.0418
2014    11      0       0.7346627       141.8329
2014    11      1       0.8585098       157.8964
2014    11      2       1.397647        205.8104
2014    11      3       1.777422        228.2945
2014    11      4       2.14809         243.4914
2014    11      5       2.23973         248.5481
2014    11      6       2.924992        264.1763
2014    11      7       3.174203        269.3323
2014    12      0       3.067941        267.9443
2014    12      1       2.246607        249.0518
2014    12      2       1.598419        219.4165
2014    12      3       1.295216        196.8174
2014    12      4       0.7639057       145.3146
2014    12      5       0.6280956       127.2674
2014    12      6       0.6218855       126.308
2014    12      7       0.5626182       117.7771
2014    13      0       0.5204955       111.5145
2014    13      1       0.5405038       114.6861
2014    13      2       0.5996592       123.1147
2014    13      3       0.5900337       121.5211
2014    13      4       0.4823692       105.4741
2014    13      5       0.3931913       90.87641
2014    13      6       0.3034215       74.1916
2014    13      7       0.6328282       128.9709
2014    14      0       0.6811773       136.1857
2014    14      1       0.7970642       150.1038
2014    14      2       1.121868        184.5927
2014    14      3       1.169816        187.7279
2014    14      4       1.278043        196.6853
2014    14      5       1.344818        202.0426
2014    14      6       1.545075        214.4098
2014    14      7       1.613841        218.1816
2014    15      0       1.506666        211.4837
2014    15      1       1.05829         178.6698
2014    15      2       0.8674716       158.1078
2014    15      3       1.112371        182.3844
2014    15      4       0.7696556       146.1104
2014    15      5       0.483056        105.5834
2014    15      6       0.6128024       125.5329
2014    15      7       0.6203137       126.762
2014    16      0       0.5847411       121.6963
2014    16      1       0.565325        119.0957
2014    16      2       0.7743238       147.5107
2014    16      3       0.8962274       161.1189
2014    16      4       0.954556        166.286
2014    16      5       1.011868        171.1552
2014    16      6       1.041753        173.4509
2014    16      7       0.9786406       167.1561
2014    17      0       1.064571        175.6504
2014    17      1       1.279987        194.2098
2014    17      2       1.414812        204.6045
2014    17      3       1.107379        181.4735
2014    17      4       0.7947066       148.7199
2014    17      5       0.4803438       104.4112
2014    17      6       0.445533        98.56041
2014    17      7       0.4694702       102.5292
2014    18      0       0.4898452       105.2976
2014    18      1       0.5973297       120.8265
2014    18      2       0.5833654       119.0736
2014    18      3       0.5967569       120.5418
2014    18      4       0.7533617       140.6454
2014    18      5       0.8449761       151.9768
2014    18      6       1.521106        208.2006
2014    18      7       1.237465        188.7983
2014    19      0       1.330589        195.4921
2014    19      1       1.165163        182.3672
2014    19      2       0.8908748       156.6189
2014    19      3       0.8639422       154.412
2014    19      4       1.05669         172.1565
2014    19      5       0.9149559       158.1428
2014    19      6       0.4897933       103.493
2014    19      7       0.4952367       104.7005
2014    20      0       0.5304249       110.3511
2014    20      1       0.472183        102.5131
2014    20      2       0.5538072       115.5103
2014    20      3       0.5925227       120.6021
2014    20      4       0.569176        117.2683
2014    20      5       0.5577775       115.766
2014    20      6       0.5917997       121.1671
2014    20      7       0.6704376       131.5051
2014    21      0       0.4770163       101.6962
2014    21      1       0.2802393       66.69859
2014    21      2       0.2296371       57.74294
2014    21      3       0.2118937       53.55149
2014    21      4       0.2208116       54.89321
2014    21      5       0.2320767       57.15451
2014    21      6       0.2679265       64.07085
2014    21      7       0.3252368       74.64592
2014    22      0       0.3690411       82.1872
2014    22      1       0.4231539       91.54238
2014    22      2       0.4033812       88.59367
2014    22      3       0.3545222       80.12503
2014    22      4       0.2966969       69.64607
2014    22      5       0.2269066       56.28704
2014    22      6       0.2137497       53.51735
2014    22      7       0.1915403       48.35112
2014    23      0       0.1596929       41.59901
2014    23      1       0.1579113       41.08263
2014    23      2       0.1648189       42.36383
2014    23      3       0.1664265       42.66873
2014    23      4       0.1646981       42.27865
2014    23      5       0.1635689       41.92106
2014    23      6       0.1919147       47.76122
2014    23      7       0.1978442       48.97284
2014    24      0       0.1899756       47.22297
2014    24      1       0.184979        46.08132
2014    24      2       0.1787985       44.67765
2014    24      3       0.1736707       43.53035
2014    24      4       0.1692532       42.57312
2014    24      5       0.1680752       42.48185
2014    24      6       0.1654167       42.29505
2014    24      7       0.1725612       44.03386
2014    25      0       0.2060608       51.0084
2014    25      1       0.2425841       58.20166
2014    25      2       0.2619873       62.20658
2014    25      3       0.2638655       62.70623
2014    25      4       0.3241877       74.7741
2014    25      5       0.478731        101.2299
2014    25      6       0.6400536       125.0589
2014    25      7       0.6940077       132.0319
2014    26      0       0.713501        134.4672
2014    26      1       0.5906472       117.9603
2014    26      2       0.4061076       89.03223
2014    26      3       0.3487461       78.14568
2014    26      4       0.2013988       50.10562
2014    26      5       0.1662552       42.92313
2014    26      6       0.1914811       48.41735
2014    26      7       0.3129316       71.81846
2014    27      0       0.2613098       63.74374
2014    27      1       0.3019122       71.96199
2014    27      2       0.3456367       79.80354
2014    27      3       0.4013616       90.65096
2014    27      4       0.6672898       131.8086
2014    27      5       0.7908883       147.3086
2014    27      6       0.9615709       165.3638
2014    27      7       0.4573373       98.42212
2014    28      0       0.280328        67.28781
2014    28      1       0.2334318       56.9732
2014    28      2       0.1918939       48.42704
2014    28      3       0.2102142       52.03861
2014    28      4       0.1895907       47.74706
2014    28      5       0.1710244       43.79849
2014    28      6       0.1842356       46.57104
2014    28      7       0.2389455       57.42241
2014    29      0       0.2504833       59.51647
2014    29      1       0.2451141       58.44534
2014    29      2       0.2950482       67.99306
2014    29      3       0.3466864       77.38676
2014    29      4       0.3477816       77.5616
2014    29      5       0.2005631       50.19112
2014    29      6       0.1702829       44.10151
2014    29      7       0.2056552       51.42655
2014    30      0       0.1956865       49.484
2014    30      1       0.1716758       45.11407
2014    30      2       0.1875367       48.92557
2014    30      3       0.1996588       51.47874
2014    30      4       0.2121033       54.39596
2014    30      5       0.2230035       56.95284
2014    30      6       0.2154439       55.94593
2014    30      7       0.2406553       61.16665
2014    31      0       0.2350072       60.21669
2014    31      1       0.1689579       45.72742
2014    31      2       0.3334876       77.11308
2014    31      3       0.6554925       128.4033
2014    31      4       0.3000987       71.38759
2014    31      5       0.3486561       81.09374
2014    31      6       0.5359632       111.8182
2014    31      7       0.6700513       130.5779
2015    1       0       0.2611443       62.68581
2015    1       1       0.1961661       49.60362
2015    1       2       0.228194        55.88075
2015    1       3       0.2549324       61.01673
2015    1       4       0.2430362       58.99637
2015    1       5       0.3129939       72.50152
2015    1       6       0.3989891       88.17404
2015    1       7       0.4139635       91.01557
2015    2       0       0.487318        103.1438
2015    2       1       0.4447065       97.04443
2015    2       2       0.4486991       97.87941
2015    2       3       0.4454217       97.28069
2015    2       4       0.4663314       100.7121
2015    2       5       0.4686709       101.0425
2015    2       6       0.4157776       92.43697
2015    2       7       0.3885644       87.52706
2015    3       0       0.3279233       76.41892
2015    3       1       0.2493484       61.25768
2015    3       2       0.2266468       57.12735
2015    3       3       0.2395072       60.10877
2015    3       4       0.2594275       64.17406
2015    3       5       0.3156779       74.68748
2015    3       6       0.4978204       104.9854
2015    3       7       0.6997717       135.0059
2015    4       0       1.038045        172.1357
2015    4       1       1.266627        199.0898
2015    4       2       2.148583        240.6336
2015    4       3       1.957232        235.5144
2015    4       4       2.569673        255.9127
2015    4       5       3.232768        266.0536
2015    4       6       2.881594        263.2318
2015    4       7       1.828315        234.2617
2015    5       0       1.724597        227.8282
2015    5       1       1.433161        208.9022
2015    5       2       1.099135        181.8179
2015    5       3       0.8643383       156.9438
2015    5       4       0.5038175       107.4151
2015    5       5       0.3659698       82.89545
2015    5       6       0.249354        60.55232
2015    5       7       0.2033862       51.16201
2015    6       0       0.1783889       45.5817
2015    6       1       0.1498937       39.31024
2015    6       2       0.1376154       36.84032
2015    6       3       0.1787565       45.51756
2015    6       4       0.2224298       54.19718
2015    6       5       0.3093517       70.3775
2015    6       6       0.3572655       78.78713
2015    6       7       0.3221191       72.70725
2015    7       0       0.2992819       68.60688
2015    7       1       0.2708081       63.34063
2015    7       2       0.2494454       59.49169
2015    7       3       0.2502493       59.59558
2015    7       4       0.243419        58.29744
2015    7       5       0.2606275       61.46932
2015    7       6       0.2877886       66.32759
2015    7       7       0.2665219       62.03334
2015    8       0       0.1720011       43.08463
2015    8       1       0.1486211       38.17964
2015    8       2       0.1355137       35.35362
2015    8       3       0.1255374       33.21185
2015    8       4       0.1145232       30.8295
2015    8       5       0.1454566       37.77241
2015    8       6       0.1975721       48.93512
2015    8       7       0.2547832       60.49231
2015    9       0       0.2570147       61.09903
2015    9       1       0.2862796       66.74613
2015    9       2       0.3683029       81.65879
2015    9       3       0.4450655       94.47643
2015    9       4       0.6069874       119.2762
2015    9       5       0.5342072       108.5461
2015    9       6       0.3360209       77.1141
2015    9       7       0.3072064       71.91743
2015    10      0       0.268022        64.32109
2015    10      1       0.2316445       57.05843
2015    10      2       0.2427164       58.98053
2015    10      3       0.1880027       47.69174
2015    10      4       0.1896858       47.88038
2015    10      5       0.2140508       52.65929
2015    10      6       0.2223772       54.55292
2015    10      7       0.2238286       55.04042
2015    11      0       0.1914806       48.58904
2015    11      1       0.1920208       48.75312
2015    11      2       0.1995031       50.34037
2015    11      3       0.2259837       55.98734
2015    11      4       0.2117911       53.25663
2015    11      5       0.2076231       53.17194
2015    11      6       0.255122        62.71296
2015    11      7       0.2960407       71.70391
2015    12      0       0.3455435       79.93913
2015    12      1       0.3486668       80.40889
2015    12      2       0.3677499       83.91653
2015    12      3       0.4832315       103.5241
2015    12      4       0.8653369       155.3828
2015    12      5       1.092082        178.5827
2015    12      6       1.133596        182.3539
2015    12      7       1.091113        178.794
2015    13      0       0.851           157.9578
2015    13      1       0.8003045       151.4673
2015    13      2       0.8856381       161.0551
2015    13      3       0.2648003       65.60229
2015    13      4       0.1572595       41.92492
2015    13      5       0.1348226       36.91773
2015    13      6       0.1662692       43.82997
2015    13      7       0.1642093       44.48014
2015    14      0       0.1322957       37.21248
2015    14      1       0.1175625       33.76791
2015    14      2       0.1304725       36.72247
2015    14      3       0.177551        47.2708
2015    14      4       0.3195272       76.67535
2015    14      5       0.7346159       142.4087
2015    14      6       0.7373403       144.2412
2015    14      7       0.718646        143.4425
2015    15      0       0.6362148       126.713
2015    15      1       0.7097004       136.8252
2015    15      2       0.81648         149.8556
2015    15      3       0.8153562       149.727
2015    15      4       0.818869        150.1515
2015    15      5       0.9120296       160.441
2015    15      6       0.9015835       159.1087
2015    15      7       0.8310629       151.3717
2015    16      0       0.6753471       131.9914
2015    16      1       0.3183833       75.13985
2015    16      2       0.2943607       70.47027
2015    16      3       0.4032527       90.36529
2015    16      4       0.5040454       106.6793
2015    16      5       0.4855458       104.1148
2015    16      6       0.4280057       94.57919
2015    16      7       0.2758325       65.78755
2015    17      0       0.1882432       47.41514
2015    17      1       0.1911308       47.65742
2015    17      2       0.1830762       46.16994
2015    17      3       0.1514002       39.83193
2015    17      4       0.1243581       33.95014
2015    17      5       0.1574931       41.71154
2015    17      6       0.2171432       54.63178
2015    17      7       0.2282655       57.14273
2015    18      0       0.2830398       68.14287
2015    18      1       0.2564077       62.9176
2015    18      2       0.3090168       73.75739
2015    18      3       0.5342684       113.0665
2015    18      4       0.6751146       133.9636
2015    18      5       1.123255        183.8588
2015    18      6       1.933388        232.9292
2015    18      7       2.040767        237.4405
2015    19      0       2.259388        244.7737
2015    19      1       1.659438        220.7187
2015    19      2       1.685873        221.7105
2015    19      3       0.7572626       144.5447
2015    19      4       0.6694949       132.408
2015    19      5       0.6637044       131.149
2015    19      6       0.7691459       144.3818
2015    19      7       0.7346126       139.7445
2015    20      0       0.6553652       128.8398
2015    20      1       0.5084043       106.96
2015    20      2       0.3864321       87.03032
2015    20      3       0.3011952       71.58665
2015    20      4       0.2228535       55.80773
2015    20      5       0.2256069       56.27398
2015    20      6       0.2756287       66.2112
2015    20      7       0.3119159       72.98982
2015    21      0       0.215909        54.06762
2015    21      1       0.1926265       49.22375
2015    21      2       0.1984707       50.45695
2015    21      3       0.1625236       43.15394
2015    21      4       0.1505339       40.77804
2015    21      5       0.1619974       43.25458
2015    21      6       0.1901041       49.11855
2015    21      7       0.2315595       57.385
2015    22      0       0.267954        64.652
2015    22      1       0.4079824       90.05193
2015    22      2       0.6238373       122.7204
2015    22      3       0.6939602       132.2638
2015    22      4       0.5930458       118.8576
2015    22      5       0.565748        114.7289
2015    22      6       0.4920999       103.7519
2015    22      7       0.4807253       102.2251
2015    23      0       0.4400556       95.83738
2015    23      1       0.35881         81.79822
2015    23      2       0.1837864       47.62178
2015    23      3       0.3313087       76.56582
2015    23      4       0.3955909       87.90889
2015    23      5       0.3978814       88.53187
2015    23      6       0.4520059       98.3655
2015    23      7       0.4530252       99.17241
2015    24      0       0.3655884       84.4633
2015    24      1       0.3555333       82.62873
2015    24      2       0.4088496       91.97122
2015    24      3       0.6725768       131.1732
2015    24      4       0.8515777       153.1138
2015    24      5       1.009807        169.6998
2015    24      6       1.109358        179.5324
2015    24      7       1.085205        177.6801
2015    25      0       0.8815455       156.0699
2015    25      1       0.5179295       109.2607
2015    25      2       0.5014592       107.2046
2015    25      3       0.5666554       117.0131
2015    25      4       0.5724256       118.0884
2015    25      5       0.432294        95.57963
2015    25      6       0.296078        70.72784
2015    25      7       0.2647451       64.50512
2015    26      0       0.1860039       49.27639
2015    26      1       0.1173515       32.68759
2015    26      2       0.1311385       35.74116
2015    26      3       0.1479425       39.3447
2015    26      4       0.180536        46.16263
2015    26      5       0.2585374       63.05691
2015    26      6       0.490963        104.5836
2015    26      7       0.5849476       116.3614
2015    27      0       0.5557982       112.9164
2015    27      1       0.6709015       131.3745
2015    27      2       0.6265239       124.6327
2015    27      3       0.6213336       122.6885
2015    27      4       0.6167137       121.2347
2015    27      5       0.6854742       130.2196
2015    27      6       0.599733        118.8096
2015    27      7       0.559219        116.1126
2015    28      0       0.5757671       115.9074
2015    28      1       0.4784814       100.8438
2015    28      2       0.3989529       89.07244
2015    28      3       0.3126387       74.16872
2015    28      4       0.2631756       64.46728
2015    28      5       0.2762985       67.34306
2015    28      6       0.3468439       81.70843
2015    28      7       0.3857239       86.14668
2015    29      0       0.2274676       56.38812
2015    29      1       0.1418556       38.56367
2015    29      2       0.1182183       33.47528
2015    29      3       0.1188443       33.59324
2015    29      4       0.1153745       32.79827
2015    29      5       0.124275        34.77923
2015    29      6       0.1738125       45.75739
2015    29      7       0.2832768       68.24299
2015    30      0       0.5047287       106.2705
2015    30      1       0.6409093       126.1769
2015    30      2       1.287911        192.6624
2015    30      3       1.09555         178.4763
2015    30      4       1.302388        194.8995
2015    30      5       1.041292        172.4707
2015    30      6       0.9422286       162.241
2015    30      7       0.7944379       146.2056
2015    31      0       0.5784548       117.133
2015    31      1       0.3307906       76.33782
2015    31      2       0.3300914       75.70992
2015    31      3       0.3004808       69.75859
2015    31      4       0.2891994       67.43624
2015    31      5       0.1997535       50.12677
2015    31      6       0.1509483       39.86206
2015    31      7       0.1282324       35.08571
2016    1       0       0.6384881       128.2037
2016    1       1       0.8210675       151.3976
2016    1       2       0.5355546       113.0488
2016    1       3       0.530828        111.7104
2016    1       4       0.5260822       110.6412
2016    1       5       0.5234179       110.0749
2016    1       6       0.5794735       118.3996
2016    1       7       0.6458235       127.7187
2016    5       0       0.225883        55.41457
2016    5       1       0.1338902       36.08419
2016    5       2       0.127924        34.84369
2016    5       3       0.1165892       32.47049
2016    5       4       0.1224011       33.95113
2016    5       5       0.1325217       36.70408
2016    5       6       0.13107         36.70793
2016    5       7       0.13727         37.63978
2016    6       0       0.1334212       36.75646
2016    6       1       0.1251214       34.90829
2016    6       2       0.1153568       32.77604
2016    6       3       0.1027393       29.82555
2016    6       4       0.08937259      26.62595
2016    6       5       0.07879171      24.07416
2016    6       6       0.1021271       29.39148
2016    6       7       0.1323785       36.2132
2016    7       0       0.1326734       36.34247
2016    7       1       0.1318763       36.13419
2016    7       2       0.146499        39.54822
2016    7       3       0.1598172       43.03186
2016    7       4       0.1611377       43.51724
2016    7       5       0.1669194       44.83887
2016    7       6       0.1789926       47.44407
2016    7       7       0.1694108       45.20758
2016    8       0       0.2287116       57.74854
2016    8       1       0.2568641       63.77463
2016    8       2       0.2778518       68.13468
2016    8       3       0.4090164       92.56986
2016    8       4       0.5939033       122.2185
2016    8       5       1.075376        178.0895
2016    8       6       1.242413        192.2114
2016    8       7       0.9735926       168.8822
2016    9       0       1.295525        196.4131
2016    9       1       1.261253        193.3308
2016    9       2       1.174201        186.0557
2016    9       3       1.316992        196.4607
2016    9       4       1.364616        199.5699
2016    9       5       1.310602        196.7349
2016    9       6       1.079058        178.1091
2016    9       7       1.068822        177.606
2016    10      0       1.18152         187.7972
2016    10      1       1.775199        225.2667
2016    10      2       2.169221        240.579
2016    10      3       1.779458        226.5554
2016    10      4       1.611789        218.8379
2016    10      5       2.158299        243.2946
2016    10      6       2.102094        242.1739
2016    10      7       2.253056        248.5193
2016    11      0       2.73427         261.0402
2016    11      1       1.312936        201.8888
2016    11      2       0.8470317       156.0143
2016    11      3       0.4950567       106.5787
2016    11      4       0.3260031       76.51425
2016    11      5       0.3014192       71.60033
2016    11      6       0.246443        60.48886
2016    11      7       0.2285552       56.56541
2016    12      0       0.2294508       56.83208
2016    12      1       0.2565461       62.22148
2016    12      2       0.2933618       69.00257
2016    12      3       0.3164219       73.09817
2016    12      4       0.2951568       69.12822
2016    12      5       0.3146759       72.84854
2016    12      6       0.4188502       91.52845
2016    12      7       0.6106966       121.1104
2016    13      0       0.8259348       148.6319
2016    13      1       1.162328        181.4576
2016    13      2       0.5999616       119.6339
2016    13      3       0.4378408       93.56831
2016    13      4       0.3303706       75.00928
2016    13      5       0.2836873       66.34595
2016    13      6       0.2494662       60.15626
2016    13      7       0.2276389       55.92441
2016    14      0       0.229831        56.10855
2016    14      1       0.2436408       58.68484
2016    14      2       0.3044698       70.10025
2016    14      3       0.365151        80.95242
2016    14      4       0.3618833       80.39307
2016    14      5       0.3086927       71.34316
2016    14      6       0.3148449       73.44579
2016    14      7       0.3303343       76.49251
2016    15      0       0.3861525       86.48184
2016    15      1       0.364589        82.87138
2016    15      2       0.4040081       89.89123
2016    15      3       0.4307768       94.9031
2016    15      4       1.328942        195.8332
2016    15      5       0.6299404       126.2748
2016    15      6       0.8882037       158.4277
2016    15      7       1.05147         175.9269
2016    16      0       1.514494        210.8795
2016    16      1       2.012382        234.4228
2016    16      2       1.870608        228.2169
2016    16      3       1.843485        228.4003
2016    16      4       1.503697        210.3478
2016    16      5       1.253851        192.1199
2016    16      6       1.1358          183.2853
2016    16      7       0.8315227       153.483
2016    17      0       0.8479802       155.1214
2016    17      1       0.7391089       141.071
2016    17      2       0.6242271       125.2998
2016    17      3       0.4947025       105.4922
2016    17      4       0.4499177       97.73693
2016    17      5       0.4391972       95.57737
2016    17      6       0.5402522       110.7224
2016    17      7       0.5879301       117.5945
2016    18      0       0.6201981       122.0002
2016    18      1       0.5779048       116.2031
2016    18      2       0.5260949       108.7268
2016    18      3       0.5265383       108.3946
2016    18      4       0.5288959       108.2783
2016    18      5       0.4078128       88.35013
2016    18      6       0.3230815       73.41924
2016    18      7       0.2792462       65.20593
2016    19      0       0.2350643       56.49609
2016    19      1       0.238917        57.12726
2016    19      2       0.236638        56.65001
2016    19      3       0.2295557       55.38516
2016    19      4       0.221963        54.08384
2016    19      5       0.2514517       60.00456
2016    19      6       0.2739012       64.29556
2016    19      7       0.2750004       64.96918
2016    20      0       0.2404634       58.35115
2016    20      1       0.2758941       65.30038
2016    20      2       0.3028295       70.69525
2016    20      3       0.2990566       70.28058
2016    20      4       0.2626393       63.44997
2016    20      5       0.2262173       56.25445
2016    20      6       0.2775277       66.38975
2016    20      7       0.2986327       70.30746
2016    21      0       0.2890398       68.02425
2016    21      1       0.2759264       65.30754
2016    21      2       0.2637224       62.83139
2016    21      3       0.2484101       59.8119
2016    21      4       0.2469165       59.53603
2016    21      5       0.2331708       57.10587
2016    21      6       0.2546541       61.76862
2016    21      7       0.2458399       59.97177
2016    22      0       0.191076        48.7056
2016    22      1       0.2054126       51.57169
2016    22      2       0.2132381       53.19314
2016    22      3       0.1964153       49.88291
2016    22      4       0.1869081       47.99397
2016    22      5       0.2169627       54.19605
2016    22      6       0.2652285       64.13647
2016    22      7       0.2928404       69.4758
2016    23      0       0.247017        60.40969
2016    23      1       0.2333226       57.45495
2016    23      2       0.2564013       62.15814
2016    23      3       0.2958941       69.76561
2016    23      4       0.3213744       74.73666
2016    23      5       0.3832245       85.88279
2016    23      6       0.4898398       104.8168
2016    23      7       0.7656949       145.2901
2016    24      0       0.6312045       126.4978
2016    24      1       0.7886163       144.33
2016    24      2       0.6504753       127.1973
2016    24      3       0.2704203       65.98997
2016    24      4       0.2046671       52.67322
2016    24      5       0.2538724       62.23317
2016    24      6       0.3155117       74.09712
2016    24      7       0.3667703       83.37869
2016    25      0       0.3982276       88.00094
2016    25      1       0.304642        71.35488
2016    25      2       0.3078643       72.00402
2016    25      3       0.3015682       71.52633
2016    25      4       0.8350087       151.0372
2016    25      5       0.3633888       83.18051
2016    25      6       0.386577        87.92534
2016    25      7       0.3792555       89.15653
2016    26      0       0.3989523       93.81498
2016    26      1       0.6122487       123.5742
2016    26      2       0.4839722       105.0503
2016    26      3       0.4626318       101.6239
2016    26      4       0.4792356       104.9876
2016    26      5       0.5203706       111.8523
2016    26      6       0.6781336       135.6753
2016    26      7       0.9926106       173.2633
2016    27      0       1.054184        179.3338
2016    27      1       1.071317        178.762
2016    27      2       1.082901        177.9042
2016    27      3       0.8871714       158.4395
2016    27      4       0.9345595       162.9583
2016    27      5       0.795178        147.1125
2016    27      6       0.6064206       122.6041
2016    27      7       0.530401        111.433
2016    28      0       0.4063064       91.36056
2016    28      1       0.363743        84.06229
2016    28      2       0.357871        82.87731
2016    28      3       0.3478934       80.83536
2016    28      4       0.3359767       78.8476
2016    28      5       0.3474358       80.9925
2016    28      6       0.4138574       93.12781
2016    28      7       0.48365         105.1519
2016    29      0       0.6478651       129.0231
2016    29      1       0.6633658       130.88
2016    29      2       0.7233277       137.7821
2016    29      3       0.6991551       135.2632
2016    29      4       0.7371429       139.7675
2016    29      5       0.7631097       142.7937
2016    29      6       0.7652995       142.7941
2016    29      7       0.6573883       128.6933
2016    30      0       0.654677        128.2706
2016    30      1       0.629689        124.6902
2016    30      2       0.5306579       110.2849
2016    30      3       0.4533265       98.38183
2016    30      4       0.4198249       93.25408
2016    30      5       0.462268        100.4542
2016    30      6       0.5967302       121.0916
2016    30      7       0.6812728       132.592
2016    31      0       0.5545333       114.5751
2016    31      1       0.5641675       115.1654
2016    31      2       0.8167695       150.3104
2016    31      3       0.9183327       162.7774
2016    31      4       0.9245669       164.2335
2016    31      5       1.128153        184.2076
2016    31      6       1.162493        188.7359
2016    31      7       1.246841        196.5658
2017    1       0       0.8945892       157.6339
2017    1       1       0.9993158       168.8208
2017    1       2       0.9796404       166.4002
2017    1       3       0.9336375       162.1433
2017    1       4       0.6596949       130.8501
2017    1       5       0.5670078       117.1177
2017    1       6       0.7646122       143.3616
2017    1       7       0.470389        102.0872
2017    2       0       0.413969        93.2239
2017    2       1       0.410995        93.26866
2017    2       2       0.2920446       73.60435
2017    2       3       0.3122848       75.20662
2017    2       4       0.3387346       79.84183
2017    2       5       0.3422765       80.51258
2017    2       6       0.4660018       102.1719
2017    2       7       0.7327074       140.6745
2017    3       0       0.6874421       135.5372
2017    3       1       0.6435882       129.8569
2017    3       2       0.6730464       133.8759
2017    3       3       0.6979571       137.1456
2017    3       4       0.7903268       148.4488
2017    3       5       1.085856        178.9904
2017    3       6       1.869565        228.9016
2017    3       7       1.729333        222.4338
2017    4       0       1.472711        208.9997
2017    4       1       1.761832        226.0316
2017    4       2       3.519848        267.4021
2017    4       3       1.892048        231.5983
2017    4       4       0.9741298       170.1995
2017    4       5       0.9532727       167.9369
2017    4       6       0.9502505       167.7591
2017    4       7       1.205171        189.6126
2017    5       0       0.7696812       143.6723
2017    5       1       0.4307007       94.22709
2017    5       2       0.3621959       81.80589
2017    5       3       0.3014743       70.58922
2017    5       4       0.3105682       72.16846
2017    5       5       0.3333847       76.52822
2017    5       6       0.374056        84.0337
2017    5       7       0.4090344       89.7459
2017    6       0       0.3621052       81.79873
2017    6       1       0.4456826       95.54551
2017    6       2       0.5007317       103.8402
2017    6       3       0.5509059       111.0173
2017    6       4       0.5713751       114.0646
2017    6       5       0.4429283       95.71945
2017    6       6       0.3871039       86.62725
2017    6       7       0.4151053       90.82305
2017    7       0       0.2997651       70.29364
2017    7       1       0.2581809       62.28761
2017    7       2       0.2300773       56.85514
2017    7       3       0.2642189       63.39911
2017    7       4       0.3742817       83.30888
2017    7       5       0.4685716       98.76414
2017    7       6       0.5877255       117.4509
2017    7       7       0.6417655       123.9285
2017    8       0       0.6049588       118.9394
2017    8       1       0.6259713       121.3542
2017    8       2       0.3898724       85.16276
2017    8       3       0.1949951       49.02617
2017    8       4       0.1466677       38.78166
2017    8       5       0.1473606       38.71941
2017    8       6       0.1842352       46.21728
2017    8       7       0.2144998       51.99489
2017    9       0       0.2225763       53.38324
2017    9       1       0.2067537       50.19223
2017    9       2       0.1726623       43.44214
2017    9       3       0.1318729       35.05471
2017    9       4       0.1303653       34.79
2017    9       5       0.1536847       39.85865
2017    9       6       0.2138394       52.20884
2017    9       7       0.2322554       55.97394
2017    10      0       0.2165658       53.1277
2017    10      1       0.1704834       44.04334
2017    10      2       0.1756785       45.54414
2017    10      3       0.2028864       51.31011
2017    10      4       0.2295708       56.9065
2017    10      5       0.3401243       78.29505
2017    10      6       0.6987991       134.1863
2017    10      7       0.9268364       162.0832
2017    11      0       1.104066        179.8829
2017    11      1       1.746942        223.8197
2017    11      2       1.342337        201.7119
2017    11      3       1.908348        231.6722
2017    11      4       1.470782        208.62
2017    11      5       0.6208404       126.5178
2017    11      6       0.3762675       87.51055
2017    11      7       0.3113714       75.06828
2017    12      0       0.2362529       58.30915
2017    12      1       0.2438764       59.36456
2017    12      2       1.179396        189.0794
2017    12      3       1.888713        232.2613
2017    12      4       1.769783        228.7413
2017    12      5       1.834409        233.3526
2017    12      6       1.729819        229.278
2017    12      7       2.021507        240.032
2017    13      0       1.995525        240.8791
2017    13      1       1.528206        218.9228
2017    13      2       0.9043256       165.3383
2017    13      3       0.6738496       134.9975
2017    13      4       0.5450015       115.6289
2017    13      5       0.4875073       106.0463
2017    13      6       0.3729586       86.23041
2017    13      7       0.2691064       65.93584
2017    14      0       0.2329399       59.36938
2017    14      1       0.2072975       53.7756
2017    14      2       0.1774382       47.70035
2017    14      3       0.1739788       46.8034
2017    14      4       0.1735077       46.60258
2017    14      5       0.2044882       53.10397
2017    14      6       0.2542133       61.99359
2017    14      7       0.2769577       66.6343
2017    15      0       0.3226912       75.57434
2017    15      1       0.3629          83.22613
2017    15      2       0.3996367       90.01453
2017    15      3       0.374173        85.34245
2017    15      4       0.3426883       79.63956
2017    15      5       0.3353022       78.04406
2017    15      6       0.3276676       76.67369
2017    15      7       0.320152        75.05765
2017    16      0       0.5696575       116.0964
2017    16      1       0.2786702       66.61033
2017    16      2       0.2548001       62.16204
2017    16      3       0.2810222       67.49116
2017    16      4       0.2728164       66.38651
2017    16      5       0.3108891       73.75543
2017    16      6       0.394572        89.66433
2017    16      7       0.4467969       99.20876
2017    17      0       0.347906        82.00538
2017    17      1       0.2325406       59.18943
2017    17      2       0.2443992       61.659
2017    17      3       0.342062        80.64068
2017    17      4       0.4448624       98.72366
2017    17      5       0.5583925       116.6651
2017    17      6       0.6276066       126.585
2017    17      7       0.7419081       141.074
2017    18      0       1.012441        170.2961
2017    18      1       1.230584        190.2163
2017    18      2       1.566142        212.8967
2017    18      3       1.489535        208.0491
2017    18      4       1.441935        205.1277
2017    18      5       1.624806        215.8962
2017    18      6       1.727408        221.17
2017    18      7       1.531667        211.0423
2017    19      0       1.350102        199.6697
2017    19      1       1.28594         195.1566
2017    19      2       1.29756         194.9308
2017    19      3       1.171087        184.9429
2017    19      4       0.8584552       156.3853
2017    19      5       0.7102773       139.7246
2017    19      6       0.6958176       137.9302
2017    19      7       0.6900414       137.4836
2017    20      0       0.6322461       129.4948
2017    20      1       0.5283108       116.7846
2017    20      2       0.5411213       119.1823
2017    20      3       0.5723623       123.3291
2017    20      4       0.6140868       129.5918
2017    20      5       0.7157643       144.044
2017    20      6       0.8023666       154.622
2017    20      7       0.8451557       160.9235
2017    21      0       0.784275        154.2549
2017    21      1       0.8137026       158.1155
2017    21      2       0.8680006       163.8754
2017    21      3       0.911209        163.7217
2017    21      4       1.033166        176.4732
2017    21      5       1.139775        186.6315
2017    21      6       1.254277        196.9853
2017    21      7       1.290671        200.3826
2017    22      0       1.075009        182.6891
2017    22      1       1.009964        176.0486
2017    22      2       0.9998699       174.2237
2017    22      3       1.065242        179.4281
2017    22      4       1.042108        176.6956
2017    22      5       1.382783        203.6952
2017    22      6       2.612303        251.1467
2017    22      7       1.407506        204.227
2017    23      0       0.9467216       165.9798
2017    23      1       0.991028        170.3028
2017    23      2       1.038498        174.7606
2017    23      3       1.014074        179.4096
2017    23      4       1.090413        187.493
2017    23      5       1.224758        200.0816
2017    23      6       1.329288        208.5629
2017    23      7       1.46882         215.5865
2017    24      0       1.32619         204.458
2017    24      1       1.206885        192.2117
2017    24      2       1.296153        199.2977
2017    24      3       1.425376        209.5731
2017    24      4       1.666086        226.4822
2017    24      5       1.678795        228.9816
2017    24      6       2.631326        253.7309
2017    24      7       2.888851        259.3701
2017    25      0       2.426285        249.2281
2017    25      1       1.371731        202.1215
2017    25      2       1.180747        187.186
2017    25      3       1.05878         176.6662
2017    25      4       0.7630961       148.465
2017    25      5       0.5301514       116.7732
2017    25      6       0.5131712       115.2676
2017    25      7       0.6085097       124.939
2017    26      0       0.6498232       130.7601
2017    26      1       0.7596834       144.528
2017    26      2       0.8004024       150.6036
2017    26      3       0.9803141       170.7701
2017    26      4       1.080416        179.5444
2017    26      5       1.135992        185.4904
2017    26      6       0.8856937       160.7841
2017    26      7       0.875923        158.3954
2017    27      0       0.6839327       133.8198
2017    27      1       0.7794252       145.0129
2017    27      2       0.5813775       119.3231
2017    27      3       0.6285248       126.7832
2017    27      4       0.5942134       122.0119
2017    27      5       0.5750848       119.0644
2017    27      6       0.5458774       114.4482
2017    27      7       0.5701327       117.3745
2017    28      0       0.5553923       114.58
2017    28      1       0.5960438       120.0753
2017    28      2       0.6134688       122.6369
2017    28      3       0.5643753       115.9105
2017    28      4       0.5388474       111.9792
2017    28      5       0.5465122       113.0851
2017    28      6       0.526207        110.2166
2017    28      7       0.5539733       114.3551
2017    29      0       0.514432        107.9557
2017    29      1       0.4688778       100.8155
2017    29      2       0.4567777       98.79105
2017    29      3       0.4611838       99.22713
2017    29      4       0.5033596       105.5785
2017    29      5       0.492402        104.2128
2017    29      6       0.5117927       107.6305
2017    29      7       0.4419318       96.43483
2017    30      0       0.3933454       88.03898
2017    30      1       0.3263355       75.72569
2017    30      2       0.3689113       83.07603
2017    30      3       0.3556212       80.53736
2017    30      4       0.3269113       75.19322
2017    30      5       0.34801         78.86793
2017    30      6       0.3586535       80.89208
2017    30      7       0.3606323       81.21831
2017    31      0       0.3367828       76.74743
2017    31      1       0.2937213       68.57348
2017    31      2       0.2508238       60.20197
2017    31      3       0.2211556       54.44649
2017    31      4       0.2082438       51.83149
2017    31      5       0.2666581       63.34791
2017    31      6       0.3882081       85.39739
2017    31      7       0.4832672       101.2241
2018    1       0       0.1565145       40.16646
2018    1       1       0.1355258       35.77561
2018    1       2       0.1355608       35.74509
2018    1       3       0.1288461       34.27022
2018    1       4       0.1229665       33.00459
2018    1       5       0.11849         32.02438
2018    1       6       0.1336482       35.2904
2018    1       7       0.148395        38.41206
2018    2       0       0.1336345       35.27581
2018    2       1       0.1685383       42.58172
2018    2       2       0.2014462       49.25867
2018    2       3       0.2506014       58.91456
2018    2       4       0.1505564       39.04565
2018    2       5       0.1385618       36.42273
2018    2       6       0.1841079       46.05034
2018    2       7       0.2825342       65.68572
2018    3       0       0.3071505       70.84875
2018    3       1       0.2827051       66.94643
2018    3       2       0.264546        63.6661
2018    3       3       0.2600331       62.82884
2018    3       4       0.241754        59.43192
2018    3       5       0.2193893       54.88014
2018    3       6       0.246624        60.22139
2018    3       7       0.2024009       51.19161
2018    4       0       0.1430482       38.1732
2018    4       1       0.1701389       43.997
2018    4       2       0.2793992       66.373
2018    4       3       0.5816124       117.2468
2018    4       4       0.9702529       164.8796
2018    4       5       1.129029        180.2907
2018    4       6       1.058584        174.0789
2018    4       7       0.8745828       155.6874
2018    5       0       0.7173881       136.7405
2018    5       1       0.5155491       107.4297
2018    5       2       0.4425264       95.52449
2018    5       3       0.3880216       85.41968
2018    5       4       0.2573418       61.07878
2018    5       5       0.250118        59.29806
2018    5       6       0.2366847       56.47041
2018    5       7       0.2104707       51.20573
2018    6       0       0.194059        47.70282
2018    6       1       0.2001451       48.84425
2018    6       2       0.2347206       55.48748
2018    6       3       0.2264665       53.8217
2018    6       4       0.1750173       43.74048
2018    6       5       0.1787987       44.47756
2018    6       6       0.2136103       51.48197
2018    6       7       0.2128491       51.42837
2018    7       0       0.2229767       53.32196
2018    7       1       0.1575585       40.1877
2018    7       2       0.128394        34.36626
2018    7       3       0.0942696       27.41014
2018    7       4       0.1261334       34.03093
2018    7       5       0.1552273       40.34115
2018    7       6       0.193828        48.72744
2018    7       7       0.2279036       56.31978
2018    8       0       0.2646008       63.98244
2018    8       1       0.2970776       69.78826
2018    8       2       0.4389198       95.45026
2018    8       3       0.6699849       130.1416
2018    8       4       0.5896231       119.5234
2018    8       5       0.6678252       130.7034
2018    8       6       0.4134327       91.6121
2018    8       7       0.6926821       133.5029
2018    9       0       0.7282984       139.5836
2018    9       1       0.6012428       122.8261
2018    9       2       0.6488711       129.2651
2018    9       3       0.581406        119.5682
2018    9       4       0.540777        113.5639
2018    9       5       0.4925164       105.2577
2018    9       6       0.4651181       100.8662
2018    9       7       0.5278789       111.0159
2018    10      0       0.5083933       108.2012
2018    10      1       0.4201109       93.60757
2018    10      2       0.3260438       76.2162
2018    10      3       0.2422613       60.03782
2018    10      4       0.2528423       62.73655
2018    10      5       0.2496664       62.32161
2018    10      6       0.258837        64.13847
2018    10      7       0.3333553       78.87819
2018    11      0       0.3912478       89.53607
2018    11      1       0.8848431       159.3046
2018    11      2       0.9822799       171.1919
2018    11      3       0.7707441       148.5417
2018    11      4       0.9576915       169.974
2018    11      5       1.191673        192.7761
2018    11      6       1.503632        215.508
2018    11      7       1.355283        206.6264
2018    12      0       1.305288        203.4846
2018    12      1       1.230129        198.1938
2018    12      2       1.203357        196.0038
2018    12      3       1.841381        235.1679
2018    12      4       2.15503         247.941
2018    12      5       2.475351        257.2409
2018    12      6       2.951977        266.9884
2018    12      7       3.221259        271.1636
2018    13      0       2.841955        264.907
2018    13      1       2.863003        266.0194
2018    13      2       2.966379        267.0588
2018    13      3       3.210517        270.4011
2018    13      4       2.861767        264.8262
2018    13      5       1.075367        180.4524
2018    13      6       0.3916936       89.75182
2018    13      7       0.3293202       77.79596
2018    14      0       0.3063301       73.15022
2018    14      1       0.3153553       75.50386
2018    14      2       0.2662099       65.58669
2018    14      3       0.2072554       53.58523
2018    14      4       0.1535614       41.3549
2018    14      5       0.1130456       32.29734
2018    14      6       0.1243425       35.42995
2018    14      7       0.1560456       42.64674
2018    15      0       0.1427478       39.25256
2018    15      1       0.1410204       38.73117
2018    15      2       0.1236126       34.96533
2018    15      3       0.1210168       34.12929
2018    15      4       0.1472749       40.04142
2018    15      5       0.175572        46.24085
2018    15      6       0.3004815       72.21369
2018    15      7       0.3620918       84.37739
2018    16      0       0.4748771       104.6565
2018    16      1       0.5144483       107.2861
2018    16      2       0.4783143       102.074
2018    16      3       0.4316154       94.16553
2018    16      4       0.3910225       87.1771
2018    16      5       0.5106993       106.9433
2018    16      6       0.560995        114.7726
2018    16      7       0.6553772       127.9847
2018    17      0       0.6701814       129.819
2018    17      1       0.7727782       142.4919
2018    17      2       0.9891829       166.1029
2018    17      3       0.9480297       162.2002
2018    17      4       0.8974884       157.251
2018    17      5       0.9133274       158.7996
2018    17      6       0.9092833       159.0018
2018    17      7       1.157591        183.0489
2018    18      0       0.84029         152.6316
2018    18      1       0.5559157       115.8931
2018    18      2       0.4082556       94.9431
2018    18      3       0.2708447       68.17712
2018    18      4       0.2450719       61.11119
2018    18      5       0.9137722       162.3758
2018    18      6       0.3195835       79.08494
2018    18      7       0.4382053       97.08026
2018    19      0       0.3996429       90.37425
2018    19      1       0.3521648       85.22994
2018    19      2       0.3502613       84.2212
2018    19      3       0.50768         106.3577
2018    19      4       0.4481832       96.74735
2018    19      5       0.3946117       88.65732
2018    19      6       0.5767844       118.2978
2018    19      7       0.5263329       114.9142
2018    20      0       0.5458384       117.5152
2018    20      1       0.5861305       123.036
2018    20      2       0.6685479       131.7233
2018    20      3       0.6943749       135.3912
2018    20      4       0.6966295       135.7085
2018    20      5       0.8009178       149.7017
2018    20      6       0.7919541       148.9291
2018    20      7       0.6239261       127.3632
2018    21      0       0.666517        133.176
2018    21      1       0.8066069       150.8128
2018    21      2       0.7787146       147.1608
2018    21      3       0.8305577       152.5494
2018    21      4       0.8790387       157.6979
2018    21      5       0.8521609       154.6449
2018    21      6       0.8120524       150.5253
2018    21      7       0.8344982       153.6941
2018    22      0       0.7954517       149.6219
2018    22      1       0.7713546       147.1192
2018    22      2       0.7852546       148.9543
2018    22      3       0.8218086       153.0199
2018    22      4       0.9325877       165.2699
2018    22      5       1.382295        203.1377
2018    22      6       1.640955        217.9119
2018    22      7       1.940756        231.2069
2018    23      0       1.864561        228.0364
2018    23      1       2.093564        237.4834
2018    23      2       2.408282        248.0256
2018    23      3       1.405363        207.1124
2018    23      4       2.749658        258.9287
2018    23      5       2.019206        239.7591
2018    23      6       2.528285        257.6348
2018    23      7       2.259016        248.9262
2018    24      0       1.161381        189.3049
2018    24      1       0.8898203       160.4365
2018    24      2       0.7771827       146.7719
2018    24      3       0.7512144       143.1809
2018    24      4       0.5367492       113.3188
2018    24      5       0.4507096       99.41689
2018    24      6       0.3435725       80.19185
2018    24      7       0.2948608       73.06809
2018    25      0       0.2633055       63.7965
2018    25      1       0.2207311       54.94854
2018    25      2       0.2389356       58.29677
2018    25      3       0.2566642       61.34179
2018    25      4       0.2289726       55.71818
2018    25      5       0.1856461       47.12351
2018    25      6       0.2100728       52.29293
2018    25      7       0.2323037       56.66463
2018    26      0       0.1793743       45.63379
2018    26      1       0.1613559       41.85547
2018    26      2       0.1568334       41.03072
2018    26      3       0.1639439       42.60729
2018    26      4       0.1634324       42.76528
2018    26      5       0.1490668       39.85706
2018    26      6       0.2228376       55.51578
2018    26      7       0.285415        68.13473
2018    27      0       0.3139629       73.8625
2018    27      1       0.2983528       71.20568
2018    27      2       0.399922        90.23947
2018    27      3       0.4700808       102.9404
2018    27      4       0.5096419       110.3545
2018    27      5       0.4881807       106.8043
2018    27      6       0.5176844       111.9228
2018    27      7       0.5803318       121.4353
2018    28      0       0.8969383       162.1212
2018    28      1       1.173587        188.9825
2018    28      2       1.437838        208.3121
2018    28      3       1.445712        207.3818
2018    28      4       0.8175833       151.0917
2018    28      5       0.4604027       100.3038
2018    28      6       0.2760943       67.13843
2018    28      7       0.4058304       91.842
2018    29      0       0.6036362       123.7062
2018    29      1       0.6300693       127.1716
2018    29      2       0.6190633       125.1593
2018    29      3       0.5800509       119.122
2018    29      4       0.5000487       106.9052
2018    29      5       0.4784089       103.2677
2018    29      6       0.4928055       105.2045
2018    29      7       0.5433859       112.4275
2018    30      0       0.6038987       119.8184
2018    30      1       0.5948781       118.8991
2018    30      2       0.6241275       123.2804
2018    30      3       0.5920787       118.2978
2018    30      4       0.5554148       112.1042
2018    30      5       0.5582037       112.3312
2018    30      6       0.4125401       89.46966
2018    30      7       0.3640407       80.99918
2018    31      0       0.2900745       67.80636
2018    31      1       0.2224469       54.63398
2018    31      2       0.28502         66.78244
2018    31      3       0.2528529       60.57748
2018    31      4       0.1894536       48.15433
2018    31      5       0.2001389       51.34415
2018    31      6       0.2477608       62.19034
2018    31      7       0.3370986       79.06929
2019    1       0       1.046199        173.7398
2019    1       1       1.194539        188.2865
2019    1       2       1.451341        212.1786
2019    1       3       2.065857        241.0071
2019    1       4       1.392204        209.1073
2019    1       5       1.032047        178.7174
2019    1       6       0.6693867       134.3134
2019    1       7       0.5896793       121.8417
