####################################################################################################
# Month: 06Jun                                                                                     #
# Station: FLWO                                                                                    #
# Frequency: 230 GHz                                                                               #
# Columns are: year    day     segment         tau     Tb (K)                                      #
####################################################################################################
2009    1       0       0.2113985       55.46114
2009    1       1       0.2107884       55.54016
2009    1       2       0.1937568       51.81882
2009    1       3       0.2080706       54.91674
2009    1       4       0.2186654       57.1712
2009    1       5       0.2237496       58.22355
2009    1       6       0.237354        61.17402
2009    1       7       0.2557902       64.98112
2009    2       0       0.2643247       66.77892
2009    2       1       0.2540156       64.69499
2009    2       2       0.2484372       63.0916
2009    2       3       0.27317         67.77857
2009    2       4       0.2489871       63.0389
2009    2       5       0.2237398       57.95706
2009    2       6       0.24569         62.91675
2009    2       7       0.280783        70.05536
2009    3       0       0.288282        71.53797
2009    3       1       0.2685826       67.64002
2009    3       2       0.2365579       60.9009
2009    3       3       0.2180172       56.53422
2009    3       4       0.2027304       52.99841
2009    3       5       0.1888832       49.89261
2009    3       6       0.2403001       61.35574
2009    3       7       0.3051665       74.56591
2009    4       0       0.3067653       74.77203
2009    4       1       0.2632001       66.31544
2009    4       2       0.2673206       67.41532
2009    4       3       0.328432        79.25788
2009    4       4       0.342131        81.62256
2009    4       5       0.3367265       80.71421
2009    4       6       0.431433        97.85754
2009    4       7       0.5137468       111.3207
2009    5       0       0.5581101       117.6359
2009    5       1       0.5696188       119.0875
2009    5       2       0.4871713       107.9103
2009    5       3       0.5175785       111.9387
2009    5       4       0.3280754       78.05526
2009    5       5       0.3595543       83.4444
2009    5       6       0.5617494       117.6997
2009    5       7       0.6902196       136.2292
2009    6       0       0.7224404       140.4343
2009    6       1       0.5576564       118.2762
2009    6       2       0.4623074       103.4931
2009    6       3       0.3737777       87.57656
2009    6       4       0.3620039       85.25947
2009    6       5       0.421557        95.79749
2009    6       6       0.417487        95.18948
2009    6       7       0.3928551       90.76098
2009    7       0       0.4233452       95.86704
2009    7       1       0.4874439       106.5438
2009    7       2       0.4551383       101.1033
2009    7       3       0.2601946       65.42797
2009    7       4       0.2157321       55.44591
2009    7       5       0.1997596       52.47195
2009    7       6       0.1929301       51.26116
2009    7       7       0.2182201       56.6863
2009    8       0       0.2428049       61.92522
2009    8       1       0.2675165       66.45474
2009    8       2       0.2857456       70.46243
2009    8       3       0.3301663       79.24852
2009    8       4       0.2856662       70.67159
2009    8       5       0.2571425       65.06999
2009    8       6       0.3193864       77.87212
2009    8       7       0.4924916       108.37
2009    9       0       0.787118        147.946
2009    9       1       0.6432735       130.9665
2009    9       2       0.513129        111.0792
2009    9       3       0.5790087       119.9343
2009    9       4       0.6794354       133.9714
2009    9       5       0.6239547       127.033
2009    9       6       0.6631472       132.2724
2009    9       7       0.5819345       121.7608
2009    10      0       0.6336958       129.1924
2009    10      1       0.7392992       142.6228
2009    10      2       0.5905275       122.6134
2009    10      3       0.3540996       83.43273
2009    10      4       0.2139561       56.18291
2009    10      5       0.1205928       35.07961
2009    10      6       0.1093672       32.20429
2009    10      7       0.1152628       33.68297
2009    11      0       0.1236977       35.76241
2009    11      1       0.0972363       29.26289
2009    11      2       0.09719485      29.20298
2009    11      3       0.1258993       36.1948
2009    11      4       0.1423812       40.03332
2009    11      5       0.171985        46.74095
2009    11      6       0.1980897       52.53516
2009    11      7       0.2311328       59.85452
2009    12      0       0.2394745       61.68275
2009    12      1       0.1905809       51.12916
2009    12      2       0.168943        46.49965
2009    12      3       0.1420893       40.52031
2009    12      4       0.143588        40.81108
2009    12      5       0.1707665       46.90531
2009    12      6       0.1953979       52.31197
2009    12      7       0.2451373       63.05169
2009    13      0       0.3262298       79.23923
2009    13      1       0.3247684       78.82965
2009    13      2       0.3337108       80.35392
2009    13      3       0.4405102       98.57633
2009    13      4       0.7298859       141.4509
2009    13      5       0.5230841       113.4779
2009    13      6       0.6393326       131.1894
2009    13      7       0.8189964       155.4365
2009    14      0       0.7632642       149.1791
2009    14      1       0.6961269       140.2575
2009    14      2       0.6332916       131.144
2009    14      3       0.5732594       121.9051
2009    14      4       0.5343348       115.8422
2009    14      5       0.4060043       94.61631
2009    14      6       0.2905229       72.67311
2009    14      7       0.2550546       65.1867
2009    15      0       0.2755567       68.70933
2009    15      1       0.2139629       56.21739
2009    15      2       0.215672        56.56995
2009    15      3       0.1980432       52.74343
2009    15      4       0.2179371       56.93884
2009    15      5       0.2364472       60.57135
2009    15      6       0.2828793       70.1673
2009    15      7       0.3019828       74.35661
2009    16      0       0.3162          77.38708
2009    16      1       0.2913288       72.35234
2009    16      2       0.2691705       67.69938
2009    16      3       0.270954        68.29449
2009    16      4       0.2259083       59.25659
2009    16      5       0.1629728       45.47101
2009    16      6       0.1732558       47.77026
2009    16      7       0.1894451       51.40968
2009    17      0       0.1955466       52.83019
2009    17      1       0.1883198       50.91334
2009    17      2       0.1652737       45.54105
2009    17      3       0.1961928       52.10043
2009    17      4       0.2581528       65.06157
2009    17      5       0.2973489       73.1943
2009    17      6       0.3723763       87.89206
2009    17      7       0.411467        95.15531
2009    18      0       0.4465653       100.3148
2009    18      1       0.424727        96.40077
2009    18      2       0.4086506       94.44428
2009    18      3       0.448844        101.3298
2009    18      4       0.3735994       87.75658
2009    18      5       0.3296716       79.18742
2009    18      6       0.3951545       91.82375
2009    18      7       0.4485031       101.6317
2009    19      0       0.537708        116.8675
2009    19      1       0.5065128       111.664
2009    19      2       0.5438036       117.7604
2009    19      3       0.583314        123.837
2009    19      4       0.6495913       133.2211
2009    19      5       0.6131435       127.9088
2009    19      6       0.8156284       153.588
2009    19      7       0.8049846       151.975
2009    20      0       0.6338356       130.1845
2009    20      1       0.5486639       117.7724
2009    20      2       0.7492228       145.2161
2009    20      3       0.9244927       166.1401
2009    20      4       0.4863904       108.1364
2009    20      5       0.3568328       84.74506
2009    20      6       0.3883256       91.45519
2009    20      7       0.434508        100.4368
2009    21      0       0.5224447       115.6422
2009    21      1       0.5853826       125.6021
2009    21      2       0.3807933       91.58673
2009    21      3       0.2761114       70.95571
2009    21      4       0.2519795       65.82071
2009    21      5       0.2377903       62.78158
2009    21      6       0.2310838       61.44484
2009    21      7       0.2427352       64.16299
2009    22      0       0.2154543       58.3189
2009    22      1       0.1750252       49.34015
2009    22      2       0.1715616       48.52763
2009    22      3       0.193706        53.52408
2009    22      4       0.3254592       81.69158
2009    22      5       0.3919273       94.58576
2009    22      6       0.4156252       98.67461
2009    22      7       0.5976888       128.7486
2009    23      0       0.7673377       151.5418
2009    23      1       1.052277        182.0415
2009    23      2       1.212542        195.5336
2009    23      3       1.183978        193.1706
2009    23      4       1.109517        186.8234
2009    23      5       1.103877        186.3376
2009    23      6       1.036243        180.0692
2009    23      7       1.045141        181.1569
2009    24      0       1.012485        177.8577
2009    24      1       0.8451355       159.9415
2009    24      2       0.7749581       151.5809
2009    24      3       0.7671867       150.8736
2009    24      4       0.6826549       140.1946
2009    24      5       0.6320647       133.1345
2009    24      6       0.6238287       131.6552
2009    24      7       0.7185624       144.7172
2009    25      0       0.7686674       150.7331
2009    25      1       0.8574178       161.2132
2009    25      2       0.9816088       174.8966
2009    25      3       1.062476        182.3809
2009    25      4       1.219618        196.2688
2009    25      5       1.462595        213.1758
2009    25      6       1.547478        218.2373
2009    25      7       1.416839        210.3433
2009    26      0       1.170096        192.9165
2009    26      1       1.025798        180.2096
2009    26      2       0.9472181       171.6989
2009    26      3       0.85685         161.1191
2009    26      4       0.8477422       159.9182
2009    26      5       0.887488        164.322
2009    26      6       0.9819529       174.409
2009    26      7       1.121836        187.9607
2009    27      0       1.08736         185.0147
2009    27      1       0.9659232       173.3758
2009    27      2       0.8850388       164.7222
2009    27      3       0.9157547       167.8745
2009    27      4       0.9764683       174.0065
2009    27      5       0.95121         171.3768
2009    27      6       1.129407        188.3447
2009    27      7       1.553986        218.9677
2009    28      0       1.309227        203.1634
2009    28      1       1.076015        184.1496
2009    28      2       1.310939        203.7232
2009    28      3       1.477691        215.5513
2009    28      4       1.173866        193.14
2009    28      5       1.149205        191.2646
2009    28      6       1.370856        208.1199
2009    28      7       1.495304        217.0388
2009    29      0       1.436747        213.7203
2009    29      1       1.315295        205.2271
2009    29      2       1.381806        209.4651
2009    29      3       1.292565        202.1921
2009    29      4       1.228283        197.3655
2009    29      5       1.434341        211.9948
2009    29      6       1.376473        207.6789
2009    29      7       1.387146        208.2792
2009    30      0       1.179283        193.1294
2009    30      1       1.182685        193.7891
2009    30      2       1.210243        195.8727
2009    30      3       1.264411        200.4179
2009    30      4       1.242053        198.2966
2009    30      5       1.060051        182.8279
2009    30      6       0.9764528       174.5258
2009    30      7       1.166626        191.9549
2010    1       0       0.3313024       81.27845
2010    1       1       0.2094289       56.41693
2010    1       2       0.1921778       52.59184
2010    1       3       0.2596746       67.0575
2010    1       4       0.2468374       64.10816
2010    1       5       0.2039307       54.66422
2010    1       6       0.1731141       47.70926
2010    1       7       0.203339        54.33348
2010    2       0       0.2190977       57.75409
2010    2       1       0.1798297       49.01551
2010    2       2       0.1692264       45.71265
2010    2       3       0.2049106       53.14498
2010    2       4       0.1987228       51.83852
2010    2       5       0.1911474       50.36073
2010    2       6       0.2385807       60.84991
2010    2       7       0.2791442       69.71827
2010    3       0       0.2681903       67.99838
2010    3       1       0.2277568       59.97466
2010    3       2       0.2347302       61.53645
2010    3       3       0.2480375       64.21417
2010    3       4       0.2634795       67.27486
2010    3       5       0.277938        70.0718
2010    3       6       0.318593        78.21097
2010    3       7       0.3622088       86.56187
2010    4       0       0.3570869       85.86004
2010    4       1       0.3397689       82.79765
2010    4       2       0.374526        89.10594
2010    4       3       0.4072197       94.74761
2010    4       4       0.3796365       89.89276
2010    4       5       0.3655308       87.44273
2010    4       6       0.3980059       93.65007
2010    4       7       0.4140628       96.70593
2010    5       0       0.4376984       101.0159
2010    5       1       0.4699694       106.8421
2010    5       2       0.4472694       102.8819
2010    5       3       0.398208        94.04777
2010    5       4       0.3900817       92.47775
2010    5       5       0.3897335       92.40013
2010    5       6       0.4004233       94.52199
2010    5       7       0.387774        92.21345
2010    6       0       0.3782069       90.56427
2010    6       1       0.3835515       91.79555
2010    6       2       0.390263        93.11034
2010    6       3       0.3910009       93.01272
2010    6       4       0.3764497       89.95467
2010    6       5       0.3755885       89.58894
2010    6       6       0.3907076       92.46415
2010    6       7       0.3692825       88.6152
2010    7       0       0.3169641       78.85329
2010    7       1       0.2458914       64.2417
2010    7       2       0.2259333       59.36099
2010    7       3       0.2546816       65.41081
2010    7       4       0.3064516       75.91582
2010    7       5       0.2971969       74.07556
2010    7       6       0.3134744       77.26054
2010    7       7       0.3458731       83.80996
2010    8       0       0.233142        61.15664
2010    8       1       0.1258504       36.65746
2010    8       2       0.1121152       33.22583
2010    8       3       0.1274655       36.8941
2010    8       4       0.1277425       36.99288
2010    8       5       0.1637684       45.80259
2010    8       6       0.1963854       53.53538
2010    8       7       0.253694        66.01571
2010    9       0       0.2533935       66.0337
2010    9       1       0.1695875       47.2851
2010    9       2       0.1417136       40.43085
2010    9       3       0.1486223       42.04855
2010    9       4       0.1468433       41.5545
2010    9       5       0.1562174       43.68956
2010    9       6       0.1822631       49.95397
2010    9       7       0.2732832       70.43029
2010    10      0       0.2951785       74.86704
2010    10      1       0.1822903       49.83533
2010    10      2       0.1314413       37.61621
2010    10      3       0.1389416       39.19396
2010    10      4       0.1818454       49.34946
2010    10      5       0.2047154       54.60851
2010    10      6       0.1919507       51.6251
2010    10      7       0.2441919       62.86326
2010    11      0       0.2557912       65.11658
2010    11      1       0.1698614       46.34181
2010    11      2       0.1420848       40.30283
2010    11      3       0.1424749       40.78384
2010    11      4       0.1538416       43.51184
2010    11      5       0.2193689       58.40606
2010    11      6       0.16108         44.97232
2010    11      7       0.2017678       53.97597
2010    12      0       0.1694934       46.45354
2010    12      1       0.142384        39.89281
2010    12      2       0.1443289       40.48219
2010    12      3       0.1364825       39.018
2010    12      4       0.1008466       30.63427
2010    12      5       0.07302606      23.67861
2010    12      6       0.08866523      27.68563
2010    12      7       0.1167703       34.51268
2010    13      0       0.1187229       34.98162
2010    13      1       0.1054999       31.74421
2010    13      2       0.1003238       30.45553
2010    13      3       0.09328665      28.78242
2010    13      4       0.07545332      24.33841
2010    13      5       0.07102818      23.21229
2010    13      6       0.1322844       38.29906
2010    13      7       0.1827587       49.93032
2010    14      0       0.1997898       53.82962
2010    14      1       0.1841          50.46096
2010    14      2       0.157547        44.40372
2010    14      3       0.1295417       37.76833
2010    14      4       0.1047268       31.73603
2010    14      5       0.1031126       31.30363
2010    14      6       0.1276259       37.26996
2010    14      7       0.1466432       41.95504
2010    15      0       0.161267        45.44719
2010    15      1       0.1473107       42.2321
2010    15      2       0.1323576       38.74228
2010    15      3       0.1416887       40.9295
2010    15      4       0.1381421       39.99885
2010    15      5       0.1244881       36.63808
2010    15      6       0.1591966       44.82834
2010    15      7       0.1764458       48.80272
2010    16      0       0.1978751       53.64609
2010    16      1       0.1767339       48.93793
2010    16      2       0.1223302       36.24856
2010    16      3       0.09689212      29.91296
2010    16      4       0.08441691      26.6184
2010    16      5       0.08719474      27.26197
2010    16      6       0.102958        31.3071
2010    16      7       0.123938        36.50239
2010    17      0       0.1355728       39.35745
2010    17      1       0.1098826       33.00724
2010    17      2       0.105567        31.94477
2010    17      3       0.1001473       30.54166
2010    17      4       0.09252998      28.6157
2010    17      5       0.08442657      26.68673
2010    17      6       0.09436791      29.31717
2010    17      7       0.1056675       32.21225
2010    18      0       0.1053429       32.23502
2010    18      1       0.08676372      27.62434
2010    18      2       0.06701286      22.42041
2010    18      3       0.06780947      22.51975
2010    18      4       0.07453906      24.21111
2010    18      5       0.07402906      24.03396
2010    18      6       0.08284501      26.38526
2010    18      7       0.09898419      30.56274
2010    19      0       0.1065646       32.41345
2010    19      1       0.07325484      23.70849
2010    19      2       0.0705209       23.01699
2010    19      3       0.08033814      25.64017
2010    19      4       0.147437        42.19391
2010    19      5       0.2385169       62.46547
2010    19      6       0.3273252       80.58665
2010    19      7       0.3094706       77.01017
2010    20      0       0.3226692       79.77673
2010    20      1       0.3690242       88.62273
2010    20      2       0.4060604       95.38226
2010    20      3       0.4226108       98.56076
2010    20      4       0.3744694       89.76938
2010    20      5       0.3359626       82.33308
2010    20      6       0.4450732       102.5567
2010    20      7       0.4450259       102.2771
2010    21      0       0.3901829       92.45761
2010    21      1       0.3836249       91.66035
2010    21      2       0.3995881       94.72226
2010    21      3       0.4319904       100.4185
2010    21      4       0.5387134       118.3476
2010    21      5       0.4146248       97.61837
2010    21      6       0.4062173       96.14675
2010    21      7       0.3420596       84.02514
2010    22      0       0.2703301       69.64419
2010    22      1       0.2039685       55.41902
2010    22      2       0.2638569       68.41602
2010    22      3       0.3957868       94.40404
2010    22      4       0.3856678       92.25345
2010    22      5       0.2526185       65.64713
2010    22      6       0.1951756       52.92611
2010    22      7       0.1967931       53.06981
2010    23      0       0.1822615       49.46477
2010    23      1       0.2107186       55.31319
2010    23      2       0.2806833       69.70999
2010    23      3       0.3602313       85.40208
2010    23      4       0.4298892       97.98208
2010    23      5       0.4645488       103.8961
2010    23      6       0.5070929       110.7873
2010    23      7       0.5129821       112.1899
2010    24      0       0.4810752       107.7481
2010    24      1       0.4665563       105.4334
2010    24      2       0.458489        103.8642
2010    24      3       0.5160719       112.7552
2010    24      4       0.6470066       133.0359
2010    24      5       0.8390377       158.5725
2010    24      6       0.9914082       175.532
2010    24      7       1.443588        212.3763
2010    25      0       1.11485         187.3305
2010    25      1       0.7470819       148.1664
2010    25      2       0.6829142       139.2124
2010    25      3       0.5978327       127.0763
2010    25      4       0.5951933       126.4661
2010    25      5       0.6854085       139.5473
2010    25      6       0.7491781       148.1645
2010    25      7       0.7720616       151.2668
2010    26      0       0.6942851       141.5151
2010    26      1       0.5515018       120.9465
2010    26      2       0.5250907       116.6678
2010    26      3       0.5937473       127.3376
2010    26      4       0.4674459       106.8778
2010    26      5       0.4287735       99.9893
2010    26      6       0.4072847       96.13694
2010    26      7       0.3700749       89.41509
2010    27      0       0.2996283       75.66669
2010    27      1       0.2288541       60.70995
2010    27      2       0.2148433       57.59101
2010    27      3       0.2191124       58.5157
2010    27      4       0.2423994       63.59497
2010    27      5       0.1869031       51.06617
2010    27      6       0.1839529       50.41598
2010    27      7       0.1992565       53.92797
2010    28      0       0.2207613       58.70895
2010    28      1       0.2228375       59.21813
2010    28      2       0.2150074       57.44556
2010    28      3       0.229646        60.48253
2010    28      4       0.2614985       66.9878
2010    28      5       0.2953397       73.71011
2010    28      6       0.3435675       83.32623
2010    28      7       0.3726563       88.50969
2010    29      0       0.3373531       81.86365
2010    29      1       0.3308177       80.63289
2010    29      2       0.3589578       86.14871
2010    29      3       0.3572863       86.27057
2010    29      4       0.3233077       79.98197
2010    29      5       0.2764614       70.57875
2010    29      6       0.3348689       82.32515
2010    29      7       0.5287114       116.3688
2010    30      0       0.6766648       137.6919
2010    30      1       0.6842937       138.7871
2010    30      2       0.6556776       135.1818
2010    30      3       0.6368477       132.6757
2010    30      4       0.6317749       132.1391
2010    30      5       0.5791691       124.3188
2010    30      6       0.5671368       122.7314
2010    30      7       0.7511472       148.3347
2011    1       0       0.2612054       66.3673
2011    1       1       0.2594943       66.15447
2011    1       2       0.2435831       62.80877
2011    1       3       0.2193351       57.67627
2011    1       4       0.1824117       49.08575
2011    1       5       0.1773238       47.89035
2011    1       6       0.2837839       69.8184
2011    1       7       0.3365705       80.236
2011    2       0       0.3345717       79.88507
2011    2       1       0.2922187       72.1745
2011    2       2       0.3938237       91.09102
2011    2       3       0.4187342       95.38666
2011    2       4       0.3128119       75.98136
2011    2       5       0.3265248       79.15373
2011    2       6       0.343939        82.55032
2011    2       7       0.3137071       76.66894
2011    3       0       0.3086865       75.7343
2011    3       1       0.3031038       74.83554
2011    3       2       0.2697183       68.23343
2011    3       3       0.2755293       69.49827
2011    3       4       0.2841866       70.94844
2011    3       5       0.3034839       74.77972
2011    3       6       0.2966391       73.33872
2011    3       7       0.2952735       72.98004
2011    4       0       0.2848352       70.90387
2011    4       1       0.2769803       69.43249
2011    4       2       0.2717875       68.67364
2011    4       3       0.2605851       66.46388
2011    4       4       0.2524893       64.72317
2011    4       5       0.2280565       59.68106
2011    4       6       0.2481263       64.19436
2011    4       7       0.2699966       68.77034
2011    5       0       0.2934011       73.40427
2011    5       1       0.2494648       64.37566
2011    5       2       0.2304869       60.42947
2011    5       3       0.2559603       65.83333
2011    5       4       0.2201924       58.29319
2011    5       5       0.1660269       46.32594
2011    5       6       0.1746112       48.28481
2011    5       7       0.1953585       52.90221
2011    6       0       0.211585        56.26773
2011    6       1       0.2650898       67.51857
2011    6       2       0.2928054       73.09993
2011    6       3       0.362988        86.32409
2011    6       4       0.3945318       92.52838
2011    6       5       0.3706995       88.28684
2011    6       6       0.3696827       88.15266
2011    6       7       0.3618182       86.7515
2011    7       0       0.3017994       75.40595
2011    7       1       0.2030283       54.81994
2011    7       2       0.1629482       45.86481
2011    7       3       0.1561723       44.2266
2011    7       4       0.1461207       41.60077
2011    7       5       0.1251718       36.61296
2011    7       6       0.1331165       38.58061
2011    7       7       0.1658207       46.26955
2011    8       0       0.215969        57.61169
2011    8       1       0.2601134       67.03458
2011    8       2       0.2538832       65.62958
2011    8       3       0.2471282       64.19981
2011    8       4       0.2042427       54.89466
2011    8       5       0.127165        37.21638
2011    8       6       0.1178591       35.04117
2011    8       7       0.135967        39.40494
2011    9       0       0.1259527       36.99498
2011    9       1       0.09510328      29.3972
2011    9       2       0.09980815      30.62045
2011    9       3       0.1048478       31.85206
2011    9       4       0.1028326       31.30534
2011    9       5       0.1010338       30.83429
2011    9       6       0.1039329       31.63124
2011    9       7       0.1144905       34.3086
2011    10      0       0.1258869       37.14989
2011    10      1       0.12083         35.96959
2011    10      2       0.1024816       31.48015
2011    10      3       0.08484462      27.05812
2011    10      4       0.07502756      24.5211
2011    10      5       0.07697296      24.99494
2011    10      6       0.1051052       31.97099
2011    10      7       0.1315301       38.37504
2011    11      0       0.1473932       42.09578
2011    11      1       0.1267502       37.17962
2011    11      2       0.1117144       33.30923
2011    11      3       0.1089921       32.58548
2011    11      4       0.101307        30.67711
2011    11      5       0.08688432      27.051
2011    11      6       0.0944937       28.94269
2011    11      7       0.1166002       34.35846
2011    12      0       0.1272758       37.01436
2011    12      1       0.1175974       34.52889
2011    12      2       0.1202413       34.86109
2011    12      3       0.1114943       32.79079
2011    12      4       0.09636906      29.275
2011    12      5       0.09738813      29.67252
2011    12      6       0.1017715       30.85668
2011    12      7       0.1298232       37.74807
2011    13      0       0.145473        41.49962
2011    13      1       0.1153621       34.08149
2011    13      2       0.09979973      30.12488
2011    13      3       0.09399905      28.64439
2011    13      4       0.0975614       29.42792
2011    13      5       0.1102759       32.57692
2011    13      6       0.128637        37.18008
2011    13      7       0.185831        50.61592
2011    14      0       0.2221388       58.86267
2011    14      1       0.2170321       58.06486
2011    14      2       0.1891525       52.04666
2011    14      3       0.2013531       54.81352
2011    14      4       0.2079036       56.24932
2011    14      5       0.2031767       55.11123
2011    14      6       0.1880408       51.70671
2011    14      7       0.1879382       51.88291
2011    15      0       0.1911746       52.72818
2011    15      1       0.1693203       47.66554
2011    15      2       0.1676106       47.27609
2011    15      3       0.1814097       50.49443
2011    15      4       0.188582        52.12213
2011    15      5       0.1879646       51.77868
2011    15      6       0.2089081       56.44258
2011    15      7       0.2259652       60.02885
2011    16      0       0.2445734       64.05825
2011    16      1       0.2608789       67.67874
2011    16      2       0.2191922       58.67473
2011    16      3       0.2040916       55.33983
2011    16      4       0.2410001       63.37046
2011    16      5       0.2547199       66.23775
2011    16      6       0.2158919       57.77365
2011    16      7       0.1981322       53.86281
2011    17      0       0.212774        57.0029
2011    17      1       0.2166433       57.41827
2011    17      2       0.2238435       58.95177
2011    17      3       0.2549464       65.54427
2011    17      4       0.3088168       76.3066
2011    17      5       0.327671        79.71072
2011    17      6       0.4025392       93.44996
2011    17      7       0.4789759       107.1833
2011    18      0       0.4320643       99.31702
2011    18      1       0.3872548       91.39693
2011    18      2       0.4316906       99.56237
2011    18      3       0.5039864       111.8983
2011    18      4       0.516685        113.8464
2011    18      5       0.4580326       103.9742
2011    18      6       0.4552609       103.4712
2011    18      7       0.4218461       97.84468
2011    19      0       0.3927368       93.01204
2011    19      1       0.345671        84.48506
2011    19      2       0.3433218       84.5241
2011    19      3       0.3186339       79.70275
2011    19      4       0.313196        78.5841
2011    19      5       0.3084878       77.33912
2011    19      6       0.2882902       73.15046
2011    19      7       0.2320203       61.2584
2011    20      0       0.1977325       53.54412
2011    20      1       0.2349011       61.92679
2011    20      2       0.2607246       68.04711
2011    20      3       0.2665375       69.25993
2011    20      4       0.238826        63.25441
2011    20      5       0.2184576       58.61028
2011    20      6       0.2267093       60.32131
2011    20      7       0.2447799       64.33177
2011    21      0       0.2507753       65.66471
2011    21      1       0.2202821       59.1477
2011    21      2       0.1705367       48.01063
2011    21      3       0.143984        41.61967
2011    21      4       0.141083        40.7466
2011    21      5       0.1408194       40.6282
2011    21      6       0.1479035       42.34017
2011    21      7       0.1583348       44.73357
2011    22      0       0.1625685       45.669
2011    22      1       0.1513408       43.06587
2011    22      2       0.1629079       45.80895
2011    22      3       0.1864091       51.25202
2011    22      4       0.1896195       52.00015
2011    22      5       0.1932514       52.80198
2011    22      6       0.2042587       55.29728
2011    22      7       0.2283715       60.70716
2011    23      0       0.224914        60.16905
2011    23      1       0.183381        51.04287
2011    23      2       0.1695824       47.87855
2011    23      3       0.2089076       56.6827
2011    23      4       0.2088805       56.63717
2011    23      5       0.2009829       54.90553
2011    23      6       0.2163338       58.45293
2011    23      7       0.2800252       72.36621
2011    24      0       0.3060607       77.99284
2011    24      1       0.2259116       61.03283
2011    24      2       0.164523        46.85874
2011    24      3       0.1764245       49.53402
2011    24      4       0.2216357       59.45575
2011    24      5       0.2890378       73.54259
2011    24      6       0.3442992       84.75238
2011    24      7       0.3764685       91.02816
2011    25      0       0.3892632       93.43289
2011    25      1       0.3358852       83.20876
2011    25      2       0.3315071       82.40427
2011    25      3       0.4091217       96.62073
2011    25      4       0.371291        89.33331
2011    25      5       0.3326285       81.78438
2011    25      6       0.3708094       89.10906
2011    25      7       0.4182399       97.9741
2011    26      0       0.4477332       103.5355
2011    26      1       0.4162664       98.63067
2011    26      2       0.4325318       101.367
2011    26      3       0.5081299       113.4758
2011    26      4       0.5041448       112.279
2011    26      5       0.4962199       110.486
2011    26      6       0.5766304       122.7884
2011    26      7       0.638188        131.6921
2011    27      0       0.5742628       122.9069
2011    27      1       0.4977575       111.6414
2011    27      2       0.4266574       100.2257
2011    27      3       0.4324402       100.6588
2011    27      4       0.4703547       107.1156
2011    27      5       0.4636201       105.9946
2011    27      6       0.4573368       104.4479
2011    27      7       0.4883197       109.6684
2011    28      0       0.486062        109.3898
2011    28      1       0.4318574       100.3257
2011    28      2       0.4739167       107.5709
2011    28      3       0.5838606       124.228
2011    28      4       0.6178972       129.5325
2011    28      5       0.6116796       128.8987
2011    28      6       0.5647843       122.0964
2011    28      7       0.591809        126.4441
2011    29      0       0.5932194       127.2878
2011    29      1       0.5772569       125.2451
2011    29      2       0.665427        137.5083
2011    29      3       0.7302075       145.6754
2011    29      4       0.7126032       143.1639
2011    29      5       0.7890254       152.7676
2011    29      6       0.8443114       159.618
2011    29      7       0.8749831       163.5369
2011    30      0       0.7626437       150.4358
2011    30      1       0.5600706       122.3853
2011    30      2       0.5860961       126.0246
2011    30      3       0.9238675       167.9544
2011    30      4       0.7368632       146.3879
2011    30      5       0.6111871       129.7113
2011    30      6       0.6197138       131.0504
2011    30      7       0.7321214       146.7556
2012    1       0       0.1582105       44.25788
2012    1       1       0.1756978       48.10741
2012    1       2       0.1855383       50.39237
2012    1       3       0.1831901       49.84237
2012    1       4       0.1683035       46.4161
2012    1       5       0.1660542       45.85776
2012    1       6       0.1818246       49.44908
2012    1       7       0.1968568       52.86115
2012    2       0       0.2010785       53.9657
2012    2       1       0.1920044       52.17279
2012    2       2       0.1929137       52.26064
2012    2       3       0.1980643       53.29945
2012    2       4       0.2073651       55.08944
2012    2       5       0.2216588       57.96054
2012    2       6       0.2426804       62.44424
2012    2       7       0.2681074       67.52148
2012    3       0       0.2498854       64.34403
2012    3       1       0.2201159       58.17288
2012    3       2       0.1948338       52.55568
2012    3       3       0.1919289       51.63798
2012    3       4       0.155864        43.5153
2012    3       5       0.1329188       37.8812
2012    3       6       0.1587597       43.74118
2012    3       7       0.2090953       54.82027
2012    4       0       0.255958        65.05727
2012    4       1       0.232492        60.05145
2012    4       2       0.1700689       46.35392
2012    4       3       0.1380788       39.12636
2012    4       4       0.1170551       34.34849
2012    4       5       0.1053451       31.72391
2012    4       6       0.1342559       38.80359
2012    4       7       0.1834997       50.10771
2012    5       0       0.1627535       45.42795
2012    5       1       0.130276        37.74919
2012    5       2       0.131805        38.05638
2012    5       3       0.1300043       37.62547
2012    5       4       0.1116697       33.12704
2012    5       5       0.131107        37.55643
2012    5       6       0.1522605       42.83076
2012    5       7       0.171865        47.72249
2012    6       0       0.1527721       43.47339
2012    6       1       0.1201236       35.67054
2012    6       2       0.0925011       28.70159
2012    6       3       0.09287559      28.75667
2012    6       4       0.08913859      27.82288
2012    6       5       0.08810633      27.58907
2012    6       6       0.1199946       35.606
2012    6       7       0.1528555       43.38654
2012    7       0       0.1427231       40.9097
2012    7       1       0.1365607       39.31691
2012    7       2       0.1439996       40.99539
2012    7       3       0.138313        39.7121
2012    7       4       0.1215228       35.74879
2012    7       5       0.1145696       34.02025
2012    7       6       0.1232832       36.16167
2012    7       7       0.131682        38.2717
2012    8       0       0.1227378       36.19846
2012    8       1       0.1014048       30.95717
2012    8       2       0.08955511      27.91177
2012    8       3       0.08179915      25.86645
2012    8       4       0.07578476      24.3126
2012    8       5       0.07002529      22.83303
2012    8       6       0.0782556       25.0002
2012    8       7       0.08916275      27.84634
2012    9       0       0.09142859      28.53486
2012    9       1       0.0755348       24.52552
2012    9       2       0.06789944      22.53386
2012    9       3       0.06949736      22.91357
2012    9       4       0.06941333      22.81063
2012    9       5       0.08457695      26.6827
2012    9       6       0.1104564       33.21002
2012    9       7       0.1650638       46.46038
2012    10      0       0.2006943       54.6437
2012    10      1       0.1799451       49.92297
2012    10      2       0.1653892       46.59055
2012    10      3       0.1311116       38.38784
2012    10      4       0.1149947       34.35991
2012    10      5       0.1835068       50.249
2012    10      6       0.2417332       63.01447
2012    10      7       0.2731516       69.75916
2012    11      0       0.2574021       66.74799
2012    11      1       0.2122483       56.93521
2012    11      2       0.1995667       53.73777
2012    11      3       0.1953467       52.46348
2012    11      4       0.1914271       51.15801
2012    11      5       0.1927431       51.47107
2012    11      6       0.2137132       56.5984
2012    11      7       0.2295037       60.43557
2012    12      0       0.259218        66.99317
2012    12      1       0.2437028       63.96327
2012    12      2       0.1860874       51.19803
2012    12      3       0.1483146       42.23065
2012    12      4       0.129558        37.68267
2012    12      5       0.1373369       39.62834
2012    12      6       0.1731636       47.90676
2012    12      7       0.1957786       52.89343
2012    13      0       0.2073923       55.2276
2012    13      1       0.2061971       54.67288
2012    13      2       0.2103205       55.69632
2012    13      3       0.2577725       66.12981
2012    13      4       0.2604377       66.78457
2012    13      5       0.2355854       61.5611
2012    13      6       0.2130297       56.61225
2012    13      7       0.1844303       50.36775
2012    14      0       0.1732109       47.82937
2012    14      1       0.1448486       41.37096
2012    14      2       0.1137956       33.75628
2012    14      3       0.1289699       37.09033
2012    14      4       0.1466807       41.08449
2012    14      5       0.1445012       40.54102
2012    14      6       0.1811578       49.09724
2012    14      7       0.2328964       61.1472
2012    15      0       0.3155923       78.78892
2012    15      1       0.2794894       71.4185
2012    15      2       0.1866536       50.90464
2012    15      3       0.1564647       43.77127
2012    15      4       0.1200194       35.13351
2012    15      5       0.08823771      27.4976
2012    15      6       0.1146152       34.19001
2012    15      7       0.1635467       46.06264
2012    16      0       0.198188        54.19452
2012    16      1       0.1431006       41.19348
2012    16      2       0.1468445       41.57131
2012    16      3       0.1865455       50.495
2012    16      4       0.1963061       52.53251
2012    16      5       0.252756        64.72324
2012    16      6       0.4396412       100.798
2012    16      7       0.543015        118.2368
2012    17      0       0.5943338       126.3232
2012    17      1       0.6436923       133.9309
2012    17      2       0.8303904       156.6776
2012    17      3       0.950205        169.3659
2012    17      4       0.6037201       127.1404
2012    17      5       0.3443484       84.36106
2012    17      6       0.4258143       100.1316
2012    17      7       0.5558555       121.5426
2012    18      0       0.5929486       127.1451
2012    18      1       0.5487607       120.516
2012    18      2       0.4331128       101.3104
2012    18      3       0.3230368       80.73321
2012    18      4       0.3083031       77.91772
2012    18      5       0.1922722       52.6014
2012    18      6       0.2012671       54.71185
2012    18      7       0.217449        58.51206
2012    19      0       0.2313847       61.67422
2012    19      1       0.2255669       60.41718
2012    19      2       0.1779576       49.76941
2012    19      3       0.1382285       40.40786
2012    19      4       0.1175097       35.33265
2012    19      5       0.111489        33.74056
2012    19      6       0.09377355      29.18185
2012    19      7       0.09225143      28.83626
2012    20      0       0.08410424      26.90453
2012    20      1       0.07173278      23.54042
2012    20      2       0.07302379      23.71818
2012    20      3       0.07527198      24.3057
2012    20      4       0.07251006      23.58114
2012    20      5       0.07076512      23.17544
2012    20      6       0.07983337      25.57223
2012    20      7       0.1054731       32.06714
2012    21      0       0.1102427       33.3447
2012    21      1       0.09492927      29.56355
2012    21      2       0.09601826      29.83369
2012    21      3       0.1089111       32.98577
2012    21      4       0.1360218       39.63824
2012    21      5       0.1587943       44.90975
2012    21      6       0.1927158       52.67691
2012    21      7       0.220307        58.66741
2012    22      0       0.234909        62.01723
2012    22      1       0.2251399       60.08034
2012    22      2       0.2151596       57.77754
2012    22      3       0.2293574       60.76189
2012    22      4       0.2363087       62.34957
2012    22      5       0.2411583       63.53628
2012    22      6       0.2736912       70.44853
2012    22      7       0.3339172       82.67096
2012    23      0       0.4027112       95.76395
2012    23      1       0.4355082       101.6844
2012    23      2       0.5724134       123.9641
2012    23      3       0.6919775       140.7764
2012    23      4       0.5555045       121.5269
2012    23      5       0.4923823       111.4786
2012    23      6       0.4532384       104.8446
2012    23      7       0.4907729       111.3937
2012    24      0       0.6207507       131.4002
2012    24      1       0.6493844       135.5329
2012    24      2       0.7916291       153.5904
2012    24      3       1.044534        180.0975
2012    24      4       0.7356344       145.8539
2012    24      5       0.7317633       145.2676
2012    24      6       0.8007045       153.7433
2012    24      7       0.90917         166.6947
2012    25      0       1.039295        180.5515
2012    25      1       0.9097717       167.7492
2012    25      2       0.8861426       165.0281
2012    25      3       0.9674345       173.2027
2012    25      4       1.017291        177.4302
2012    25      5       1.038993        179.8874
2012    25      6       1.075456        183.8174
2012    25      7       1.161754        191.8896
2012    26      0       1.395377        210.0335
2012    26      1       0.9712464       174.8561
2012    26      2       0.8867828       165.541
2012    26      3       0.9583334       172.8613
2012    26      4       0.9715185       174.3257
2012    26      5       0.9300983       170.1141
2012    26      6       1.014321        178.6797
2012    26      7       1.327791        205.2155
2012    27      0       1.105505        188.4486
2012    27      1       0.6943752       142.552
2012    27      2       0.8075384       156.9188
2012    27      3       0.9704369       174.5775
2012    27      4       1.031256        180.0216
2012    27      5       0.9109122       167.7774
2012    27      6       0.9046027       167.7209
2012    27      7       1.13406         190.5938
2012    28      0       1.296817        203.6329
2012    28      1       0.8711409       164.8159
2012    28      2       0.9342704       171.7014
2012    28      3       1.063243        184.4942
2012    28      4       1.020141        179.7235
2012    28      5       0.8216505       158.1425
2012    28      6       0.709136        144.757
2012    28      7       0.7946032       156.083
2012    29      0       0.8488524       162.8771
2012    29      1       0.8433716       162.2131
2012    29      2       0.8705949       165.1371
2012    29      3       0.9412719       172.6905
2012    29      4       0.9156665       169.8292
2012    29      5       0.8075225       157.4063
2012    29      6       0.767318        152.2924
2012    29      7       0.8995829       168.2427
2012    30      0       0.9061567       169.5762
2012    30      1       0.7119832       146.0391
2012    30      2       0.7174699       145.959
2012    30      3       0.8167405       157.7986
2012    30      4       0.7725489       151.9962
2012    30      5       0.7459101       148.2999
2012    30      6       0.7923331       154.2717
2012    30      7       0.8575069       162.3213
2013    1       0       0.2610101       67.68848
2013    1       1       0.2357278       62.32359
2013    1       2       0.2000824       54.41351
2013    1       3       0.2024265       54.89993
2013    1       4       0.2030275       54.98464
2013    1       5       0.2161641       57.5794
2013    1       6       0.2247983       59.67059
2013    1       7       0.2694367       69.02526
2013    2       0       0.3011552       75.46754
2013    2       1       0.3100817       77.33645
2013    2       2       0.3099907       77.12381
2013    2       3       0.2808906       71.2863
2013    2       4       0.2426906       63.28208
2013    2       5       0.2123747       56.7272
2013    2       6       0.2276794       60.04919
2013    2       7       0.2377148       62.21047
2013    3       0       0.2288942       60.2639
2013    3       1       0.2249094       59.53858
2013    3       2       0.1872297       51.1384
2013    3       3       0.1381005       39.59796
2013    3       4       0.1104052       32.85453
2013    3       5       0.1108658       33.00165
2013    3       6       0.1177094       34.73003
2013    3       7       0.1627426       45.57058
2013    4       0       0.2533167       65.64385
2013    4       1       0.3206503       79.59737
2013    4       2       0.4001072       94.49051
2013    4       3       0.4469605       102.2249
2013    4       4       0.4255455       98.02505
2013    4       5       0.3625276       86.78083
2013    4       6       0.3125676       77.50489
2013    4       7       0.2452742       64.00617
2013    5       0       0.1981307       53.91353
2013    5       1       0.1326098       38.66224
2013    5       2       0.09689929      29.88533
2013    5       3       0.08275344      26.27458
2013    5       4       0.07572887      24.40605
2013    5       5       0.07667498      24.5614
2013    5       6       0.1130667       33.749
2013    5       7       0.1356542       39.32516
2013    6       0       0.1401896       40.4906
2013    6       1       0.1304149       38.14264
2013    6       2       0.1062975       32.31233
2013    6       3       0.1250971       36.81807
2013    6       4       0.1557788       44.11043
2013    6       5       0.1718993       47.87056
2013    6       6       0.2042496       55.20207
2013    6       7       0.2002744       54.27506
2013    7       0       0.222425        59.20575
2013    7       1       0.2486454       64.89919
2013    7       2       0.2423714       63.53618
2013    7       3       0.2700553       69.19182
2013    7       4       0.2806149       71.23451
2013    7       5       0.2658605       68.20741
2013    7       6       0.2793491       71.06682
2013    7       7       0.3402662       83.00257
2013    8       0       0.3481808       84.33442
2013    8       1       0.2960031       74.42982
2013    8       2       0.3187891       79.04114
2013    8       3       0.357907        86.55307
2013    8       4       0.349159        84.95778
2013    8       5       0.3397663       83.05891
2013    8       6       0.3228702       79.53079
2013    8       7       0.3428327       83.04076
2013    9       0       0.3335683       81.85925
2013    9       1       0.2669149       68.76253
2013    9       2       0.2954288       74.3732
2013    9       3       0.3242702       79.78624
2013    9       4       0.3196688       78.94051
2013    9       5       0.3295005       81.04977
2013    9       6       0.3414622       83.44371
2013    9       7       0.3278512       80.62887
2013    10      0       0.3346777       82.45737
2013    10      1       0.3050925       77.01689
2013    10      2       0.3104147       78.10796
2013    10      3       0.3385958       83.44381
2013    10      4       0.3517811       85.71859
2013    10      5       0.3692969       88.84957
2013    10      6       0.4067139       95.53798
2013    10      7       0.4066207       95.58653
2013    11      0       0.3576594       86.71376
2013    11      1       0.3418189       83.92191
2013    11      2       0.3693778       89.19443
2013    11      3       0.3867801       92.07982
2013    11      4       0.4393695       101.0693
2013    11      5       0.443038        101.7284
2013    11      6       0.4059357       95.19987
2013    11      7       0.3642022       87.52944
2013    12      0       0.3102539       77.17723
2013    12      1       0.3063087       76.56072
2013    12      2       0.3641195       87.91244
2013    12      3       0.4016152       94.48379
2013    12      4       0.3985627       93.91599
2013    12      5       0.3822267       91.07838
2013    12      6       0.3373324       82.90789
2013    12      7       0.3303101       81.72356
2013    13      0       0.3486845       85.28953
2013    13      1       0.3399876       83.65019
2013    13      2       0.4388029       101.083
2013    13      3       0.5558595       119.2749
2013    13      4       0.5193646       114.0838
2013    13      5       0.4829982       108.5719
2013    13      6       0.4854667       109.541
2013    13      7       0.6000448       127.7811
2013    14      0       0.5855102       126.3372
2013    14      1       0.4324084       101.4651
2013    14      2       0.4368211       101.345
2013    14      3       0.5234718       114.8383
2013    14      4       0.5252574       114.9967
2013    14      5       0.5286291       115.8813
2013    14      6       0.5148907       113.3252
2013    14      7       0.5938776       124.7229
2013    15      0       0.6352801       131.0421
2013    15      1       0.5598515       121.2358
2013    15      2       0.5708495       123.0907
2013    15      3       0.7064357       141.5908
2013    15      4       0.8115522       154.3491
2013    15      5       0.9477171       169.741
2013    15      6       1.0108          176.4161
2013    15      7       0.7124287       143.4524
2013    16      0       0.6055395       128.8621
2013    16      1       0.5908672       126.8923
2013    16      2       0.555737        121.4293
2013    16      3       0.6534214       135.9299
2013    16      4       0.6050025       128.4619
2013    16      5       0.5674297       122.9328
2013    16      6       0.4830638       109.5932
2013    16      7       0.3912091       93.49097
2013    17      0       0.3365474       83.18919
2013    17      1       0.326842        81.45101
2013    17      2       0.2920689       74.72548
2013    17      3       0.3548018       86.97341
2013    17      4       0.3655052       88.78195
2013    17      5       0.3119736       78.39723
2013    17      6       0.2808321       72.17641
2013    17      7       0.2588111       67.709
2013    18      0       0.2074624       56.57195
2013    18      1       0.1575911       45.14517
2013    18      2       0.138873        40.69357
2013    18      3       0.1553334       44.58429
2013    18      4       0.1898646       52.44625
2013    18      5       0.1811077       50.4609
2013    18      6       0.1458579       42.28516
2013    18      7       0.1261285       37.43242
2013    19      0       0.1145161       34.53684
2013    19      1       0.09293494      29.14332
2013    19      2       0.07588813      24.73113
2013    19      3       0.1198858       35.86892
2013    19      4       0.1866289       51.48232
2013    19      5       0.1866764       51.2569
2013    19      6       0.1749833       48.59357
2013    19      7       0.1734332       48.3274
2013    20      0       0.1963144       53.50446
2013    20      1       0.2506013       65.70428
2013    20      2       0.285335        73.35542
2013    20      3       0.177199        49.34142
2013    20      4       0.09226094      28.69012
2013    20      5       0.07820163      25.29931
2013    20      6       0.1007873       31.08633
2013    20      7       0.1336932       39.1022
2013    21      0       0.1575804       44.76378
2013    21      1       0.1455228       42.00149
2013    21      2       0.1159945       34.82019
2013    21      3       0.1215618       36.07872
2013    21      4       0.1118985       33.6306
2013    21      5       0.1130384       33.8466
2013    21      6       0.1543078       43.67537
2013    21      7       0.1872728       50.99113
2013    22      0       0.191613        51.81156
2013    22      1       0.1967036       53.55002
2013    22      2       0.2585413       67.37487
2013    22      3       0.3502217       85.77851
2013    22      4       0.3004948       75.62473
2013    22      5       0.2109229       56.16887
2013    22      6       0.2195898       57.7825
2013    22      7       0.2232416       58.70371
2013    23      0       0.2047702       55.07397
2013    23      1       0.1678881       46.88723
2013    23      2       0.1459457       41.57958
2013    23      3       0.1385533       39.62299
2013    23      4       0.1386463       39.62076
2013    23      5       0.1464204       41.55841
2013    23      6       0.2059513       55.14478
2013    23      7       0.2540503       65.80292
2013    24      0       0.2600074       67.06951
2013    24      1       0.2512585       65.19547
2013    24      2       0.2971292       74.90372
2013    24      3       0.2617873       67.59987
2013    24      4       0.2177832       57.65652
2013    24      5       0.2140611       56.79606
2013    24      6       0.2131707       56.98983
2013    24      7       0.2223201       59.23172
2013    25      0       0.2181368       58.48421
2013    25      1       0.1816811       50.29924
2013    25      2       0.1364883       39.4664
2013    25      3       0.1060133       31.87731
2013    25      4       0.0991311       30.09389
2013    25      5       0.1026          31.00054
2013    25      6       0.1276615       37.33042
2013    25      7       0.151542        43.15035
2013    26      0       0.1628547       45.9254
2013    26      1       0.1766535       49.21079
2013    26      2       0.2506268       65.75279
2013    26      3       0.2830339       72.71085
2013    26      4       0.2713051       70.20211
2013    26      5       0.2698191       69.92209
2013    26      6       0.2361812       62.72451
2013    26      7       0.2837971       72.67455
2013    27      0       0.3902295       93.16091
2013    27      1       0.4372714       101.6314
2013    27      2       0.5220082       115.7666
2013    27      3       0.559623        121.5431
2013    27      4       0.545523        119.6834
2013    27      5       0.5384433       118.9806
2013    27      6       0.4962713       111.7928
2013    27      7       0.4325245       100.6863
2013    28      0       0.3571942       86.91249
2013    28      1       0.3133052       78.34998
2013    28      2       0.3744971       89.83828
2013    28      3       0.451665        103.1942
2013    28      4       0.4492178       102.6486
2013    28      5       0.4241863       98.48815
2013    28      6       0.4570386       104.3096
2013    28      7       0.5273302       115.8965
2013    29      0       0.6095179       128.2705
2013    29      1       0.6259691       131.4485
2013    29      2       0.6207264       130.3633
2013    29      3       0.6344952       132.5061
2013    29      4       0.8183737       156.1316
2013    29      5       0.9409789       169.6162
2013    29      6       0.791401        153.1888
2013    29      7       0.8121432       156.0209
2013    30      0       0.7701075       150.7604
2013    30      1       0.6624748       136.4123
2013    30      2       0.6793795       138.6462
2013    30      3       0.8771899       162.505
2013    30      4       0.9175485       166.7004
2013    30      5       0.6920789       139.6796
2013    30      6       0.7675376       150.5262
2013    30      7       1.18707         193.4577
2014    1       0       0.256943        66.4784
2014    1       1       0.191996        51.94028
2014    1       2       0.1559742       43.32901
2014    1       3       0.1706946       46.46763
2014    1       4       0.1880352       50.48374
2014    1       5       0.1925053       51.78208
2014    1       6       0.2020571       54.22278
2014    1       7       0.2360037       61.7476
2014    2       0       0.2525342       65.45242
2014    2       1       0.2403728       63.15503
2014    2       2       0.2319372       61.4735
2014    2       3       0.2127652       57.33798
2014    2       4       0.1859988       51.34239
2014    2       5       0.1634599       46.00801
2014    2       6       0.1913034       52.27668
2014    2       7       0.2229162       59.2625
2014    3       0       0.2651258       68.61615
2014    3       1       0.3263407       81.35604
2014    3       2       0.4444784       103.7581
2014    3       3       0.8237736       156.7543
2014    3       4       0.6003215       127.5156
2014    3       5       0.3623906       87.9972
2014    3       6       0.4480039       103.9827
2014    3       7       0.4612221       106.3203
2014    4       0       0.3938509       94.17981
2014    4       1       0.2969156       75.3049
2014    4       2       0.2958806       74.619
2014    4       3       0.2732707       69.76045
2014    4       4       0.2639374       67.35667
2014    4       5       0.2895455       72.29734
2014    4       6       0.2886473       72.48493
2014    4       7       0.2733032       69.53612
2014    5       0       0.2863964       72.17767
2014    5       1       0.2515663       64.92722
2014    5       2       0.3218501       79.37205
2014    5       3       0.3860631       91.19148
2014    5       4       0.3855606       91.08571
2014    5       5       0.4155304       96.68611
2014    5       6       0.3880654       91.99946
2014    5       7       0.3370493       82.75069
2014    6       0       0.3118657       78.13409
2014    6       1       0.2511583       65.93106
2014    6       2       0.1909208       52.72666
2014    6       3       0.130198        38.17026
2014    6       4       0.1015399       31.0227
2014    6       5       0.07955791      25.54221
2014    6       6       0.08430264      26.81756
2014    6       7       0.08786531      27.68971
2014    7       0       0.08872104      27.96846
2014    7       1       0.09091898      28.51952
2014    7       2       0.08677881      27.54473
2014    7       3       0.08543667      27.21694
2014    7       4       0.1058739       32.42354
2014    7       5       0.1115155       33.82472
2014    7       6       0.1235748       36.75026
2014    7       7       0.1367908       39.96902
2014    8       0       0.1489467       43.00417
2014    8       1       0.1669608       47.303
2014    8       2       0.1320078       38.99067
2014    8       3       0.1123103       34.04335
2014    8       4       0.1042753       31.98023
2014    8       5       0.1050405       32.02207
2014    8       6       0.1715035       47.93869
2014    8       7       0.2140646       57.61858
2014    9       0       0.2103188       56.89074
2014    9       1       0.173032        48.55444
2014    9       2       0.1480006       42.64364
2014    9       3       0.1770837       49.25772
2014    9       4       0.2029456       54.86039
2014    9       5       0.1976746       53.61664
2014    9       6       0.2099976       56.39875
2014    9       7       0.2193763       58.48139
2014    10      0       0.2289274       60.55898
2014    10      1       0.2147719       57.65218
2014    10      2       0.2202887       59.07016
2014    10      3       0.2364015       62.22204
2014    10      4       0.2819684       71.70694
2014    10      5       0.3116531       77.68352
2014    10      6       0.3499525       85.26055
2014    10      7       0.3218588       79.77036
2014    11      0       0.2164322       58.00276
2014    11      1       0.1498527       42.81468
2014    11      2       0.2163571       57.97227
2014    11      3       0.3456557       84.52032
2014    11      4       0.4143342       96.70248
2014    11      5       0.5477226       118.5077
2014    11      6       0.7094537       141.4764
2014    11      7       0.6946862       139.7316
2014    12      0       0.6601448       135.1475
2014    12      1       0.6100768       128.1831
2014    12      2       0.5977609       126.4446
2014    12      3       0.6843468       138.2733
2014    12      4       0.6042326       126.5529
2014    12      5       0.5668657       121.3284
2014    12      6       0.6052474       127.1537
2014    12      7       0.6427033       132.6555
2014    13      0       0.6162761       129.5088
2014    13      1       0.5433719       118.7121
2014    13      2       0.5571341       120.8991
2014    13      3       0.5806702       124.4144
2014    13      4       0.5712701       122.8428
2014    13      5       0.6278241       131.1926
2014    13      6       0.6898267       140.0268
2014    13      7       0.7803174       151.7631
2014    14      0       0.6881255       140.055
2014    14      1       0.5093125       114.0354
2014    14      2       0.504238        113.3127
2014    14      3       0.5420398       118.8547
2014    14      4       0.5691558       123.0415
2014    14      5       0.5085411       113.6722
2014    14      6       0.4496397       103.9422
2014    14      7       0.3888938       93.34441
2014    15      0       0.3380334       83.76061
2014    15      1       0.2378828       63.01979
2014    15      2       0.1944993       53.19318
2014    15      3       0.2301859       60.66925
2014    15      4       0.2169068       57.64676
2014    15      5       0.1918993       52.01225
2014    15      6       0.3108906       77.11842
2014    15      7       0.4371027       100.487
2014    16      0       0.4394832       101.017
2014    16      1       0.4151334       97.13434
2014    16      2       0.4315094       100.0053
2014    16      3       0.4554503       103.9365
2014    16      4       0.4930436       109.9284
2014    16      5       0.5779594       123.2516
2014    16      6       0.5986271       126.3736
2014    16      7       0.596494        126.3654
2014    17      0       0.6104202       128.7131
2014    17      1       0.5626887       121.799
2014    17      2       0.5333614       117.1498
2014    17      3       0.5310939       116.6434
2014    17      4       0.5737879       123.237
2014    17      5       0.5769528       123.9794
2014    17      6       0.6405635       133.2243
2014    17      7       0.6855522       139.5291
2014    18      0       0.5953525       127.1293
2014    18      1       0.4712821       107.5957
2014    18      2       0.4280048       100.1572
2014    18      3       0.4565084       104.6982
2014    18      4       0.5380761       117.5481
2014    18      5       0.6564164       134.7224
2014    18      6       0.5551474       119.9412
2014    18      7       0.5466539       118.8642
2014    19      0       0.4933116       110.3665
2014    19      1       0.4017108       94.86576
2014    19      2       0.3404896       83.44583
2014    19      3       0.3047143       76.30994
2014    19      4       0.2566505       66.35073
2014    19      5       0.2459836       64.01944
2014    19      6       0.3658239       87.87793
2014    19      7       0.4674926       106.0537
2014    20      0       0.5504459       119.5048
2014    20      1       0.5011792       112.2379
2014    20      2       0.4284842       100.192
2014    20      3       0.5001677       112.2714
2014    20      4       0.5648093       122.7401
2014    20      5       0.5014266       112.3443
2014    20      6       0.5145013       114.1546
2014    20      7       0.5880534       125.7175
2014    21      0       0.6412993       133.319
2014    21      1       0.5558457       120.811
2014    21      2       0.5055326       113.0603
2014    21      3       0.4919014       110.6832
2014    21      4       0.4792001       108.4515
2014    21      5       0.4795415       108.4789
2014    21      6       0.4974479       111.4558
2014    21      7       0.529568        116.665
2014    22      0       0.5135913       114.279
2014    22      1       0.4708117       107.385
2014    22      2       0.5249904       116.1786
2014    22      3       0.6087349       128.8089
2014    22      4       0.5954377       126.6842
2014    22      5       0.576465        123.8672
2014    22      6       0.5380303       117.8618
2014    22      7       0.5330879       117.0719
2014    23      0       0.5544048       120.6997
2014    23      1       0.5709978       123.6667
2014    23      2       0.6068124       129.221
2014    23      3       0.5724325       123.839
2014    23      4       0.4989433       111.9102
2014    23      5       0.4862993       109.3204
2014    23      6       0.4875169       109.3068
2014    23      7       0.4260873       99.01458
2014    24      0       0.4079521       96.05717
2014    24      1       0.4533166       104.6513
2014    24      2       0.4454202       103.7
2014    24      3       0.3481886       85.67939
2014    24      4       0.2383657       62.78883
2014    24      5       0.1813474       49.95651
2014    24      6       0.196332        53.35689
2014    24      7       0.2465612       64.3473
2014    25      0       0.3217315       79.88934
2014    25      1       0.3262434       81.04655
2014    25      2       0.2488636       64.96534
2014    25      3       0.2246377       59.68575
2014    25      4       0.194369        52.8402
2014    25      5       0.1646102       45.88318
2014    25      6       0.2179768       58.04186
2014    25      7       0.3004374       75.62963
2014    26      0       0.2897334       73.76826
2014    26      1       0.2208777       59.21147
2014    26      2       0.1933897       52.93212
2014    26      3       0.1913503       52.41306
2014    26      4       0.193375        52.77313
2014    26      5       0.1866343       51.11287
2014    26      6       0.2196144       58.65185
2014    26      7       0.2924481       74.14205
2014    27      0       0.2771454       71.02829
2014    27      1       0.2088992       55.75655
2014    27      2       0.176713        47.88679
2014    27      3       0.1655659       45.10091
2014    27      4       0.245138        61.57337
2014    27      5       0.3937776       89.37613
2014    27      6       0.31199         76.36814
2014    27      7       0.3792581       90.41561
2014    28      0       0.3412776       83.88973
2014    28      1       0.2751654       70.91773
2014    28      2       0.2860216       73.45662
2014    28      3       0.3411524       84.53733
2014    28      4       0.3053524       77.27388
2014    28      5       0.2570279       67.16792
2014    28      6       0.2412499       63.7684
2014    28      7       0.2439047       64.1474
2014    29      0       0.2579681       67.29779
2014    29      1       0.2403119       63.68738
2014    29      2       0.2324494       61.78797
2014    29      3       0.2451995       64.3134
2014    29      4       0.2499504       65.25022
2014    29      5       0.244137        63.9673
2014    29      6       0.2587443       67.3524
2014    29      7       0.2959085       75.19477
2014    30      0       0.2944135       75.00536
2014    30      1       0.2679355       69.59673
2014    30      2       0.2312907       61.59334
2014    30      3       0.2084784       56.26821
2014    30      4       0.1921187       52.35121
2014    30      5       0.1961275       53.17999
2014    30      6       0.2454371       64.35384
2014    30      7       0.2841725       72.65284
2015    1       0       0.5145032       113.5495
2015    1       1       0.4744605       107.3486
2015    1       2       0.5215976       115.2015
2015    1       3       0.5386609       117.8846
2015    1       4       0.4364051       100.9286
2015    1       5       0.2842138       72.06178
2015    1       6       0.1857243       50.64178
2015    1       7       0.1627209       45.29963
2015    2       0       0.1546506       43.55935
2015    2       1       0.1256755       36.77963
2015    2       2       0.1167075       34.48394
2015    2       3       0.1657461       45.93388
2015    2       4       0.177482        48.77784
2015    2       5       0.1255738       36.76639
2015    2       6       0.1311835       38.19869
2015    2       7       0.1692197       47.19343
2015    3       0       0.1862522       51.18093
2015    3       1       0.1353665       39.34113
2015    3       2       0.09826868      30.18554
2015    3       3       0.09099963      28.31863
2015    3       4       0.08847679      27.64861
2015    3       5       0.09754289      29.87982
2015    3       6       0.1087689       32.63682
2015    3       7       0.1243501       36.53312
2015    4       0       0.1419681       40.74724
2015    4       1       0.1217292       35.85667
2015    4       2       0.1093382       32.78989
2015    4       3       0.1393344       39.98792
2015    4       4       0.2350957       61.46806
2015    4       5       0.3880448       90.31373
2015    4       6       0.7186784       141.2338
2015    4       7       0.9917707       172.2407
2015    5       0       0.9555817       168.2201
2015    5       1       0.9388491       166.2318
2015    5       2       0.9131862       163.541
2015    5       3       0.902331        163.6561
2015    5       4       0.8965237       163.2375
2015    5       5       0.9390432       167.1642
2015    5       6       0.8788555       160.6066
2015    5       7       0.9325121       166.2607
2015    6       0       0.8584091       158.2108
2015    6       1       0.696744        138.989
2015    6       2       0.6819007       137.2096
2015    6       3       0.8300524       155.841
2015    6       4       0.5332877       115.9046
2015    6       5       0.4470546       101.8289
2015    6       6       0.5067054       111.9591
2015    6       7       0.5405256       117.5842
2015    7       0       0.5304061       116.149
2015    7       1       0.5132343       113.6174
2015    7       2       0.4952336       110.4061
2015    7       3       0.4832922       108.4559
2015    7       4       0.489971        109.9141
2015    7       5       0.4059019       95.39103
2015    7       6       0.4483256       102.5901
2015    7       7       0.607964        127.568
2015    8       0       0.7176547       142.0736
2015    8       1       0.8173526       154.2236
2015    8       2       0.933641        166.9568
2015    8       3       1.017864        175.9138
2015    8       4       1.035734        177.8046
2015    8       5       1.123271        185.5826
2015    8       6       1.253059        196.6946
2015    8       7       1.31195         202.1565
2015    9       0       0.9209944       167.7852
2015    9       1       0.9905861       174.5023
2015    9       2       0.9835888       174.4052
2015    9       3       0.9831673       173.5256
2015    9       4       1.0722          181.6579
2015    9       5       1.319022        201.5123
2015    9       6       1.718971        228.4343
2015    9       7       1.251759        199.7878
2015    10      0       1.173161        193.8396
2015    10      1       0.6180414       131.7633
2015    10      2       0.5201805       116.4819
2015    10      3       0.4657682       107.464
2015    10      4       0.2330388       62.2715
2015    10      5       0.1122504       34.19913
2015    10      6       0.1186567       35.91663
2015    10      7       0.2073084       56.8475
2015    11      0       0.1990171       55.00102
2015    11      1       0.1211207       36.42868
2015    11      2       0.07540863      24.73988
2015    11      3       0.07081168      23.50097
2015    11      4       0.07137661      23.57463
2015    11      5       0.08015428      25.751
2015    11      6       0.1494527       42.97834
2015    11      7       0.2729634       69.94841
2015    12      0       0.2895337       73.36304
2015    12      1       0.229625        60.88481
2015    12      2       0.1937001       52.92863
2015    12      3       0.1574822       44.59628
2015    12      4       0.1448815       41.60362
2015    12      5       0.1473547       42.18193
2015    12      6       0.2035667       55.20555
2015    12      7       0.2109571       56.85817
2015    13      0       0.1896359       52.0862
2015    13      1       0.1702905       47.53538
2015    13      2       0.1605814       44.88979
2015    13      3       0.1541424       43.17374
2015    13      4       0.1443112       40.92127
2015    13      5       0.1520797       42.91047
2015    13      6       0.1712966       47.36685
2015    13      7       0.1834464       50.19717
2015    14      0       0.1956334       53.03862
2015    14      1       0.233537        61.53771
2015    14      2       0.2426083       63.44628
2015    14      3       0.2689645       69.07854
2015    14      4       0.2972883       74.97305
2015    14      5       0.3443536       84.33627
2015    14      6       0.3534159       86.08818
2015    14      7       0.3946943       93.83697
2015    15      0       0.4305417       100.2805
2015    15      1       0.4265574       99.61117
2015    15      2       0.4030638       95.47751
2015    15      3       0.364626        88.44585
2015    15      4       0.3842826       92.04736
2015    15      5       0.4289652       100.0662
2015    15      6       0.4462407       103.0053
2015    15      7       0.4954655       111.1545
2015    16      0       0.5759744       123.8032
2015    16      1       0.546079        119.4328
2015    16      2       0.5937161       126.6914
2015    16      3       0.6574442       135.6635
2015    16      4       0.5862555       125.9787
2015    16      5       0.5637188       122.818
2015    16      6       0.6474425       135.2842
2015    16      7       0.828807        158.4184
2015    17      0       0.9793088       174.6255
2015    17      1       0.7956366       154.3687
2015    17      2       0.6920891       140.4806
2015    17      3       0.592814        126.4834
2015    17      4       0.5241332       115.8062
2015    17      5       0.5082122       113.0981
2015    17      6       0.6131456       129.6404
2015    17      7       0.7218915       144.5988
2015    18      0       0.6640893       136.8754
2015    18      1       0.5518764       120.2438
2015    18      2       0.4982285       111.5049
2015    18      3       0.4903919       109.8069
2015    18      4       0.5001537       110.9727
2015    18      5       0.487178        108.8939
2015    18      6       0.4545652       103.7525
2015    18      7       0.4328933       100.3706
2015    19      0       0.4398205       102.0929
2015    19      1       0.4140888       97.82706
2015    19      2       0.3825664       92.14506
2015    19      3       0.4303378       100.5132
2015    19      4       0.4570694       104.8644
2015    19      5       0.4464421       103.1595
2015    19      6       0.4268042       99.80732
2015    19      7       0.4153984       97.81924
2015    20      0       0.4174574       98.28652
2015    20      1       0.3577902       87.44127
2015    20      2       0.3284632       82.02208
2015    20      3       0.3421732       84.71934
2015    20      4       0.2978163       75.68337
2015    20      5       0.221553        59.42629
2015    20      6       0.2079408       56.50818
2015    20      7       0.2848589       73.26448
2015    21      0       0.3364256       83.79694
2015    21      1       0.2879772       74.18673
2015    21      2       0.219645        59.3993
2015    21      3       0.2840673       72.63687
2015    21      4       0.2895194       73.80088
2015    21      5       0.282215        72.41059
2015    21      6       0.3148158       79.04988
2015    21      7       0.3830473       92.41126
2015    22      0       0.4230462       99.85105
2015    22      1       0.4093637       97.72105
2015    22      2       0.4238596       99.90544
2015    22      3       0.4822011       109.7372
2015    22      4       0.5172119       115.1931
2015    22      5       0.5344878       117.984
2015    22      6       0.5313305       117.5831
2015    22      7       0.5334573       117.6707
2015    23      0       0.4234147       99.49011
2015    23      1       0.3171983       79.8251
2015    23      2       0.4673353       107.1888
2015    23      3       0.785741        152.846
2015    23      4       0.8106824       155.8857
2015    23      5       0.8112832       156.1484
2015    23      6       1.002954        175.9878
2015    23      7       0.7662606       150.2602
2015    24      0       0.4909125       111.4283
2015    24      1       0.4961877       111.9394
2015    24      2       0.6628462       135.5421
2015    24      3       0.6436622       133.1601
2015    24      4       0.5696654       122.3239
2015    24      5       0.5405352       117.7598
2015    24      6       0.742571        146.9042
2015    24      7       1.191785        193.2107
2015    25      0       1.125493        187.343
2015    25      1       0.7150389       143.1054
2015    25      2       0.7474012       147.106
2015    25      3       1.072288        182.8298
2015    25      4       1.161123        190.9544
2015    25      5       0.8367026       158.655
2015    25      6       0.9292206       168.6334
2015    25      7       1.307341        202.5034
2015    26      0       1.218598        196.0255
2015    26      1       1.037409        180.6285
2015    26      2       0.9975598       176.7
2015    26      3       1.333785        204.874
2015    26      4       1.027034        179.604
2015    26      5       0.9856364       175.646
2015    26      6       0.9367931       170.2753
2015    26      7       1.157897        192.2264
2015    27      0       1.029054        179.8415
2015    27      1       1.298323        202.4016
2015    27      2       0.9424352       170.827
2015    27      3       0.8273789       158.3709
2015    27      4       0.6688909       137.5236
2015    27      5       0.6530181       134.3796
2015    27      6       0.6772895       137.7129
2015    27      7       0.7878979       152.9362
2015    28      0       0.8503488       160.6001
2015    28      1       0.9571375       172.2321
2015    28      2       1.141317        189.4546
2015    28      3       0.7919113       153.2697
2015    28      4       0.6757535       137.8188
2015    28      5       0.6822074       138.627
2015    28      6       0.8917589       164.437
2015    28      7       1.522387        216.8634
2015    29      0       1.058264        181.9766
2015    29      1       0.8684783       163.1537
2015    29      2       0.7290578       146.1197
2015    29      3       0.836289        159.5577
2015    29      4       1.107493        187.4395
2015    29      5       0.8624291       162.0281
2015    29      6       0.7580069       149.2564
2015    29      7       1.327962        204.7105
2015    30      0       1.034923        180.938
2015    30      1       1.234056        198.1599
2015    30      2       0.9439193       171.6757
2015    30      3       0.8368709       159.8682
2015    30      4       1.029057        179.3826
2015    30      5       0.823294        156.7097
2015    30      6       0.6364678       133.8771
2015    30      7       0.8680061       163.4252
2016    1       0       0.3535339       82.91805
2016    1       1       0.4297225       95.89474
2016    1       2       0.4258355       95.3951
2016    1       3       0.4538806       100.1164
2016    1       4       0.5249734       111.5043
2016    1       5       0.3927139       90.55751
2016    1       6       0.3698506       86.94225
2016    1       7       0.4227573       96.42759
2016    2       0       0.408786        94.34265
2016    2       1       0.3556307       85.02618
2016    2       2       0.3452869       83.20449
2016    2       3       0.3693252       87.34555
2016    2       4       0.3163576       77.41873
2016    2       5       0.2871896       71.85309
2016    2       6       0.2890174       72.22784
2016    2       7       0.2754509       69.82325
2016    3       0       0.2218507       58.82867
2016    3       1       0.2000541       53.96557
2016    3       2       0.2280919       60.106
2016    3       3       0.2101152       56.15076
2016    3       4       0.1886428       51.32065
2016    3       5       0.1911724       51.96408
2016    3       6       0.1982765       53.69894
2016    3       7       0.1986492       53.8331
2016    4       0       0.2041931       55.02498
2016    4       1       0.2265834       59.78878
2016    4       2       0.2811425       71.1929
2016    4       3       0.2799275       70.93816
2016    4       4       0.2634714       67.5456
2016    4       5       0.2661939       68.135
2016    4       6       0.2720525       69.32604
2016    4       7       0.2963116       74.24119
2016    5       0       0.3425574       83.23868
2016    5       1       0.3704754       88.69141
2016    5       2       0.3636811       87.38931
2016    5       3       0.33549         81.92884
2016    5       4       0.3184199       78.68886
2016    5       5       0.3153326       78.15229
2016    5       6       0.3249197       80.25454
2016    5       7       0.3655878       87.95355
2016    6       0       0.3903389       92.05568
2016    6       1       0.3319079       81.20863
2016    6       2       0.3156246       78.26244
2016    6       3       0.311868        77.47347
2016    6       4       0.2873299       72.46899
2016    6       5       0.2939387       73.73274
2016    6       6       0.3193527       78.72824
2016    6       7       0.3273725       80.31072
2016    7       0       0.3212604       79.39933
2016    7       1       0.2673537       68.74103
2016    7       2       0.2195159       58.36451
2016    7       3       0.2166748       57.57897
2016    7       4       0.2057315       55.0315
2016    7       5       0.188398        51.09245
2016    7       6       0.1721245       47.55407
2016    7       7       0.184613        50.63704
2016    8       0       0.2223049       59.30514
2016    8       1       0.1659036       46.50502
2016    8       2       0.194669        52.59685
2016    8       3       0.2556981       65.50556
2016    8       4       0.222621        58.57115
2016    8       5       0.2362782       61.70659
2016    8       6       0.3890157       92.49247
2016    8       7       0.6370141       132.7065
2016    9       0       0.8259143       157.4378
2016    9       1       0.6292168       131.8688
2016    9       2       0.5128799       114.2502
2016    9       3       0.5556098       120.2285
2016    9       4       0.5001965       111.1093
2016    9       5       0.449098        102.4037
2016    9       6       0.5271155       115.5681
2016    9       7       0.6724703       137.3277
2016    10      0       0.6251715       131.2604
2016    10      1       0.6046191       128.2881
2016    10      2       0.8296246       157.1812
2016    10      3       1.079734        183.2969
2016    10      4       0.877592        161.9134
2016    10      5       0.7910185       151.4581
2016    10      6       0.9484145       167.3824
2016    10      7       1.116004        182.9164
2016    11      0       0.8991961       161.672
2016    11      1       0.5026243       109.9341
2016    11      2       0.3798037       90.11873
2016    11      3       0.3871571       91.62273
2016    11      4       0.3584427       86.32266
2016    11      5       0.3204374       78.97994
2016    11      6       0.4081434       95.20093
2016    11      7       0.5450517       118.3006
2016    12      0       0.4495268       102.9451
2016    12      1       0.3089172       76.89718
2016    12      2       0.2570833       66.24616
2016    12      3       0.2598527       66.74838
2016    12      4       0.3031664       75.50341
2016    12      5       0.3441603       83.48072
2016    12      6       0.3718208       88.62684
2016    12      7       0.3957848       93.37035
2016    13      0       0.3664385       87.99148
2016    13      1       0.3425706       83.62439
2016    13      2       0.3548185       85.81632
2016    13      3       0.3534139       85.40514
2016    13      4       0.2905687       73.12041
2016    13      5       0.2047178       54.994
2016    13      6       0.1977736       53.57133
2016    13      7       0.1931957       52.68885
2016    14      0       0.1696655       47.45406
2016    14      1       0.1271898       37.46597
2016    14      2       0.09053022      28.38895
2016    14      3       0.07137551      23.46284
2016    14      4       0.06417658      21.54356
2016    14      5       0.07034529      23.08286
2016    14      6       0.08934598      27.96458
2016    14      7       0.08722435      27.45087
2016    15      0       0.0841955       26.72168
2016    15      1       0.07545417      24.50499
2016    15      2       0.0729086       23.84894
2016    15      3       0.07436118      24.23074
2016    15      4       0.07356104      24.01908
2016    15      5       0.07143694      23.45634
2016    15      6       0.08081279      25.91327
2016    15      7       0.08955861      28.16367
2016    16      0       0.1074046       32.6168
2016    16      1       0.08476772      26.91717
2016    16      2       0.07409083      24.14434
2016    16      3       0.07788934      25.15185
2016    16      4       0.08513522      26.92573
2016    16      5       0.09758915      29.95528
2016    16      6       0.1149283       34.27795
2016    16      7       0.1285645       37.65506
2016    17      0       0.1332469       38.88095
2016    17      1       0.1161974       34.72664
2016    17      2       0.08517156      26.84462
2016    17      3       0.07240144      23.46156
2016    17      4       0.07157319      23.22243
2016    17      5       0.07191425      23.27002
2016    17      6       0.1196738       35.46519
2016    17      7       0.1559528       44.27772
2016    18      0       0.1730524       48.28121
2016    18      1       0.1890735       51.99515
2016    18      2       0.2367354       62.66178
2016    18      3       0.2964933       75.40609
2016    18      4       0.3550221       86.89478
2016    18      5       0.3854554       92.64889
2016    18      6       0.3597159       87.61432
2016    18      7       0.3212231       80.00004
2016    19      0       0.3000924       75.88877
2016    19      1       0.2744834       70.87396
2016    19      2       0.2561959       67.06987
2016    19      3       0.2323401       61.75967
2016    19      4       0.2201447       58.95901
2016    19      5       0.2188206       58.69782
2016    19      6       0.2304764       61.2371
2016    19      7       0.2616873       67.8691
2016    20      0       0.2761877       70.80056
2016    20      1       0.2826459       72.01078
2016    20      2       0.4069806       95.10461
2016    20      3       0.5150959       113.8295
2016    20      4       0.5130389       113.9643
2016    20      5       0.5231882       115.4516
2016    20      6       0.55042         119.4092
2016    20      7       0.6005477       127.3228
2016    21      0       0.6488565       135.1275
2016    21      1       0.7434078       147.971
2016    21      2       0.7326783       146.6334
2016    21      3       0.8040683       155.4725
2016    21      4       0.7900938       153.5936
2016    21      5       0.7549491       148.9507
2016    21      6       0.8190227       156.4216
2016    21      7       0.9412219       170.5719
2016    22      0       1.018674        178.8924
2016    22      1       0.9081654       167.6918
2016    22      2       0.7987332       155.2009
2016    22      3       0.7847758       153.252
2016    22      4       0.6938984       141.606
2016    22      5       0.5686239       123.5333
2016    22      6       0.6291415       132.2036
2016    22      7       0.7950298       154.0066
2016    23      0       0.7956987       153.869
2016    23      1       0.6334413       132.1279
2016    23      2       0.6224568       130.4654
2016    23      3       0.7182293       142.8913
2016    23      4       0.7860133       150.9348
2016    23      5       0.8619546       159.8517
2016    23      6       1.075573        181.5598
2016    23      7       1.066011        181.1641
2016    24      0       0.9697074       171.9448
2016    24      1       0.7534602       148.5631
2016    24      2       0.896192        165.2935
2016    24      3       0.9830061       174.644
2016    24      4       1.020777        178.4134
2016    24      5       1.035901        179.7158
2016    24      6       0.90717         166.2636
2016    24      7       1.054823        180.9462
2016    25      0       1.206501        194.3091
2016    25      1       0.8728547       162.2552
2016    25      2       0.7954076       153.1831
2016    25      3       0.8621252       160.8178
2016    25      4       0.8354846       157.9258
2016    25      5       1.046999        180.381
2016    25      6       0.9537944       170.9621
2016    25      7       1.386321        207.7514
2016    26      0       1.2253          195.5176
2016    26      1       0.8657823       161.1761
2016    26      2       0.8391734       158.1217
2016    26      3       0.9997949       175.2889
2016    26      4       1.190703        192.345
2016    26      5       1.208752        193.2578
2016    26      6       1.025814        177.0425
2016    26      7       1.317025        202.1319
2016    27      0       1.026818        178.7219
2016    27      1       0.7261491       145.5297
2016    27      2       0.7033478       142.7997
2016    27      3       0.6253453       132.0276
2016    27      4       0.6434722       134.2404
2016    27      5       0.844079        159.4721
2016    27      6       1.368259        206.493
2016    27      7       1.649157        224.2093
2016    28      0       1.180217        192.8678
2016    28      1       0.8994382       166.1573
2016    28      2       0.7963003       154.0671
2016    28      3       0.7774968       151.5766
2016    28      4       0.8189984       156.7381
2016    28      5       0.758076        149.2709
2016    28      6       0.8363944       158.7118
2016    28      7       1.124409        188.2971
2016    29      0       1.221581        196.79
2016    29      1       1.087905        185.3612
2016    29      2       1.072142        184.1112
2016    29      3       1.083158        185.0935
2016    29      4       0.9421245       170.6892
2016    29      5       1.026841        178.6377
2016    29      6       1.451742        213.3529
2016    29      7       1.651751        225.1969
2016    30      0       1.125866        187.4788
2016    30      1       0.9780427       172.7979
2016    30      2       1.089754        183.4029
2016    30      3       1.264188        197.0252
2016    30      4       1.226541        193.7755
2016    30      5       1.304501        200.0043
2016    30      6       1.428911        208.4829
2016    30      7       1.679362        224.3345
2017    1       0       0.42687         97.76095
2017    1       1       0.3661643       86.59855
2017    1       2       0.2793891       69.38104
2017    1       3       0.2708864       66.84549
2017    1       4       0.2851805       69.55533
2017    1       5       0.2880149       70.14058
2017    1       6       0.3618914       83.68435
2017    1       7       0.4086618       92.94477
2017    2       0       0.4209475       96.12476
2017    2       1       0.4300313       98.15768
2017    2       2       0.4481967       101.5367
2017    2       3       0.4506784       101.865
2017    2       4       0.3807409       89.38503
2017    2       5       0.3351767       80.73552
2017    2       6       0.363034        86.10847
2017    2       7       0.3974407       92.57783
2017    3       0       0.4207705       97.00382
2017    3       1       0.4425037       101.0113
2017    3       2       0.4638831       105.1276
2017    3       3       0.5040754       112.0554
2017    3       4       0.5494179       119.3717
2017    3       5       0.5817728       124.4047
2017    3       6       0.5274547       115.9615
2017    3       7       0.5323891       116.9175
2017    4       0       0.5711158       122.7644
2017    4       1       0.557053        120.3959
2017    4       2       0.5687543       121.8946
2017    4       3       0.5643488       120.9822
2017    4       4       0.5137839       113.2015
2017    4       5       0.4728978       106.7067
2017    4       6       0.4740694       107.0356
2017    4       7       0.4756934       107.5913
2017    5       0       0.5035678       112.0953
2017    5       1       0.4943217       110.4965
2017    5       2       0.4892468       109.8234
2017    5       3       0.5209288       114.9006
2017    5       4       0.5318152       116.5128
2017    5       5       0.5174454       114.2171
2017    5       6       0.5220067       115.1267
2017    5       7       0.4960564       111.0744
2017    6       0       0.4720616       107.3693
2017    6       1       0.4609782       105.6074
2017    6       2       0.5809925       125.2747
2017    6       3       0.8327619       158.9107
2017    6       4       0.7876904       152.7022
2017    6       5       0.5859445       125.2652
2017    6       6       0.6708526       137.9485
2017    6       7       0.8189643       157.0825
2017    7       0       0.6704471       138.3098
2017    7       1       0.5807988       124.9413
2017    7       2       0.5499136       121.0647
2017    7       3       0.8254137       158.1049
2017    7       4       0.813971        155.7591
2017    7       5       0.5917297       125.9534
2017    7       6       0.6328086       131.9701
2017    7       7       0.5914437       126.1345
2017    8       0       0.6143609       129.0998
2017    8       1       0.4341277       100.0708
2017    8       2       0.3740333       88.87237
2017    8       3       0.4576796       103.5585
2017    8       4       0.553386        119.5345
2017    8       5       0.6651997       136.1868
2017    8       6       0.6715757       136.8821
2017    8       7       0.6712286       136.882
2017    9       0       0.5456917       118.2672
2017    9       1       0.4109032       95.93574
2017    9       2       0.4335407       99.96873
2017    9       3       0.4977336       110.5761
2017    9       4       0.4827885       107.9754
2017    9       5       0.4499558       102.7818
2017    9       6       0.4323889       99.87503
2017    9       7       0.4412221       101.7202
2017    10      0       0.4321707       100.4391
2017    10      1       0.3812396       91.26148
2017    10      2       0.342685        84.05863
2017    10      3       0.3435787       84.1082
2017    10      4       0.3157479       78.64926
2017    10      5       0.1331207       37.9922
2017    10      6       0.08108587      25.4229
2017    10      7       0.1054346       31.5383
2017    11      0       0.149401        41.99822
2017    11      1       0.1334009       38.07841
2017    11      2       0.1050839       31.18559
2017    11      3       0.09261151      28.43696
2017    11      4       0.1016047       30.61757
2017    11      5       0.2187326       57.72126
2017    11      6       0.2331991       60.76396
2017    11      7       0.1938558       52.43382
2017    12      0       0.1704002       47.26477
2017    12      1       0.1576289       44.37926
2017    12      2       0.1778419       49.15266
2017    12      3       0.1870889       51.24299
2017    12      4       0.1993398       53.8868
2017    12      5       0.1819775       49.94251
2017    12      6       0.1811528       49.78345
2017    12      7       0.2143007       57.35044
2017    13      0       0.1853702       51.02917
2017    13      1       0.1205031       35.74446
2017    13      2       0.08293022      26.31077
2017    13      3       0.06746816      22.32835
2017    13      4       0.06041142      20.44566
2017    13      5       0.06884662      22.65869
2017    13      6       0.08414491      26.57053
2017    13      7       0.08985078      28.07036
2017    14      0       0.08214487      26.21474
2017    14      1       0.06499119      21.82217
2017    14      2       0.0596375       20.38776
2017    14      3       0.05992937      20.43857
2017    14      4       0.05835814      20.00464
2017    14      5       0.05701677      19.64631
2017    14      6       0.0649845       21.72381
2017    14      7       0.07766808      24.97958
2017    15      0       0.08218551      26.10111
2017    15      1       0.07653413      24.63889
2017    15      2       0.06395597      21.33464
2017    15      3       0.05856292      19.77374
2017    15      4       0.05730223      19.33938
2017    15      5       0.05749942      19.32037
2017    15      6       0.0704848       22.79572
2017    15      7       0.07978829      25.28999
2017    16      0       0.08272128      26.05094
2017    16      1       0.07918619      25.20854
2017    16      2       0.07165452      23.29315
2017    16      3       0.06773651      22.21765
2017    16      4       0.07338399      23.58458
2017    16      5       0.08096117      25.48374
2017    16      6       0.08785192      27.27331
2017    16      7       0.09505842      29.18447
2017    17      0       0.09250598      28.65257
2017    17      1       0.08145757      25.89535
2017    17      2       0.06794952      22.39751
2017    17      3       0.06743754      22.30528
2017    17      4       0.06644315      22.07627
2017    17      5       0.07139325      23.3716
2017    17      6       0.08095077      25.90439
2017    17      7       0.0917035       28.69186
2017    18      0       0.08544227      27.19745
2017    18      1       0.08529004      27.18876
2017    18      2       0.1490073       42.84196
2017    18      3       0.2002394       54.45814
2017    18      4       0.2156826       57.79001
2017    18      5       0.2192095       58.59187
2017    18      6       0.209665        56.56445
2017    18      7       0.2116632       57.16253
2017    19      0       0.2177534       58.51115
2017    19      1       0.2349981       62.18471
2017    19      2       0.2421632       63.50874
2017    19      3       0.2899439       73.66472
2017    19      4       0.3037492       76.72649
2017    19      5       0.3115477       78.15739
2017    19      6       0.4265432       100.0538
2017    19      7       0.4448508       102.9494
2017    20      0       0.4463756       102.9442
2017    20      1       0.5232852       114.996
2017    20      2       0.5453601       118.807
2017    20      3       0.562337        121.4216
2017    20      4       0.5999629       126.5975
2017    20      5       0.6653608       135.9389
2017    20      6       0.8061839       154.9008
2017    20      7       0.9016996       167.4603
2017    21      0       1.021963        180.3583
2017    21      1       1.179471        194.7233
2017    21      2       1.065014        183.4108
2017    21      3       0.8199964       157.9709
2017    21      4       0.7575148       150.8111
2017    21      5       0.8002989       155.9741
2017    21      6       0.7669335       152.0515
2017    21      7       0.863367        163.6871
2017    22      0       0.9372148       170.8615
2017    22      1       0.5826724       125.717
2017    22      2       0.5022205       112.2893
2017    22      3       0.4656727       105.9165
2017    22      4       0.5492649       119.311
2017    22      5       0.6699107       136.8281
2017    22      6       0.7081605       141.7098
2017    22      7       0.7633909       149.1836
2017    23      0       0.664261        136.3999
2017    23      1       0.4365227       100.6699
2017    23      2       0.4345523       99.60944
2017    23      3       0.546938        117.417
2017    23      4       0.5098051       111.8322
2017    23      5       0.5339066       115.9966
2017    23      6       0.6253018       130.0097
2017    23      7       0.6411859       132.5594
2017    24      0       0.5735301       122.9749
2017    24      1       0.4855855       108.8429
2017    24      2       0.5503453       118.7667
2017    24      3       0.7777795       149.3239
2017    24      4       0.8578501       158.9802
2017    24      5       0.660734        135.1558
2017    24      6       0.5821664       124.394
2017    24      7       0.6230073       130.4685
2017    25      0       0.5949248       126.5611
2017    25      1       0.5777226       123.9705
2017    25      2       0.6288407       131.7848
2017    25      3       0.6882451       139.4312
2017    25      4       0.6077229       128.6137
2017    25      5       0.635098        131.7236
2017    25      6       0.6289367       130.4114
2017    25      7       0.6996234       140.0842
2017    26      0       0.626983        131.0272
2017    26      1       0.5502171       119.8795
2017    26      2       0.5578102       120.4201
2017    26      3       0.5054738       112.5672
2017    26      4       0.4479543       102.878
2017    26      5       0.4121234       96.89341
2017    26      6       0.4877888       109.8548
2017    26      7       0.5517244       120.1771
2017    27      0       0.4742829       107.7703
2017    27      1       0.3671973       88.53913
2017    27      2       0.4327161       100.2585
2017    27      3       0.4531833       103.5719
2017    27      4       0.4376097       100.8795
2017    27      5       0.4528659       103.5255
2017    27      6       0.4622429       105.1306
2017    27      7       0.4343079       100.4764
2017    28      0       0.3727216       89.50067
2017    28      1       0.3151318       78.67613
2017    28      2       0.188533        51.9186
2017    28      3       0.1095301       33.22132
2017    28      4       0.08145118      26.13002
2017    28      5       0.0894939       28.24762
2017    28      6       0.1843463       51.25895
2017    28      7       0.2997731       76.32792
2017    29      0       0.336108        83.68114
2017    29      1       0.2671772       69.77698
2017    29      2       0.1688802       47.87291
2017    29      3       0.1222571       36.54995
2017    29      4       0.1184723       35.55501
2017    29      5       0.1058228       32.47618
2017    29      6       0.1516822       43.80209
2017    29      7       0.2470067       65.36556
2017    30      0       0.2848801       73.3223
2017    30      1       0.3161547       79.86477
2017    30      2       0.2724893       70.41253
2017    30      3       0.2686484       69.27149
2017    30      4       0.2255408       59.67654
2017    30      5       0.1940622       52.36778
2017    30      6       0.1827198       49.76183
2017    30      7       0.1644829       45.68802
2018    1       0       0.2783909       69.58919
2018    1       1       0.2186417       57.19826
2018    1       2       0.163306        45.16703
2018    1       3       0.149495        42.18391
2018    1       4       0.1252148       36.51367
2018    1       5       0.1451054       41.25217
2018    1       6       0.1673635       46.51353
2018    1       7       0.1651247       46.0303
2018    2       0       0.1540988       43.28602
2018    2       1       0.1460005       41.27771
2018    2       2       0.1813181       49.28895
2018    2       3       0.2220503       58.41133
2018    2       4       0.2646469       67.70076
2018    2       5       0.2849671       72.17729
2018    2       6       0.2318468       61.0568
2018    2       7       0.1682849       46.7716
2018    3       0       0.1443294       41.19103
2018    3       1       0.1275951       37.27636
2018    3       2       0.1093638       32.84644
2018    3       3       0.1077784       32.41638
2018    3       4       0.09533694      29.38199
2018    3       5       0.07491365      24.25578
2018    3       6       0.0934843       29.03419
2018    3       7       0.1085563       32.82693
2018    4       0       0.1084101       32.85557
2018    4       1       0.1028565       31.57701
2018    4       2       0.09058243      28.48582
2018    4       3       0.09853779      30.29551
2018    4       4       0.09752518      29.92863
2018    4       5       0.1007805       30.56404
2018    4       6       0.1392459       39.94174
2018    4       7       0.1780427       48.9627
2018    5       0       0.1759738       48.55249
2018    5       1       0.1639409       46.00581
2018    5       2       0.1766067       48.46531
2018    5       3       0.2238331       58.6773
2018    5       4       0.2216482       58.16765
2018    5       5       0.1823627       49.25892
2018    5       6       0.1955639       52.48904
2018    5       7       0.2628228       67.43793
2018    6       0       0.3225595       79.73113
2018    6       1       0.3030202       75.6855
2018    6       2       0.291899        73.09591
2018    6       3       0.2806468       70.84959
2018    6       4       0.2789313       70.518
2018    6       5       0.2579965       66.13397
2018    6       6       0.2908253       73.01517
2018    6       7       0.3451911       83.69189
2018    7       0       0.3128825       77.26642
2018    7       1       0.2916485       72.99981
2018    7       2       0.3109048       76.88653
2018    7       3       0.3348013       81.4325
2018    7       4       0.3829917       90.43268
2018    7       5       0.4324003       99.47371
2018    7       6       0.4519165       102.8109
2018    7       7       0.4596693       104.2635
2018    8       0       0.4069035       95.36962
2018    8       1       0.3528533       85.81755
2018    8       2       0.3765675       90.31886
2018    8       3       0.4402191       101.5578
2018    8       4       0.4571714       104.4489
2018    8       5       0.4891856       110.054
2018    8       6       0.4674704       106.3323
2018    8       7       0.5328044       117.0951
2018    9       0       0.5883354       125.2966
2018    9       1       0.4888792       109.2152
2018    9       2       0.4733924       106.3232
2018    9       3       0.5008624       110.5335
2018    9       4       0.4326035       99.23438
2018    9       5       0.3768553       89.4592
2018    9       6       0.4159274       96.32175
2018    9       7       0.4929762       108.9016
2018    10      0       0.5374766       116.5796
2018    10      1       0.4667459       106.0367
2018    10      2       0.4056342       95.71093
2018    10      3       0.3614729       87.37793
2018    10      4       0.2809561       71.54829
2018    10      5       0.2022019       54.7969
2018    10      6       0.1449315       41.6802
2018    10      7       0.1381556       40.13009
2018    11      0       0.1418456       40.91216
2018    11      1       0.1174942       34.84945
2018    11      2       0.09756045      29.75238
2018    11      3       0.08885378      27.51437
2018    11      4       0.08067492      25.42591
2018    11      5       0.0812649       25.55969
2018    11      6       0.09436584      28.92731
2018    11      7       0.1099358       32.87625
2018    12      0       0.1076024       32.40279
2018    12      1       0.09503599      29.27325
2018    12      2       0.0899149       27.85037
2018    12      3       0.09080094      28.01278
2018    12      4       0.181594        49.75643
2018    12      5       0.3951723       93.75455
2018    12      6       0.4904037       109.8594
2018    12      7       0.6623946       134.728
2018    13      0       0.7024427       139.6514
2018    13      1       0.621231        128.2633
2018    13      2       0.6479883       133.0624
2018    13      3       0.5892166       125.3353
2018    13      4       0.6429264       132.0734
2018    13      5       0.731631        143.766
2018    13      6       0.7219093       142.5613
2018    13      7       0.7085934       140.6974
2018    14      0       0.6471378       132.5189
2018    14      1       0.5087361       112.1949
2018    14      2       0.5283084       115.1451
2018    14      3       0.6854524       136.7873
2018    14      4       0.7160739       140.7049
2018    14      5       0.6789531       136.8721
2018    14      6       0.6548124       134.8868
2018    14      7       0.822513        156.3333
2018    15      0       0.9984288       174.5289
2018    15      1       0.9003573       164.6296
2018    15      2       0.8687552       161.0874
2018    15      3       0.9260007       167.4742
2018    15      4       1.030547        178.1925
2018    15      5       1.12485         186.4769
2018    15      6       1.284885        199.2093
2018    15      7       1.431793        208.8468
2018    16      0       1.342959        203.2904
2018    16      1       1.439238        210.2793
2018    16      2       1.504815        214.526
2018    16      3       1.347712        204.2276
2018    16      4       1.506616        215.9494
2018    16      5       1.170746        191.2005
2018    16      6       1.144794        187.5459
2018    16      7       1.165728        187.7937
2018    17      0       0.6896742       137.916
2018    17      1       0.3569579       85.13919
2018    17      2       0.3501848       83.52394
2018    17      3       0.3614821       85.11644
2018    17      4       0.3284587       78.68656
2018    17      5       0.3164848       76.71338
2018    17      6       0.3506928       84.56401
2018    17      7       0.3774569       90.51068
2018    18      0       0.3474513       85.22596
2018    18      1       0.3304092       82.05385
2018    18      2       0.3101211       77.93926
2018    18      3       0.2266596       60.06949
2018    18      4       0.1587641       44.56307
2018    18      5       0.1326387       38.68804
2018    18      6       0.1721537       48.3694
2018    18      7       0.2196615       59.302
2018    19      0       0.2197771       59.22117
2018    19      1       0.1875583       51.84416
2018    19      2       0.1622636       45.60615
2018    19      3       0.1529857       43.26398
2018    19      4       0.1338137       38.66533
2018    19      5       0.1278307       37.22496
2018    19      6       0.1693893       47.1356
2018    19      7       0.2074618       55.94536
2018    20      0       0.2215124       59.28987
2018    20      1       0.1817038       50.54716
2018    20      2       0.1327916       38.9514
2018    20      3       0.1159961       34.86956
2018    20      4       0.1192768       35.78424
2018    20      5       0.132581        39.16196
2018    20      6       0.148852        43.21181
2018    20      7       0.1736028       49.12327
2018    21      0       0.1811009       50.999
2018    21      1       0.1627391       46.85852
2018    21      2       0.1674873       47.88757
2018    21      3       0.195984        54.37526
2018    21      4       0.2032366       55.91583
2018    21      5       0.1981867       54.73462
2018    21      6       0.1854153       51.86326
2018    21      7       0.2031743       56.00273
2018    22      0       0.1820972       51.27935
2018    22      1       0.1368496       40.53115
2018    22      2       0.1200139       36.24892
2018    22      3       0.1251674       37.39932
2018    22      4       0.1199888       36.0651
2018    22      5       0.1055384       32.41643
2018    22      6       0.1103844       33.67165
2018    22      7       0.1336008       39.47262
2018    23      0       0.1272202       37.86929
2018    23      1       0.09750138      30.3302
2018    23      2       0.08151776      26.12656
2018    23      3       0.09177981      28.7142
2018    23      4       0.1084841       33.01118
2018    23      5       0.1194421       35.77347
2018    23      6       0.1489584       43.0128
2018    23      7       0.2480557       65.74359
2018    24      0       0.2957159       75.93489
2018    24      1       0.2402119       64.17454
2018    24      2       0.1499748       43.26056
2018    24      3       0.1504449       43.21868
2018    24      4       0.1526393       43.66602
2018    24      5       0.1490671       42.78108
2018    24      6       0.1681908       47.32817
2018    24      7       0.2467117       65.04428
2018    25      0       0.264828        69.09183
2018    25      1       0.200648        55.16905
2018    25      2       0.09715987      30.04051
2018    25      3       0.08605083      27.13046
2018    25      4       0.1162901       34.77461
2018    25      5       0.1460917       42.04969
2018    25      6       0.1992372       54.63604
2018    25      7       0.2104192       57.10846
2018    26      0       0.1909522       52.79267
2018    26      1       0.1541812       44.33206
2018    26      2       0.1809522       50.57839
2018    26      3       0.2609909       68.35674
2018    26      4       0.2731504       70.93036
2018    26      5       0.2441411       64.7262
2018    26      6       0.2455682       64.73285
2018    26      7       0.2938739       74.82025
2018    27      0       0.3074318       77.79057
2018    27      1       0.2252962       60.75604
2018    27      2       0.1992981       54.80279
2018    27      3       0.2195778       59.17072
2018    27      4       0.3502838       86.06343
2018    27      5       0.5028577       113.1745
2018    27      6       0.5572073       121.4383
2018    27      7       0.5427333       118.879
2018    28      0       0.5498905       119.8384
2018    28      1       0.4917215       110.1751
2018    28      2       0.5019335       111.8654
2018    28      3       0.5616399       121.459
2018    28      4       0.584699        124.8009
2018    28      5       0.5591865       120.5395
2018    28      6       0.5802914       124.0344
2018    28      7       0.6692781       137.2068
2018    29      0       0.6674065       137.1823
2018    29      1       0.6058363       128.4465
2018    29      2       0.6404445       133.429
2018    29      3       0.7120726       142.9229
2018    29      4       0.6794816       137.851
2018    29      5       0.6918375       139.2969
2018    29      6       0.7463076       146.4938
2018    29      7       0.7308896       144.72
2018    30      0       0.6724321       137.3276
2018    30      1       0.4944239       110.4195
2018    30      2       0.3497291       84.25097
2018    30      3       0.2711984       68.48757
2018    30      4       0.197176        52.83434
2018    30      5       0.1426317       40.46919
2018    30      6       0.1421734       40.45068
2018    30      7       0.1749182       48.21726
