####################################################################################################
# Month: 12Dec                                                                                     #
# Station: SAS                                                                                     #
# Frequency: 230 GHz                                                                               #
# Columns are: year    day     segment         tau     Tb (K)                                      #
####################################################################################################
2009    1       0       0.4929037       105.3886
2009    1       1       0.5092236       108.4464
2009    1       2       0.5948327       121.3034
2009    1       3       0.5427768       114.1339
2009    1       4       0.4500095       99.31199
2009    1       5       0.5980502       120.6362
2009    1       6       0.6059949       121.8745
2009    1       7       0.6824881       132.4199
2009    2       0       0.4224061       94.07745
2009    2       1       0.3131874       74.78634
2009    2       2       0.3531843       82.66221
2009    2       3       0.3356355       79.39158
2009    2       4       0.2427402       61.2744
2009    2       5       0.2347215       59.5545
2009    2       6       0.3180466       75.95246
2009    2       7       0.3942401       89.80198
2009    3       0       0.4092182       92.52021
2009    3       1       0.3499877       82.27629
2009    3       2       0.3530819       82.73963
2009    3       3       0.3475252       81.63527
2009    3       4       0.2667138       66.39208
2009    3       5       0.2889573       70.53524
2009    3       6       0.3674826       85.31391
2009    3       7       0.439131        97.60063
2009    4       0       0.2445041       61.8973
2009    4       1       0.11783         33.94409
2009    4       2       0.09695778      28.8366
2009    4       3       0.1340748       37.69148
2009    4       4       0.1789108       47.94215
2009    4       5       0.2214559       56.96109
2009    4       6       0.3337178       78.86789
2009    4       7       0.3576112       82.95171
2009    5       0       0.1814721       48.36654
2009    5       1       0.09675456      28.96823
2009    5       2       0.07548493      23.68252
2009    5       3       0.06411259      20.89722
2009    5       4       0.05965014      19.72863
2009    5       5       0.06319138      20.62476
2009    5       6       0.0967432       28.92675
2009    5       7       0.1440418       40.01968
2009    6       0       0.111965        32.62708
2009    6       1       0.09907797      29.4926
2009    6       2       0.1002547       29.81623
2009    6       3       0.09552623      28.64459
2009    6       4       0.08542221      26.22519
2009    6       5       0.08075469      25.17364
2009    6       6       0.115191        33.47369
2009    6       7       0.1538677       42.24022
2009    7       0       0.1231138       35.30309
2009    7       1       0.1064977       31.39086
2009    7       2       0.1124823       32.75033
2009    7       3       0.1071766       31.45215
2009    7       4       0.09935031      29.6183
2009    7       5       0.09455959      28.55324
2009    7       6       0.1090066       31.97393
2009    7       7       0.1317443       37.06342
2009    8       0       0.104771        30.86065
2009    8       1       0.1008678       29.77292
2009    8       2       0.09876024      29.12187
2009    8       3       0.1018411       29.85757
2009    8       4       0.1070082       31.00677
2009    8       5       0.1172122       33.39881
2009    8       6       0.1467856       40.34556
2009    8       7       0.214853        55.09684
2009    9       0       0.2528482       62.86863
2009    9       1       0.2489401       62.39413
2009    9       2       0.3274409       77.91438
2009    9       3       0.3400292       80.25609
2009    9       4       0.3625751       83.8547
2009    9       5       0.4490275       98.28923
2009    9       6       0.4596235       99.9638
2009    9       7       0.5474961       113.8713
2009    10      0       0.5396248       112.9092
2009    10      1       0.4355118       95.86332
2009    10      2       0.4536655       98.79638
2009    10      3       0.4791791       103.0436
2009    10      4       0.453552        98.95599
2009    10      5       0.4750499       102.1659
2009    10      6       0.5123294       108.0726
2009    10      7       0.5128874       108.6568
2009    11      0       0.3928485       88.94772
2009    11      1       0.2583809       63.77885
2009    11      2       0.1776612       46.64313
2009    11      3       0.1046792       30.50269
2009    11      4       0.05857426      19.40027
2009    11      5       0.06628103      21.28991
2009    11      6       0.08756388      26.58704
2009    11      7       0.09575752      28.58143
2009    12      0       0.03648214      13.77487
2009    12      1       0.03720119      13.99394
2009    12      2       0.04426952      15.83328
2009    12      3       0.04648574      16.3847
2009    12      4       0.04645651      16.39679
2009    12      5       0.06926352      22.23877
2009    12      6       0.1041405       30.71772
2009    12      7       0.1579254       42.98026
2009    13      0       0.1887486       49.9455
2009    13      1       0.3091442       74.55544
2009    13      2       0.4216283       94.98871
2009    13      3       0.529896        112.285
2009    13      4       0.5127724       109.4193
2009    13      5       0.4663758       101.0938
2009    13      6       0.3760256       86.15393
2009    13      7       0.3964654       90.03449
2009    14      0       0.4008113       91.26849
2009    14      1       0.3146684       75.62213
2009    14      2       0.164389        44.42613
2009    14      3       0.1045466       30.29722
2009    14      4       0.1151593       32.96705
2009    14      5       0.1455404       40.18627
2009    14      6       0.2540978       63.30284
2009    14      7       0.3866528       88.16874
2009    15      0       0.4240428       94.5441
2009    15      1       0.3393195       79.75216
2009    15      2       0.2420341       60.81287
2009    15      3       0.159903        43.27203
2009    15      4       0.1024124       30.0281
2009    15      5       0.1421636       39.36637
2009    15      6       0.2277118       57.78062
2009    15      7       0.3198235       75.86728
2009    16      0       0.3191981       76.0026
2009    16      1       0.2936175       71.25323
2009    16      2       0.2843134       69.49658
2009    16      3       0.270604        66.82909
2009    16      4       0.2469848       62.07984
2009    16      5       0.3349625       78.73156
2009    16      6       0.4129683       92.43088
2009    16      7       0.5216939       110.2161
2009    17      0       0.5436779       113.1502
2009    17      1       0.4805758       103.4601
2009    17      2       0.4499382       98.52478
2009    17      3       0.3237232       76.63219
2009    17      4       0.3728179       85.19585
2009    17      5       0.4588205       99.38154
2009    17      6       0.4857375       104.047
2009    17      7       0.5024007       106.8523
2009    18      0       0.5253999       110.1658
2009    18      1       0.4500863       98.17862
2009    18      2       0.3560259       82.39624
2009    18      3       0.2810004       68.53366
2009    18      4       0.3515143       81.65737
2009    18      5       0.3636951       83.62648
2009    18      6       0.454293        99.32478
2009    18      7       0.49897         106.5289
2009    19      0       0.4405365       96.65564
2009    19      1       0.4263791       94.23398
2009    19      2       0.368645        83.98022
2009    19      3       0.3257707       76.20413
2009    19      4       0.3051686       72.77725
2009    19      5       0.4072708       91.27107
2009    19      6       0.492224        105.5794
2009    19      7       0.5060605       108.0447
2009    20      0       0.4340924       95.68104
2009    20      1       0.4072305       90.47575
2009    20      2       0.3862063       87.04683
2009    20      3       0.3361645       77.95387
2009    20      4       0.221321        55.62264
2009    20      5       0.1823484       47.6613
2009    20      6       0.2219835       56.31724
2009    20      7       0.2665014       65.52527
2009    21      0       0.2396042       60.15656
2009    21      1       0.2168897       55.42471
2009    21      2       0.2763815       66.87201
2009    21      3       0.2976171       71.07135
2009    21      4       0.3519612       81.13975
2009    21      5       0.4414411       96.94716
2009    21      6       0.4753383       102.6952
2009    21      7       0.5496244       114.3229
2009    22      0       0.530861        111.4078
2009    22      1       0.4427373       97.28582
2009    22      2       0.4485807       98.56074
2009    22      3       0.4760154       102.9579
2009    22      4       0.4366269       96.56349
2009    22      5       0.4781538       103.0898
2009    22      6       0.4726727       102.6857
2009    22      7       0.5806488       119.4058
2009    23      0       0.5118794       108.4071
2009    23      1       0.5110216       108.1352
2009    23      2       0.4909524       105.7256
2009    23      3       0.3727974       85.85354
2009    23      4       0.4831291       104.3606
2009    23      5       0.46643         101.442
2009    23      6       0.5789994       117.308
2009    23      7       0.6543883       127.8232
2009    24      0       0.5102067       107.943
2009    24      1       0.465304        101.6242
2009    24      2       0.4443686       98.10983
2009    24      3       0.4565954       99.63017
2009    24      4       0.5861788       119.2322
2009    24      5       0.533709        111.7627
2009    24      6       0.6181828       123.1377
2009    24      7       0.5601021       116.3439
2009    25      0       0.5103663       108.354
2009    25      1       0.4555515       100.2222
2009    25      2       0.3558151       82.97834
2009    25      3       0.3225871       76.80398
2009    25      4       0.4010939       91.5198
2009    25      5       0.4506787       98.86384
2009    25      6       0.6390497       125.6632
2009    25      7       0.5724079       117.7991
2009    26      0       0.5571884       115.1074
2009    26      1       0.4821929       103.6263
2009    26      2       0.4380689       96.5685
2009    26      3       0.3236293       76.49201
2009    26      4       0.3107498       73.9141
2009    26      5       0.434661        96.01299
2009    26      6       0.6087176       121.695
2009    26      7       0.5758171       118.5685
2009    27      0       0.4995855       106.2602
2009    27      1       0.4215911       93.78253
2009    27      2       0.3839888       87.35571
2009    27      3       0.4121202       91.96435
2009    27      4       0.3798505       86.68723
2009    27      5       0.4681657       101.8457
2009    27      6       0.5225777       110.4872
2009    27      7       0.5954533       121.6218
2009    28      0       0.5866775       120.3497
2009    28      1       0.4822562       104.392
2009    28      2       0.359318        83.68704
2009    28      3       0.4384378       97.17573
2009    28      4       0.4742855       102.9318
2009    28      5       0.4753628       103.0449
2009    28      6       0.5900059       119.9491
2009    28      7       0.613001        123.822
2009    29      0       0.5488526       114.0916
2009    29      1       0.4936935       105.4808
2009    29      2       0.4588694       99.81712
2009    29      3       0.3756614       86.10468
2009    29      4       0.3521418       81.97794
2009    29      5       0.4127578       92.65172
2009    29      6       0.5168401       108.8434
2009    29      7       0.4906437       105.4422
2009    30      0       0.3367418       79.58085
2009    30      1       0.2575449       64.1486
2009    30      2       0.247617        62.07496
2009    30      3       0.1925641       50.59633
2009    30      4       0.1517956       41.66066
2009    30      5       0.1478708       40.71343
2009    30      6       0.2048342       53.01888
2009    30      7       0.2645627       65.26267
2009    31      0       0.2456411       61.93089
2009    31      1       0.1959151       51.39086
2009    31      2       0.2073504       53.80372
2009    31      3       0.2199446       56.38832
2009    31      4       0.2011984       52.48403
2009    31      5       0.1850085       49.08942
2009    31      6       0.2665587       65.80657
2009    31      7       0.3215715       76.12906
2010    1       0       0.2225819       56.49468
2010    1       1       0.1580212       42.57693
2010    1       2       0.1732907       46.25939
2010    1       3       0.1875352       49.49277
2010    1       4       0.1760635       47.16964
2010    1       5       0.1435086       39.86043
2010    1       6       0.1986335       51.90322
2010    1       7       0.2932896       70.43854
2010    2       0       0.3007904       71.86099
2010    2       1       0.3744088       84.96534
2010    2       2       0.435988        96.17374
2010    2       3       0.418987        93.99947
2010    2       4       0.4024141       90.85843
2010    2       5       0.3790509       86.8734
2010    2       6       0.3926718       89.07349
2010    2       7       0.3203499       75.9666
2010    3       0       0.2371811       60.17808
2010    3       1       0.16498         44.8967
2010    3       2       0.1005516       29.88289
2010    3       3       0.06068196      19.83541
2010    3       4       0.06814099      21.70945
2010    3       5       0.1548733       41.8501
2010    3       6       0.2498253       61.82322
2010    3       7       0.2849149       69.20135
2010    4       0       0.2648477       65.54912
2010    4       1       0.2439804       61.28
2010    4       2       0.2003851       52.07828
2010    4       3       0.1811585       48.07769
2010    4       4       0.1770086       47.32042
2010    4       5       0.2423542       60.80444
2010    4       6       0.3120116       74.05914
2010    4       7       0.4335126       95.82589
2010    5       0       0.4545202       99.15126
2010    5       1       0.4129483       92.72335
2010    5       2       0.4817389       103.8404
2010    5       3       0.476766        103.0833
2010    5       4       0.4948065       105.7221
2010    5       5       0.5114629       107.8391
2010    5       6       0.5022069       106.3667
2010    5       7       0.5468016       113.3111
2010    6       0       0.5090115       107.7405
2010    6       1       0.4883845       105.0076
2010    6       2       0.4586922       100.3351
2010    6       3       0.3744129       86.0048
2010    6       4       0.3861866       88.26558
2010    6       5       0.415355        92.95637
2010    6       6       0.4753896       103.1067
2010    6       7       0.500909        107.1066
2010    7       0       0.366859        84.4946
2010    7       1       0.4040699       90.96536
2010    7       2       0.412796        92.94288
2010    7       3       0.3931847       89.59949
2010    7       4       0.372368        85.95064
2010    7       5       0.4225196       94.56922
2010    7       6       0.5053598       107.812
2010    7       7       0.5021388       107.9248
2010    8       0       0.4606268       101.4715
2010    8       1       0.4316873       96.89949
2010    8       2       0.4214619       95.09947
2010    8       3       0.4016159       91.48358
2010    8       4       0.415354        93.53109
2010    8       5       0.5038189       107.5553
2010    8       6       0.5420393       113.7901
2010    8       7       0.6095207       123.7698
2010    9       0       0.5879637       120.3915
2010    9       1       0.5623952       116.4162
2010    9       2       0.4875121       105.033
2010    9       3       0.3964455       89.88862
2010    9       4       0.5682064       116.8599
2010    9       5       0.5218118       109.9343
2010    9       6       0.5355068       112.2941
2010    9       7       0.525566        110.8448
2010    10      0       0.4878954       104.8074
2010    10      1       0.3995474       90.28269
2010    10      2       0.4139052       92.04722
2010    10      3       0.3035272       72.51773
2010    10      4       0.22548         56.69131
2010    10      5       0.2965757       70.89713
2010    10      6       0.4475136       98.28329
2010    10      7       0.474839        102.9052
2010    11      0       0.4819514       103.865
2010    11      1       0.4567455       100.1662
2010    11      2       0.3230177       76.93699
2010    11      3       0.3587182       82.80075
2010    11      4       0.4408021       96.71731
2010    11      5       0.431529        95.21251
2010    11      6       0.5148639       109.4029
2010    11      7       0.5651857       117.4546
2010    12      0       0.5058431       108.8949
2010    12      1       0.4846649       105.4203
2010    12      2       0.5040966       108.6649
2010    12      3       0.5688839       118.5238
2010    12      4       0.5729875       118.6068
2010    12      5       0.5472755       114.0597
2010    12      6       0.6488275       127.4189
2010    12      7       0.5986618       122.19
2010    13      0       0.5557636       115.8881
2010    13      1       0.3788882       87.29966
2010    13      2       0.3757705       86.05034
2010    13      3       0.3255906       77.1328
2010    13      4       0.3195795       76.0218
2010    13      5       0.3735734       85.69301
2010    13      6       0.3958401       89.74641
2010    13      7       0.3090842       73.95308
2010    14      0       0.150734        41.19826
2010    14      1       0.09938701      29.1906
2010    14      2       0.08478748      25.82875
2010    14      3       0.06862029      21.89922
2010    14      4       0.05735435      19.10861
2010    14      5       0.06367375      20.76177
2010    14      6       0.09848816      29.38919
2010    14      7       0.1328066       37.51789
2010    15      0       0.0855307       26.4357
2010    15      1       0.04801881      16.7908
2010    15      2       0.03740861      14.0719
2010    15      3       0.03327974      13.00153
2010    15      4       0.0407354       14.94613
2010    15      5       0.05277751      18.0872
2010    15      6       0.07686734      24.17285
2010    15      7       0.1297632       36.69304
2010    16      0       0.1627186       44.12532
2010    16      1       0.1653599       44.65522
2010    16      2       0.1770905       47.29451
2010    16      3       0.1400716       39.11108
2010    16      4       0.1051239       30.96052
2010    16      5       0.1160338       33.49434
2010    16      6       0.1471171       40.56346
2010    16      7       0.2002846       52.24032
2010    17      0       0.2478809       61.99526
2010    17      1       0.321915        76.88199
2010    17      2       0.3760823       86.88355
2010    17      3       0.404585        91.98434
2010    17      4       0.3797175       87.25775
2010    17      5       0.3978784       89.94418
2010    17      6       0.3912756       89.05345
2010    17      7       0.4817189       104.4689
2010    18      0       0.4529198       99.88948
2010    18      1       0.3588586       84.17689
2010    18      2       0.3099143       74.92115
2010    18      3       0.3263552       77.95528
2010    18      4       0.3725205       86.13475
2010    18      5       0.4014763       90.82973
2010    18      6       0.3842896       87.82331
2010    18      7       0.4480538       99.20066
2010    19      0       0.486633        105.3694
2010    19      1       0.4396106       98.02787
2010    19      2       0.40517         92.05166
2010    19      3       0.4271403       95.50035
2010    19      4       0.4569048       100.1922
2010    19      5       0.4487938       98.46528
2010    19      6       0.4732652       102.2101
2010    19      7       0.490188        105.0397
2010    20      0       0.3726847       85.65578
2010    20      1       0.342173        80.49955
2010    20      2       0.3436005       80.82212
2010    20      3       0.3738417       86.17708
2010    20      4       0.4164015       93.33633
2010    20      5       0.4599817       100.1582
2010    20      6       0.4770267       103.0095
2010    20      7       0.4739131       102.5116
2010    21      0       0.36799         84.84818
2010    21      1       0.350398        82.10308
2010    21      2       0.4105329       92.80934
2010    21      3       0.4592784       100.7161
2010    21      4       0.3389397       79.57066
2010    21      5       0.4241938       94.36983
2010    21      6       0.5014031       106.9462
2010    21      7       0.4825637       104.1061
2010    22      0       0.5039095       107.6452
2010    22      1       0.527322        111.7901
2010    22      2       0.3916052       89.44181
2010    22      3       0.3535092       82.49424
2010    22      4       0.3179711       75.82571
2010    22      5       0.3937888       89.38712
2010    22      6       0.46502         101.3935
2010    22      7       0.5384912       113.477
2010    23      0       0.6047761       123.6881
2010    23      1       0.6263038       126.5127
2010    23      2       0.5691748       118.0707
2010    23      3       0.517031        110.2834
2010    23      4       0.5038787       107.4073
2010    23      5       0.4699558       102.0316
2010    23      6       0.4735455       102.8311
2010    23      7       0.552654        115.287
2010    24      0       0.5143901       109.233
2010    24      1       0.4043753       91.19186
2010    24      2       0.3203334       75.83608
2010    24      3       0.3915793       88.47328
2010    24      4       0.5022948       106.7445
2010    24      5       0.4167843       92.81807
2010    24      6       0.4688516       101.4897
2010    24      7       0.5586395       114.7644
2010    25      0       0.4755443       102.9809
2010    25      1       0.4743794       103.8977
2010    25      2       0.3840496       88.33996
2010    25      3       0.3426258       80.56303
2010    25      4       0.3999962       90.56402
2010    25      5       0.4603712       100.5135
2010    25      6       0.4666072       101.9735
2010    25      7       0.5749188       118.7454
2010    26      0       0.6049445       122.7733
2010    26      1       0.5879322       120.2331
2010    26      2       0.514024        109.0259
2010    26      3       0.4475358       98.62666
2010    26      4       0.4652478       101.5774
2010    26      5       0.4499832       99.11265
2010    26      6       0.5437383       114.1619
2010    26      7       0.5744177       118.3511
2010    27      0       0.3756293       86.15653
2010    27      1       0.3094822       74.07405
2010    27      2       0.280984        68.24187
2010    27      3       0.3188333       75.41598
2010    27      4       0.4214243       93.89539
2010    27      5       0.409637        92.48823
2010    27      6       0.4812987       104.5124
2010    27      7       0.5829565       120.0324
2010    28      0       0.5123479       108.6843
2010    28      1       0.5293064       111.2904
2010    28      2       0.5619404       116.5422
2010    28      3       0.5503956       115.1184
2010    28      4       0.4689069       102.5319
2010    28      5       0.5048688       107.7169
2010    28      6       0.4653157       101.7651
2010    28      7       0.5227036       111.1032
2010    29      0       0.57363         118.0494
2010    29      1       0.592365        121.2068
2010    29      2       0.6016231       122.6897
2010    29      3       0.5124019       109.121
2010    29      4       0.5176666       109.5689
2010    29      5       0.4991766       106.8484
2010    29      6       0.520946        110.571
2010    29      7       0.556769        116.1
2010    30      0       0.4852268       104.3625
2010    30      1       0.3917243       88.50919
2010    30      2       0.3039076       72.54025
2010    30      3       0.2534441       62.88896
2010    30      4       0.1911554       50.03747
2010    30      5       0.1833888       48.46013
2010    30      6       0.2121212       54.81048
2010    30      7       0.2317567       58.85455
2010    31      0       0.1106822       32.47195
2010    31      1       0.0590684       19.78108
2010    31      2       0.0540537       18.42976
2010    31      3       0.05551762      18.76829
2010    31      4       0.06804396      21.9061
2010    31      5       0.09819896      29.18933
2010    31      6       0.1360777       38.08246
2010    31      7       0.1876566       49.58567
2011    1       0       0.272993        66.7089
2011    1       1       0.2993699       72.09863
2011    1       2       0.372296        85.23989
2011    1       3       0.2546218       63.23879
2011    1       4       0.2028902       52.70778
2011    1       5       0.1732475       46.25542
2011    1       6       0.2405882       60.23097
2011    1       7       0.352892        81.62047
2011    2       0       0.3597341       82.94353
2011    2       1       0.3239155       76.579
2011    2       2       0.268284        66.13416
2011    2       3       0.2323197       59.2127
2011    2       4       0.1839466       48.74964
2011    2       5       0.1924479       50.49716
2011    2       6       0.2602011       64.2073
2011    2       7       0.3786749       86.35368
2011    3       0       0.378219        85.83724
2011    3       1       0.2286852       58.24793
2011    3       2       0.1818423       48.43706
2011    3       3       0.146348        40.54384
2011    3       4       0.1083722       31.84232
2011    3       5       0.1095222       32.05735
2011    3       6       0.1974099       51.23349
2011    3       7       0.2893967       69.65981
2011    4       0       0.1892389       49.32118
2011    4       1       0.09657135      28.33552
2011    4       2       0.09325016      27.54663
2011    4       3       0.0681676       21.68482
2011    4       4       0.04416712      15.82933
2011    4       5       0.03971067      14.78561
2011    4       6       0.06295901      20.69413
2011    4       7       0.09034834      27.36391
2011    5       0       0.04961267      17.37466
2011    5       1       0.03069698      12.39915
2011    5       2       0.0240165       10.58402
2011    5       3       0.02070262      9.656084
2011    5       4       0.0260253       11.14437
2011    5       5       0.048046        16.95764
2011    5       6       0.08239843      25.48892
2011    5       7       0.1334782       37.51358
2011    6       0       0.1409314       39.02395
2011    6       1       0.1620371       43.96709
2011    6       2       0.2893          70.42588
2011    6       3       0.1644265       44.65961
2011    6       4       0.1749102       46.9098
2011    6       5       0.2420698       60.81383
2011    6       6       0.3001228       72.09258
2011    6       7       0.2874385       69.78962
2011    7       0       0.1295753       36.7392
2011    7       1       0.07643202      24.07559
2011    7       2       0.06773643      21.85368
2011    7       3       0.0723191       22.94566
2011    7       4       0.07049385      22.55295
2011    7       5       0.1052318       30.87528
2011    7       6       0.1421274       39.38782
2011    7       7       0.1668021       44.74318
2011    8       0       0.1028917       30.32429
2011    8       1       0.07429608      23.34805
2011    8       2       0.08339755      25.49142
2011    8       3       0.1299099       36.59638
2011    8       4       0.1777051       47.40517
2011    8       5       0.2101108       53.93787
2011    8       6       0.2642508       64.95473
2011    8       7       0.2804294       68.24164
2011    9       0       0.1754776       46.73346
2011    9       1       0.1469373       40.37332
2011    9       2       0.1863767       49.0872
2011    9       3       0.324494        77.04978
2011    9       4       0.3576979       83.19292
2011    9       5       0.3660875       83.63405
2011    9       6       0.3470668       80.24605
2011    9       7       0.420062        93.13387
2011    10      0       0.405349        90.36701
2011    10      1       0.3140739       74.14731
2011    10      2       0.267333        65.02368
2011    10      3       0.2594071       63.89377
2011    10      4       0.2690366       66.08355
2011    10      5       0.3570421       82.56399
2011    10      6       0.3938233       88.9295
2011    10      7       0.408085        91.39078
2011    11      0       0.4103103       91.90764
2011    11      1       0.4053768       91.27314
2011    11      2       0.42304         94.20518
2011    11      3       0.3803478       86.9694
2011    11      4       0.4433598       97.52109
2011    11      5       0.4646715       100.3825
2011    11      6       0.4781655       102.8653
2011    11      7       0.5161803       108.9054
2011    12      0       0.4690252       101.6231
2011    12      1       0.3735126       85.71387
2011    12      2       0.4853308       104.2866
2011    12      3       0.4687321       101.2211
2011    12      4       0.4894583       104.4512
2011    12      5       0.4651701       100.9572
2011    12      6       0.4782751       103.2786
2011    12      7       0.5326977       111.7838
2011    13      0       0.4531956       99.25164
2011    13      1       0.423136        93.8336
2011    13      2       0.3671076       84.0352
2011    13      3       0.3376107       78.80817
2011    13      4       0.328794        77.233
2011    13      5       0.4079555       91.13947
2011    13      6       0.4650808       100.6259
2011    13      7       0.4223373       93.82709
2011    14      0       0.3408729       79.31559
2011    14      1       0.3050954       72.79367
2011    14      2       0.3282828       76.92719
2011    14      3       0.3758646       85.16797
2011    14      4       0.380694        86.41792
2011    14      5       0.4149002       92.61765
2011    14      6       0.440273        97.29203
2011    14      7       0.4974055       106.8319
2011    15      0       0.5323638       111.6913
2011    15      1       0.4283368       94.81818
2011    15      2       0.3163665       75.2592
2011    15      3       0.2367706       59.8465
2011    15      4       0.2038901       53.01443
2011    15      5       0.2341051       59.22953
2011    15      6       0.3143075       74.77042
2011    15      7       0.3231177       76.32012
2011    16      0       0.1221818       35.01124
2011    16      1       0.08062629      24.94518
2011    16      2       0.08399833      25.66911
2011    16      3       0.07583596      23.76871
2011    16      4       0.08773518      26.70471
2011    16      5       0.1115533       32.39777
2011    16      6       0.1501265       41.27729
2011    16      7       0.1262247       35.77814
2011    17      0       0.05259639      17.72409
2011    17      1       0.0443501       15.49172
2011    17      2       0.04050913      14.72929
2011    17      3       0.05087133      17.2738
2011    17      4       0.05537871      18.39495
2011    17      5       0.07857599      24.30309
2011    17      6       0.1097394       31.81549
2011    17      7       0.1309727       36.74296
2011    18      0       0.08571219      26.19181
2011    18      1       0.047401        16.54214
2011    18      2       0.04044539      14.76783
2011    18      3       0.04672591      16.33705
2011    18      4       0.04949837      17.0391
2011    18      5       0.06092184      19.92577
2011    18      6       0.1010964       29.81462
2011    18      7       0.1862673       48.90439
2011    19      0       0.1740226       46.30237
2011    19      1       0.1352163       37.61911
2011    19      2       0.152862        41.66162
2011    19      3       0.2158021       55.39487
2011    19      4       0.3116767       74.60293
2011    19      5       0.3567457       82.21848
2011    19      6       0.321683        75.92916
2011    19      7       0.3449018       80.49146
2011    20      0       0.3700506       85.06773
2011    20      1       0.4189564       93.899
2011    20      2       0.4649565       101.1565
2011    20      3       0.4191928       93.0859
2011    20      4       0.3000052       71.95544
2011    20      5       0.2665864       65.48336
2011    20      6       0.3008091       72.34883
2011    20      7       0.3787302       86.695
2011    21      0       0.3044807       72.62272
2011    21      1       0.2366221       59.36132
2011    21      2       0.2678237       65.51781
2011    21      3       0.2700711       65.89792
2011    21      4       0.2620672       64.33922
2011    21      5       0.3561994       82.11933
2011    21      6       0.4595198       100.4421
2011    21      7       0.5404361       113.3024
2011    22      0       0.5195495       109.8622
2011    22      1       0.5347927       112.0749
2011    22      2       0.5038523       107.2978
2011    22      3       0.4102577       91.72354
2011    22      4       0.4175185       93.00606
2011    22      5       0.4900467       104.8017
2011    22      6       0.5183968       109.5894
2011    22      7       0.5648587       116.787
2011    23      0       0.6020253       122.425
2011    23      1       0.5157516       108.9329
2011    23      2       0.4327689       94.91618
2011    23      3       0.4431454       96.70085
2011    23      4       0.5231973       110.3506
2011    23      5       0.4546675       99.46977
2011    23      6       0.5380831       112.9012
2011    23      7       0.5949003       121.4
2011    24      0       0.521951        109.8984
2011    24      1       0.490016        104.693
2011    24      2       0.4928996       105.1038
2011    24      3       0.5131434       108.2053
2011    24      4       0.3837011       87.35325
2011    24      5       0.4244988       94.22798
2011    24      6       0.51156         108.3549
2011    24      7       0.5601729       115.8245
2011    25      0       0.5798127       118.6005
2011    25      1       0.5206221       109.6493
2011    25      2       0.5187534       109.1608
2011    25      3       0.4978726       105.8018
2011    25      4       0.4873745       104.1469
2011    25      5       0.5078896       107.2628
2011    25      6       0.5234928       109.7084
2011    25      7       0.5276558       110.6546
2011    26      0       0.519201        109.4917
2011    26      1       0.5073154       107.9016
2011    26      2       0.4037261       90.93651
2011    26      3       0.3274545       77.27546
2011    26      4       0.2939212       70.80019
2011    26      5       0.4280135       95.24617
2011    26      6       0.493157        105.8226
2011    26      7       0.5452162       114.0152
2011    27      0       0.5440164       114.4527
2011    27      1       0.4191289       94.728
2011    27      2       0.3325197       79.00781
2011    27      3       0.3008254       72.88064
2011    27      4       0.3212952       76.73547
2011    27      5       0.4392905       96.70822
2011    27      6       0.4575812       100.174
2011    27      7       0.5496535       114.6893
2011    28      0       0.5997781       122.4418
2011    28      1       0.5222987       111.2374
2011    28      2       0.4332292       96.57413
2011    28      3       0.3423736       80.30491
2011    28      4       0.4227975       94.44013
2011    28      5       0.444173        97.70736
2011    28      6       0.4898492       105.306
2011    28      7       0.5154831       109.528
2011    29      0       0.4940892       106.4714
2011    29      1       0.5151894       109.8308
2011    29      2       0.3729434       86.17673
2011    29      3       0.3417311       80.47333
2011    29      4       0.4811198       104.707
2011    29      5       0.4116388       92.36875
2011    29      6       0.434415        96.50594
2011    29      7       0.5249637       111.0647
2011    30      0       0.4956324       105.9291
2011    30      1       0.4781212       103.0539
2011    30      2       0.4817175       103.4799
2011    30      3       0.4719465       102.0377
2011    30      4       0.4339122       95.79877
2011    30      5       0.4295757       95.23625
2011    30      6       0.5028434       107.4891
2011    30      7       0.6395314       126.6697
2011    31      0       0.5005442       106.7445
2011    31      1       0.4438278       97.29041
2011    31      2       0.4375868       96.18204
2011    31      3       0.4604077       99.99073
2011    31      4       0.4169297       93.15987
2011    31      5       0.444344        97.61032
2011    31      6       0.4488169       98.45121
2011    31      7       0.4426271       97.74941
2012    1       0       0.4783405       102.7443
2012    1       1       0.4989696       106.2586
2012    1       2       0.4983714       106.0445
2012    1       3       0.3379755       79.22914
2012    1       4       0.2738429       66.99724
2012    1       5       0.340326        79.43975
2012    1       6       0.3785715       86.36826
2012    1       7       0.4510654       98.6981
2012    2       0       0.4464505       98.17092
2012    2       1       0.3798487       86.82195
2012    2       2       0.4057211       91.40681
2012    2       3       0.370425        85.52276
2012    2       4       0.3609833       83.67944
2012    2       5       0.4264521       94.78067
2012    2       6       0.4347069       96.24972
2012    2       7       0.5030249       107.6064
2012    3       0       0.5006793       107.5983
2012    3       1       0.5227281       111.4463
2012    3       2       0.6475257       129.7173
2012    3       3       0.5014836       107.9198
2012    3       4       0.4007029       90.70055
2012    3       5       0.4240743       94.31412
2012    3       6       0.4183967       93.65697
2012    3       7       0.4802556       104.2516
2012    4       0       0.4903083       105.9359
2012    4       1       0.4100227       92.87818
2012    4       2       0.4706773       102.8536
2012    4       3       0.4295506       95.96268
2012    4       4       0.4910463       105.5489
2012    4       5       0.4205243       94.09839
2012    4       6       0.5203925       109.3231
2012    4       7       0.6811667       131.8863
2012    5       0       0.4787186       104.4605
2012    5       1       0.5348379       112.9915
2012    5       2       0.5912658       121.7678
2012    5       3       0.5280655       112.2611
2012    5       4       0.5307978       111.5501
2012    5       5       0.5498644       114.2389
2012    5       6       0.586251        118.9641
2012    5       7       0.6602144       129.0848
2012    6       0       0.5108569       108.6275
2012    6       1       0.4233326       95.32584
2012    6       2       0.3467646       81.43761
2012    6       3       0.3044833       73.5257
2012    6       4       0.2769485       68.24255
2012    6       5       0.3990282       90.16464
2012    6       6       0.4947017       106.1018
2012    6       7       0.5692334       117.7262
2012    7       0       0.5368133       112.8207
2012    7       1       0.4287183       96.01236
2012    7       2       0.4268321       95.74305
2012    7       3       0.4500669       99.5486
2012    7       4       0.4261308       95.27726
2012    7       5       0.4603632       101.0216
2012    7       6       0.4849865       105.1043
2012    7       7       0.6300377       126.8782
2012    8       0       0.632296        127.5298
2012    8       1       0.5978712       121.4053
2012    8       2       0.5191813       109.1133
2012    8       3       0.6274694       125.7448
2012    8       4       0.4505986       98.65171
2012    8       5       0.465338        101.007
2012    8       6       0.4451412       98.20297
2012    8       7       0.5512832       115.2465
2012    9       0       0.5461753       114.334
2012    9       1       0.5470993       114.3605
2012    9       2       0.5638966       116.8876
2012    9       3       0.5430326       114.0674
2012    9       4       0.5457402       114.4401
2012    9       5       0.5112702       108.6468
2012    9       6       0.6308992       124.9691
2012    9       7       0.6706268       130.827
2012    10      0       0.6008637       122.4148
2012    10      1       0.5915685       121.6793
2012    10      2       0.6070182       124.0439
2012    10      3       0.5154122       109.9103
2012    10      4       0.4814407       104.3264
2012    10      5       0.4779876       103.7014
2012    10      6       0.6473522       127.8174
2012    10      7       0.6435938       128.8048
2012    11      0       0.65365         130.0761
2012    11      1       0.5782082       118.9668
2012    11      2       0.5256809       110.8957
2012    11      3       0.4480554       98.66513
2012    11      4       0.3960915       90.13025
2012    11      5       0.4256558       95.05974
2012    11      6       0.5778944       117.9848
2012    11      7       0.592638        121.4838
2012    12      0       0.62856         126.3966
2012    12      1       0.5054793       108.8485
2012    12      2       0.4202467       94.79964
2012    12      3       0.4020901       91.46189
2012    12      4       0.3843363       88.16315
2012    12      5       0.3955278       89.79438
2012    12      6       0.4101472       92.56192
2012    12      7       0.4263502       95.41062
2012    13      0       0.3124062       74.91159
2012    13      1       0.2985231       72.3504
2012    13      2       0.4355994       96.67366
2012    13      3       0.3853118       88.27334
2012    13      4       0.3481037       81.66604
2012    13      5       0.3937739       89.38966
2012    13      6       0.4158454       93.39231
2012    13      7       0.47564         102.6947
2012    14      0       0.3870894       88.11885
2012    14      1       0.3908063       89.12128
2012    14      2       0.4012078       90.71949
2012    14      3       0.4800089       103.2875
2012    14      4       0.5050443       107.3544
2012    14      5       0.5038519       106.7774
2012    14      6       0.5851915       118.8313
2012    14      7       0.6422045       127.1297
2012    15      0       0.5359919       113.1078
2012    15      1       0.4472502       99.30181
2012    15      2       0.466451        102.4804
2012    15      3       0.4737838       103.838
2012    15      4       0.5030867       108.0329
2012    15      5       0.481825        104.2967
2012    15      6       0.6091195       122.6008
2012    15      7       0.6386168       127.2485
2012    16      0       0.6164164       124.9829
2012    16      1       0.6865781       134.3992
2012    16      2       0.5910937       121.2856
2012    16      3       0.5282481       112.409
2012    16      4       0.4578159       100.9245
2012    16      5       0.4485979       99.08188
2012    16      6       0.493598        105.7952
2012    16      7       0.6333182       126.289
2012    17      0       0.6052848       122.5601
2012    17      1       0.5684819       117.7319
2012    17      2       0.5387637       113.6503
2012    17      3       0.5201802       110.4785
2012    17      4       0.4464741       98.56975
2012    17      5       0.5313382       111.4806
2012    17      6       0.4995501       106.9771
2012    17      7       0.5701603       118.5069
2012    18      0       0.5591974       117.4549
2012    18      1       0.5614682       117.2543
2012    18      2       0.5454083       114.0677
2012    18      3       0.4903294       105.1039
2012    18      4       0.5110353       108.6243
2012    18      5       0.4754672       103.0961
2012    18      6       0.5795542       118.049
2012    18      7       0.483866        103.8308
2012    19      0       0.3552076       82.4806
2012    19      1       0.3476413       81.34365
2012    19      2       0.3676212       84.98503
2012    19      3       0.3476573       81.05224
2012    19      4       0.32039         76.22735
2012    19      5       0.421692        94.19399
2012    19      6       0.4579945       100.5701
2012    19      7       0.4383388       97.32888
2012    20      0       0.3651444       85.22104
2012    20      1       0.3108513       74.8907
2012    20      2       0.253392        63.31578
2012    20      3       0.2212744       56.74957
2012    20      4       0.2124838       54.89335
2012    20      5       0.2416389       61.04999
2012    20      6       0.3571453       83.53
2012    20      7       0.4732572       103.3449
2012    21      0       0.3727582       86.00052
2012    21      1       0.2591552       64.79949
2012    21      2       0.2800353       68.87417
2012    21      3       0.2727438       67.48135
2012    21      4       0.299107        72.70087
2012    21      5       0.2789769       68.60018
2012    21      6       0.3288916       77.72141
2012    21      7       0.4293727       95.18009
2012    22      0       0.4677685       101.796
2012    22      1       0.4926317       106.3441
2012    22      2       0.5167786       109.5043
2012    22      3       0.4641446       101.1864
2012    22      4       0.5221502       110.5964
2012    22      5       0.589839        120.2242
2012    22      6       0.5082062       108.3433
2012    22      7       0.5521089       115.2588
2012    23      0       0.5746601       118.7007
2012    23      1       0.5443635       114.8959
2012    23      2       0.4384054       97.87662
2012    23      3       0.4200405       94.65347
2012    23      4       0.3663585       85.08509
2012    23      5       0.4385283       97.11918
2012    23      6       0.4442941       98.39585
2012    23      7       0.4426894       98.40773
2012    24      0       0.4267071       95.90013
2012    24      1       0.3658308       85.47676
2012    24      2       0.4135834       93.83983
2012    24      3       0.3415218       80.71128
2012    24      4       0.3083682       74.40639
2012    24      5       0.4149227       93.02428
2012    24      6       0.4913278       105.6816
2012    24      7       0.6173034       125.3594
2012    25      0       0.6097446       124.1046
2012    25      1       0.5153773       110.6376
2012    25      2       0.5415331       114.4328
2012    25      3       0.5843002       121.057
2012    25      4       0.5011682       107.7785
2012    25      5       0.470929        102.6776
2012    25      6       0.5723774       118.8112
2012    25      7       0.642053        128.5947
2012    26      0       0.5281914       111.092
2012    26      1       0.5288442       111.5792
2012    26      2       0.5657797       117.3516
2012    26      3       0.541878        113.8867
2012    26      4       0.4400727       97.69239
2012    26      5       0.4958549       106.515
2012    26      6       0.5257109       111.3519
2012    26      7       0.5931415       121.5743
2012    27      0       0.5856293       119.9799
2012    27      1       0.5289684       111.6501
2012    27      2       0.4862627       104.5342
2012    27      3       0.4645458       100.75
2012    27      4       0.4183545       93.32859
2012    27      5       0.389792        88.58357
2012    27      6       0.4028669       91.25941
2012    27      7       0.4005088       90.58273
2012    28      0       0.2594559       64.30915
2012    28      1       0.1945995       51.10672
2012    28      2       0.2288297       58.01285
2012    28      3       0.2181559       55.71565
2012    28      4       0.228191        57.75252
2012    28      5       0.2832784       68.83642
2012    28      6       0.3010958       72.25489
2012    28      7       0.2954252       71.31765
2012    29      0       0.2402828       60.34256
2012    29      1       0.2087672       53.62733
2012    29      2       0.2115491       53.78323
2012    29      3       0.2047518       52.39676
2012    29      4       0.2176182       55.39461
2012    29      5       0.2783294       67.54692
2012    29      6       0.2920862       70.49011
2012    29      7       0.2649319       65.31526
2012    30      0       0.1745269       46.57609
2012    30      1       0.1235307       34.92502
2012    30      2       0.1092861       31.47259
2012    30      3       0.0989272       29.14586
2012    30      4       0.1021894       29.94729
2012    30      5       0.1231566       34.85302
2012    30      6       0.18827         49.21063
2012    30      7       0.2775212       67.40514
2012    31      0       0.2232251       56.97474
2012    31      1       0.2014983       52.00636
2012    31      2       0.2179666       55.4002
2012    31      3       0.2326128       58.31828
2012    31      4       0.2234336       56.7523
2012    31      5       0.2138681       54.84572
2012    31      6       0.3101188       73.78962
2012    31      7       0.3759645       86.27937
2013    1       0       0.480377        103.0372
2013    1       1       0.3821712       86.95273
2013    1       2       0.3695905       84.80327
2013    1       3       0.2945229       71.06125
2013    1       4       0.2758801       67.48397
2013    1       5       0.2651388       65.46957
2013    1       6       0.304018        72.80719
2013    1       7       0.4552226       99.33588
2013    2       0       0.471628        102.0806
2013    2       1       0.4825986       103.8085
2013    2       2       0.2490466       62.10712
2013    2       3       0.1518291       41.33842
2013    2       4       0.1179357       33.62795
2013    2       5       0.1668409       44.84721
2013    2       6       0.2472774       61.35945
2013    2       7       0.3589433       82.24658
2013    3       0       0.2563566       63.0419
2013    3       1       0.1595344       42.79821
2013    3       2       0.1641313       43.77353
2013    3       3       0.1276039       35.55252
2013    3       4       0.1083917       31.14451
2013    3       5       0.1738996       46.28119
2013    3       6       0.2602268       64.42257
2013    3       7       0.364403        83.53317
2013    4       0       0.1969093       51.55607
2013    4       1       0.1520419       41.68325
2013    4       2       0.1827094       48.30522
2013    4       3       0.2472682       61.88301
2013    4       4       0.3505991       81.74462
2013    4       5       0.4909078       104.4042
2013    4       6       0.4773098       102.9446
2013    4       7       0.515498        108.8991
2013    5       0       0.3863052       87.9151
2013    5       1       0.3711607       85.60804
2013    5       2       0.3265108       77.31132
2013    5       3       0.2721642       66.75887
2013    5       4       0.2603645       64.16241
2013    5       5       0.3997438       89.56846
2013    5       6       0.3694051       84.721
2013    5       7       0.3951309       89.66228
2013    6       0       0.3997702       90.43983
2013    6       1       0.3291013       78.36545
2013    6       2       0.2703619       67.07192
2013    6       3       0.3496888       82.18068
2013    6       4       0.4390173       96.99204
2013    6       5       0.3916002       88.79369
2013    6       6       0.4352046       96.22025
2013    6       7       0.5118858       108.5198
2013    7       0       0.4975182       106.1223
2013    7       1       0.4502463       98.41734
2013    7       2       0.4405157       96.83065
2013    7       3       0.385306        87.76053
2013    7       4       0.4510176       98.43845
2013    7       5       0.4208384       93.41837
2013    7       6       0.46634         101.0351
2013    7       7       0.4874982       104.581
2013    8       0       0.5307122       111.4628
2013    8       1       0.480626        103.1605
2013    8       2       0.4312811       95.57498
2013    8       3       0.3469563       80.89589
2013    8       4       0.3463833       80.80433
2013    8       5       0.4373352       96.32409
2013    8       6       0.5113572       108.7292
2013    8       7       0.5434171       113.6987
2013    9       0       0.4029464       90.10786
2013    9       1       0.346946        80.12872
2013    9       2       0.3265741       76.51376
2013    9       3       0.3168107       74.6465
2013    9       4       0.3573997       82.49415
2013    9       5       0.4689654       101.6978
2013    9       6       0.4441827       97.75972
2013    9       7       0.5773937       117.3908
2013    10      0       0.4597056       100.6648
2013    10      1       0.3613282       84.11474
2013    10      2       0.4257708       95.05107
2013    10      3       0.4800923       103.4907
2013    10      4       0.4578889       100.1274
2013    10      5       0.5195311       109.3782
2013    10      6       0.5483323       114.1267
2013    10      7       0.5819977       119.6131
2013    11      0       0.5199508       110.0113
2013    11      1       0.5282778       110.8307
2013    11      2       0.4885271       104.7709
2013    11      3       0.5006433       107.2845
2013    11      4       0.4917663       105.9247
2013    11      5       0.5168693       109.6038
2013    11      6       0.5230253       110.5816
2013    11      7       0.5210423       110.5822
2013    12      0       0.4029093       91.35342
2013    12      1       0.3740909       86.13134
2013    12      2       0.4011772       90.78181
2013    12      3       0.4367218       96.91663
2013    12      4       0.4184712       93.97697
2013    12      5       0.4384495       97.17132
2013    12      6       0.4801138       104.1079
2013    12      7       0.4955571       106.2616
2013    13      0       0.4076483       91.47013
2013    13      1       0.3100582       74.32219
2013    13      2       0.3046138       73.15866
2013    13      3       0.3058562       73.33065
2013    13      4       0.2683433       66.19961
2013    13      5       0.2887494       70.23343
2013    13      6       0.3106137       74.43622
2013    13      7       0.3792823       86.81257
2013    14      0       0.3550651       81.84366
2013    14      1       0.3105338       73.49597
2013    14      2       0.3238677       76.23482
2013    14      3       0.4478387       97.85933
2013    14      4       0.4563884       99.35986
2013    14      5       0.4510277       98.27416
2013    14      6       0.4413084       96.92443
2013    14      7       0.4762686       102.765
2013    15      0       0.3787368       86.65592
2013    15      1       0.379001        86.18193
2013    15      2       0.3916444       88.50656
2013    15      3       0.3860344       87.83928
2013    15      4       0.34786         80.94115
2013    15      5       0.4179873       93.11768
2013    15      6       0.4638377       100.905
2013    15      7       0.5108255       108.4379
2013    16      0       0.4367256       96.38377
2013    16      1       0.4160794       92.625
2013    16      2       0.4451852       96.73534
2013    16      3       0.4091066       91.31167
2013    16      4       0.3431179       80.05495
2013    16      5       0.3875568       88.25243
2013    16      6       0.4344977       96.33204
2013    16      7       0.4508663       99.09884
2013    17      0       0.3125778       74.86289
2013    17      1       0.2672519       65.76181
2013    17      2       0.2708524       66.28683
2013    17      3       0.2503562       62.31852
2013    17      4       0.2626829       64.89657
2013    17      5       0.3408015       79.71109
2013    17      6       0.3830991       87.52553
2013    17      7       0.3776533       87.04586
2013    18      0       0.2844236       69.8254
2013    18      1       0.2031054       52.98384
2013    18      2       0.1843669       48.7905
2013    18      3       0.1543339       41.99356
2013    18      4       0.1334253       37.19642
2013    18      5       0.1614219       43.38846
2013    18      6       0.2131284       54.65521
2013    18      7       0.3036948       72.70858
2013    19      0       0.2644387       65.15446
2013    19      1       0.2232378       56.69309
2013    19      2       0.2691979       66.36171
2013    19      3       0.2632036       65.01229
2013    19      4       0.2740315       67.36487
2013    19      5       0.3568299       82.6821
2013    19      6       0.3933935       89.37011
2013    19      7       0.4499782       98.62832
2013    20      0       0.3588355       82.15699
2013    20      1       0.3766694       85.74737
2013    20      2       0.4165373       93.273
2013    20      3       0.3589019       83.41483
2013    20      4       0.4371231       96.83506
2013    20      5       0.4272044       95.04674
2013    20      6       0.496258        105.743
2013    20      7       0.6167554       123.4307
2013    21      0       0.5567101       115.8491
2013    21      1       0.517137        109.0649
2013    21      2       0.5127254       107.9718
2013    21      3       0.4564531       99.20586
2013    21      4       0.3658564       84.04746
2013    21      5       0.4002354       90.01428
2013    21      6       0.4365776       96.73566
2013    21      7       0.5148166       109.5537
2013    22      0       0.5741545       118.4299
2013    22      1       0.5147514       109.1666
2013    22      2       0.463749        100.5688
2013    22      3       0.4569244       99.39228
2013    22      4       0.4196085       93.4885
2013    22      5       0.4191136       93.61204
2013    22      6       0.4232937       94.77972
2013    22      7       0.4532836       100.1018
2013    23      0       0.4660899       101.7919
2013    23      1       0.4382094       96.462
2013    23      2       0.4517501       97.98776
2013    23      3       0.4632552       100.3159
2013    23      4       0.3531263       81.98665
2013    23      5       0.3721587       85.71815
2013    23      6       0.4257032       94.98551
2013    23      7       0.460237        100.8619
2013    24      0       0.3624506       84.00475
2013    24      1       0.3136692       74.21696
2013    24      2       0.4183447       93.0842
2013    24      3       0.4029809       91.47339
2013    24      4       0.3257956       77.80912
2013    24      5       0.3941379       89.56899
2013    24      6       0.4540652       99.88095
2013    24      7       0.5393595       113.1589
2013    25      0       0.4668392       101.5041
2013    25      1       0.3941578       90.35238
2013    25      2       0.3537303       83.11088
2013    25      3       0.2749877       67.80757
2013    25      4       0.2772326       68.00568
2013    25      5       0.3846066       87.01756
2013    25      6       0.3756252       85.69296
2013    25      7       0.4790337       103.2186
2013    26      0       0.4938711       105.7898
2013    26      1       0.4606798       100.453
2013    26      2       0.3977825       90.16036
2013    26      3       0.3288157       77.89934
2013    26      4       0.348131        81.19726
2013    26      5       0.4120939       91.80183
2013    26      6       0.4559896       99.62094
2013    26      7       0.5161772       109.3434
2013    27      0       0.489131        105.3566
2013    27      1       0.4749078       103.4178
2013    27      2       0.4835808       104.7455
2013    27      3       0.4934571       105.7788
2013    27      4       0.397917        89.87883
2013    27      5       0.4424979       97.34758
2013    27      6       0.4599145       100.4253
2013    27      7       0.5570652       115.9549
2013    28      0       0.6009537       122.6059
2013    28      1       0.5648152       116.8503
2013    28      2       0.5353124       112.45
2013    28      3       0.4837035       104.4745
2013    28      4       0.4010751       91.12862
2013    28      5       0.468648        101.7906
2013    28      6       0.5041651       107.7736
2013    28      7       0.5748756       118.6186
2013    29      0       0.5842938       120.0479
2013    29      1       0.4983242       107.7614
2013    29      2       0.4782408       104.3696
2013    29      3       0.3779879       86.98823
2013    29      4       0.3966268       89.97961
2013    29      5       0.4995651       106.2975
2013    29      6       0.5145537       109.4289
2013    29      7       0.5648815       117.1956
2013    30      0       0.4386407       97.30223
2013    30      1       0.3778945       86.68842
2013    30      2       0.3238902       76.54736
2013    30      3       0.2619241       64.74245
2013    30      4       0.2891126       69.89254
2013    30      5       0.3839218       87.20021
2013    30      6       0.4235188       94.58457
2013    30      7       0.4705283       102.4033
2013    31      0       0.3424062       80.34223
2013    31      1       0.3031801       72.8913
2013    31      2       0.2635108       65.1648
2013    31      3       0.2820859       68.56956
2013    31      4       0.3095326       73.79827
2013    31      5       0.3395709       79.56198
2013    31      6       0.3330878       78.38629
2013    31      7       0.3410651       79.88793
2014    1       0       0.357226        82.09943
2014    1       1       0.2019133       51.77636
2014    1       2       0.1681862       44.57606
2014    1       3       0.1416732       38.65394
2014    1       4       0.1417767       38.57378
2014    1       5       0.1466601       39.9426
2014    1       6       0.1732109       46.06107
2014    1       7       0.2493868       61.73881
2014    2       0       0.2261885       57.37226
2014    2       1       0.2076935       53.4699
2014    2       2       0.1459945       39.908
2014    2       3       0.1170149       33.29679
2014    2       4       0.1018714       29.87704
2014    2       5       0.1055912       30.73805
2014    2       6       0.1212939       34.47289
2014    2       7       0.1213762       34.58004
2014    3       0       0.1084704       31.57831
2014    3       1       0.107714        31.37362
2014    3       2       0.1876458       49.66864
2014    3       3       0.2942271       71.22667
2014    3       4       0.4009511       90.81888
2014    3       5       0.4052685       91.45923
2014    3       6       0.4249305       94.70549
2014    3       7       0.4983022       106.4406
2014    4       0       0.4984432       106.1942
2014    4       1       0.3747843       85.86589
2014    4       2       0.3260247       76.70845
2014    4       3       0.2975006       70.88478
2014    4       4       0.2823156       68.28776
2014    4       5       0.3764693       85.72465
2014    4       6       0.4059466       91.22389
2014    4       7       0.5183541       109.4941
2014    5       0       0.5120546       108.6265
2014    5       1       0.4952655       106.0275
2014    5       2       0.3524391       81.61998
2014    5       3       0.1932008       50.2684
2014    5       4       0.1439462       39.45418
2014    5       5       0.1612653       43.32258
2014    5       6       0.2278537       57.46284
2014    5       7       0.3186775       75.547
2014    6       0       0.3585241       82.83519
2014    6       1       0.3298981       77.82134
2014    6       2       0.2826808       68.95198
2014    6       3       0.236491        59.63552
2014    6       4       0.1868692       49.22612
2014    6       5       0.1881901       49.48118
2014    6       6       0.2493289       62.16425
2014    6       7       0.3598585       82.97781
2014    7       0       0.2881657       69.93516
2014    7       1       0.2217437       56.6526
2014    7       2       0.1971648       51.43901
2014    7       3       0.2045914       52.97578
2014    7       4       0.1775475       47.27126
2014    7       5       0.1843293       48.74043
2014    7       6       0.2787141       67.8015
2014    7       7       0.3559604       82.4151
2014    8       0       0.2500023       62.46731
2014    8       1       0.2062046       53.89087
2014    8       2       0.2466179       62.06697
2014    8       3       0.2335437       59.3016
2014    8       4       0.2026394       53.00963
2014    8       5       0.2130631       55.04014
2014    8       6       0.2845403       69.33832
2014    8       7       0.3458142       80.96277
2014    9       0       0.1961798       51.55158
2014    9       1       0.1183844       34.18265
2014    9       2       0.1164535       33.73646
2014    9       3       0.2024978       52.73215
2014    9       4       0.2156567       55.50322
2014    9       5       0.3353355       78.34843
2014    9       6       0.3893004       88.00938
2014    9       7       0.3609034       82.78006
2014    10      0       0.2552619       62.6472
2014    10      1       0.2659917       64.73447
2014    10      2       0.3535551       81.61643
2014    10      3       0.2976036       71.60973
2014    10      4       0.2602505       64.38466
2014    10      5       0.2539405       63.10557
2014    10      6       0.319221        75.7046
2014    10      7       0.4194468       93.67549
2014    11      0       0.4308464       95.39067
2014    11      1       0.4248219       94.38442
2014    11      2       0.3857139       87.80779
2014    11      3       0.2938732       71.47404
2014    11      4       0.2806768       68.58026
2014    11      5       0.3222751       76.40355
2014    11      6       0.4410668       97.32873
2014    11      7       0.4792246       103.7689
2014    12      0       0.3713059       85.16949
2014    12      1       0.2937799       71.15922
2014    12      2       0.2920826       70.97581
2014    12      3       0.2658264       66.10663
2014    12      4       0.2602665       65.10241
2014    12      5       0.3403502       80.21583
2014    12      6       0.3701863       85.86715
2014    12      7       0.450838        99.53189
2014    13      0       0.2135923       55.1232
2014    13      1       0.2234495       56.99787
2014    13      2       0.2173871       56.00707
2014    13      3       0.1497398       41.41415
2014    13      4       0.1123285       32.61243
2014    13      5       0.1058702       30.9525
2014    13      6       0.1558216       42.17927
2014    13      7       0.2597586       64.23246
2014    14      0       0.3391819       79.25357
2014    14      1       0.3826751       87.18354
2014    14      2       0.4314178       95.28698
2014    14      3       0.3755397       86.01421
2014    14      4       0.443835        96.86319
2014    14      5       0.4698576       101.0128
2014    14      6       0.4190545       93.38622
2014    14      7       0.5106973       108.4833
2014    15      0       0.5671214       116.9762
2014    15      1       0.5092847       107.6713
2014    15      2       0.4011715       90.0514
2014    15      3       0.3214771       75.71712
2014    15      4       0.2954231       71.31937
2014    15      5       0.3843995       87.42319
2014    15      6       0.4429043       97.41641
2014    15      7       0.5240608       110.9572
2014    16      0       0.444907        98.72695
2014    16      1       0.472523        103.2441
2014    16      2       0.4788685       103.5284
2014    16      3       0.4760244       102.6185
2014    16      4       0.3368027       79.37517
2014    16      5       0.3925211       89.43688
2014    16      6       0.4048497       91.62614
2014    16      7       0.4918973       106.245
2014    17      0       0.4683817       102.325
2014    17      1       0.468914        102.4776
2014    17      2       0.4299287       96.13488
2014    17      3       0.3556042       82.78723
2014    17      4       0.347329        81.44941
2014    17      5       0.4520837       99.28548
2014    17      6       0.4824006       104.297
2014    17      7       0.4881429       105.5954
2014    18      0       0.5216043       110.7304
2014    18      1       0.4657237       101.9737
2014    18      2       0.43319         96.37627
2014    18      3       0.3745539       86.28372
2014    18      4       0.3813507       87.25147
2014    18      5       0.443617        97.60977
2014    18      6       0.4765091       103.1166
2014    18      7       0.5075003       108.4206
2014    19      0       0.4751343       103.0405
2014    19      1       0.3722906       85.21881
2014    19      2       0.3759793       85.80143
2014    19      3       0.4187617       93.49519
2014    19      4       0.3994857       90.68809
2014    19      5       0.394192        89.49809
2014    19      6       0.4336424       96.41402
2014    19      7       0.4659692       101.6581
2014    20      0       0.3319762       78.48572
2014    20      1       0.3270748       77.65231
2014    20      2       0.3486817       81.6211
2014    20      3       0.2796316       68.34007
2014    20      4       0.2389086       60.33392
2014    20      5       0.2807027       68.68192
2014    20      6       0.3306336       77.90983
2014    20      7       0.2786707       68.37313
2014    21      0       0.1587528       43.6288
2014    21      1       0.08669522      26.68694
2014    21      2       0.05753394      19.40577
2014    21      3       0.04589396      16.37868
2014    21      4       0.04074034      15.04569
2014    21      5       0.04860068      17.02001
2014    21      6       0.06929844      22.1672
2014    21      7       0.09688934      28.87978
2014    22      0       0.07202573      22.83452
2014    22      1       0.06193647      20.13494
2014    22      2       0.06648331      21.26392
2014    22      3       0.07536762      23.51684
2014    22      4       0.09084603      27.31751
2014    22      5       0.1477081       40.59227
2014    22      6       0.2549964       63.36007
2014    22      7       0.2957443       71.43547
2014    23      0       0.2816872       68.49123
2014    23      1       0.2422632       60.74725
2014    23      2       0.2609422       64.0528
2014    23      3       0.3136298       73.79255
2014    23      4       0.4001468       89.7507
2014    23      5       0.4237419       94.11841
2014    23      6       0.4040806       91.15672
2014    23      7       0.3729889       85.50924
2014    24      0       0.2741041       66.84264
2014    24      1       0.2478408       61.43241
2014    24      2       0.2331523       58.42417
2014    24      3       0.231665        58.10205
2014    24      4       0.2330911       58.26598
2014    24      5       0.2039288       52.44742
2014    24      6       0.2098073       53.82462
2014    24      7       0.2031632       52.51833
2014    25      0       0.189085        49.49788
2014    25      1       0.1792115       47.16796
2014    25      2       0.1855754       48.38387
2014    25      3       0.1992501       51.09529
2014    25      4       0.1932111       49.93685
2014    25      5       0.1867496       48.66419
2014    25      6       0.2093062       53.69352
2014    25      7       0.2589788       63.79102
2014    26      0       0.2386033       59.90736
2014    26      1       0.2608956       64.65824
2014    26      2       0.3626675       83.89707
2014    26      3       0.4703726       101.8455
2014    26      4       0.4599693       100.7363
2014    26      5       0.4715277       102.0077
2014    26      6       0.4510906       98.56721
2014    26      7       0.4919273       105.1138
2014    27      0       0.5759272       117.5206
2014    27      1       0.5945742       120.6372
2014    27      2       0.5818795       119.413
2014    27      3       0.3704938       84.85285
2014    27      4       0.3450767       80.04482
2014    27      5       0.4596233       99.6674
2014    27      6       0.5581595       114.8474
2014    27      7       0.5550246       115.226
2014    28      0       0.5755229       118.5811
2014    28      1       0.6350979       127.1257
2014    28      2       0.5655032       116.8089
2014    28      3       0.4941445       106.2544
2014    28      4       0.5214356       109.8455
2014    28      5       0.4512177       98.68889
2014    28      6       0.4918556       105.397
2014    28      7       0.5205218       110.0222
2014    29      0       0.5395576       113.1064
2014    29      1       0.4558431       100.4565
2014    29      2       0.4597369       101.2708
2014    29      3       0.455413        100.2483
2014    29      4       0.4624342       100.7515
2014    29      5       0.4344827       95.97751
2014    29      6       0.4997678       106.6116
2014    29      7       0.5039651       107.3766
2014    30      0       0.4055167       91.09338
2014    30      1       0.2976886       71.47918
2014    30      2       0.2512579       62.11877
2014    30      3       0.2718099       66.29014
2014    30      4       0.2974871       71.2373
2014    30      5       0.306078        73.12136
2014    30      6       0.3551642       82.41861
2014    30      7       0.3800221       86.92044
2014    31      0       0.2862699       69.18992
2014    31      1       0.2274888       57.07834
2014    31      2       0.1960716       50.50771
2014    31      3       0.164912        43.40996
2014    31      4       0.1466245       39.53617
2014    31      5       0.1137985       32.42397
2014    31      6       0.1354161       37.5735
2014    31      7       0.199528        51.49857
2015    1       0       0.1289956       35.93941
2015    1       1       0.1435964       39.09844
2015    1       2       0.1444071       39.3161
2015    1       3       0.1890849       49.47783
2015    1       4       0.1910825       49.77871
2015    1       5       0.2484366       61.58416
2015    1       6       0.2725687       66.32699
2015    1       7       0.3479499       80.50292
2015    2       0       0.290898        69.90787
2015    2       1       0.2209325       56.10195
2015    2       2       0.2001016       51.68677
2015    2       3       0.1672318       44.64332
2015    2       4       0.1443345       39.67415
2015    2       5       0.207349        53.36168
2015    2       6       0.2967258       71.2497
2015    2       7       0.3151499       74.62942
2015    3       0       0.3229991       75.23951
2015    3       1       0.2604556       63.85175
2015    3       2       0.158782        42.49245
2015    3       3       0.08266575      25.0846
2015    3       4       0.05103804      17.49514
2015    3       5       0.05106844      17.56448
2015    3       6       0.07095748      22.63425
2015    3       7       0.1038745       30.699
2015    4       0       0.06840972      22.09061
2015    4       1       0.05658271      18.98464
2015    4       2       0.07092629      22.47099
2015    4       3       0.09086503      27.4116
2015    4       4       0.1010425       29.87546
2015    4       5       0.1264395       35.73648
2015    4       6       0.1684635       45.0986
2015    4       7       0.2564217       62.97789
2015    5       0       0.1721237       45.48498
2015    5       1       0.1476837       40.01838
2015    5       2       0.1478623       40.12058
2015    5       3       0.1622197       43.33557
2015    5       4       0.1751069       46.09125
2015    5       5       0.1770774       46.5589
2015    5       6       0.212728        54.23965
2015    5       7       0.235193        58.87815
2015    6       0       0.1895831       49.69567
2015    6       1       0.157299        42.63771
2015    6       2       0.1542209       41.92797
2015    6       3       0.1480805       40.60912
2015    6       4       0.129673        36.4983
2015    6       5       0.1220522       34.82486
2015    6       6       0.1627788       43.90976
2015    6       7       0.2590717       63.71726
2015    7       0       0.2828107       68.39502
2015    7       1       0.2956855       71.04589
2015    7       2       0.2467996       61.56296
2015    7       3       0.2311546       57.67856
2015    7       4       0.2319145       57.78233
2015    7       5       0.2578475       63.33767
2015    7       6       0.374813        84.76532
2015    7       7       0.4270858       94.01798
2015    8       0       0.4093817       91.224
2015    8       1       0.3826466       86.81197
2015    8       2       0.384515        86.89652
2015    8       3       0.3529375       81.21522
2015    8       4       0.3946734       88.05523
2015    8       5       0.4590725       98.83796
2015    8       6       0.4728276       101.6432
2015    8       7       0.4657609       100.6112
2015    9       0       0.2710906       65.88499
2015    9       1       0.1653696       44.20826
2015    9       2       0.1416114       39.10586
2015    9       3       0.166673        44.75226
2015    9       4       0.1924151       50.33795
2015    9       5       0.2594297       63.90918
2015    9       6       0.3183989       75.57109
2015    9       7       0.3592897       83.32511
2015    10      0       0.2361716       59.84365
2015    10      1       0.195729        51.21528
2015    10      2       0.2186961       55.89398
2015    10      3       0.2921335       70.51164
2015    10      4       0.3116029       74.62341
2015    10      5       0.3443587       80.8658
2015    10      6       0.348386        81.57614
2015    10      7       0.2949662       71.71199
2015    11      0       0.1790103       47.80471
2015    11      1       0.1677756       44.89594
2015    11      2       0.2029457       52.35891
2015    11      3       0.2418039       60.44701
2015    11      4       0.2050555       53.07673
2015    11      5       0.2025565       52.6641
2015    11      6       0.2007489       52.31145
2015    11      7       0.1963511       51.43464
2015    12      0       0.1832031       48.81475
2015    12      1       0.1754691       47.06963
2015    12      2       0.1617242       44.05518
2015    12      3       0.1507339       41.63779
2015    12      4       0.1431627       39.95167
2015    12      5       0.1437443       40.05576
2015    12      6       0.1587076       43.37785
2015    12      7       0.1524773       42.20512
2015    13      0       0.09249754      28.39959
2015    13      1       0.07332863      23.54016
2015    13      2       0.07988865      25.1115
2015    13      3       0.07965385      24.95457
2015    13      4       0.0755694       23.90648
2015    13      5       0.08359641      25.84757
2015    13      6       0.1080633       31.70695
2015    13      7       0.1232107       35.35476
2015    14      0       0.06535528      21.5422
2015    14      1       0.04145579      15.38386
2015    14      2       0.04170804      15.43707
2015    14      3       0.04088126      15.1939
2015    14      4       0.03783573      14.3827
2015    14      5       0.04963674      17.393
2015    14      6       0.07233762      23.10594
2015    14      7       0.1101943       32.1239
2015    15      0       0.09120578      27.533
2015    15      1       0.05837316      19.49832
2015    15      2       0.05651747      19.07651
2015    15      3       0.07265403      23.15472
2015    15      4       0.1012135       30.09045
2015    15      5       0.2237387       57.05229
2015    15      6       0.3312579       78.21435
2015    15      7       0.3790387       87.0115
2015    16      0       0.3837382       87.84038
2015    16      1       0.3517284       82.61143
2015    16      2       0.4606877       100.7929
2015    16      3       0.4059204       91.91208
2015    16      4       0.4523749       99.57286
2015    16      5       0.540341        112.2027
2015    16      6       0.4874815       104.7755
2015    16      7       0.5238901       110.5751
2015    17      0       0.543633        113.7156
2015    17      1       0.5375039       112.625
2015    17      2       0.507699        107.9535
2015    17      3       0.4689301       101.9053
2015    17      4       0.4008338       90.38015
2015    17      5       0.4133406       92.46887
2015    17      6       0.4254199       94.78359
2015    17      7       0.453308        99.4911
2015    18      0       0.3761492       85.71436
2015    18      1       0.3349838       78.10422
2015    18      2       0.3269287       76.90578
2015    18      3       0.3255167       76.41154
2015    18      4       0.3274757       76.73781
2015    18      5       0.3388061       78.62794
2015    18      6       0.365819        83.7073
2015    18      7       0.3754422       85.69417
2015    19      0       0.3172844       75.35117
2015    19      1       0.2991999       71.83809
2015    19      2       0.3064824       73.2948
2015    19      3       0.2905422       70.25526
2015    19      4       0.3812754       87.19392
2015    19      5       0.3765371       86.16003
2015    19      6       0.4331424       95.98333
2015    19      7       0.4752211       102.1042
2015    20      0       0.3712661       84.99155
2015    20      1       0.2804086       67.92944
2015    20      2       0.2559348       62.90508
2015    20      3       0.2703401       65.6073
2015    20      4       0.3271416       76.71768
2015    20      5       0.454784        98.84078
2015    20      6       0.4848818       104.0717
2015    20      7       0.5038653       107.4136
2015    21      0       0.4796384       103.6733
2015    21      1       0.4107583       92.2589
2015    21      2       0.4711776       102.0926
2015    21      3       0.4418201       97.05682
2015    21      4       0.4407531       96.75617
2015    21      5       0.4646303       100.4999
2015    21      6       0.4713415       102.1115
2015    21      7       0.5106913       108.2766
2015    22      0       0.3809696       86.1467
2015    22      1       0.2731152       65.73168
2015    22      2       0.2715772       65.53654
2015    22      3       0.2662648       64.68725
2015    22      4       0.2439962       60.35501
2015    22      5       0.2357504       58.54009
2015    22      6       0.2935016       69.81945
2015    22      7       0.254541        62.61584
2015    23      0       0.2285476       57.4239
2015    23      1       0.2651142       64.2668
2015    23      2       0.2840886       68.25424
2015    23      3       0.3304465       76.64241
2015    23      4       0.2908582       69.63254
2015    23      5       0.3333881       77.33204
2015    23      6       0.3852851       86.5409
2015    23      7       0.4200065       92.54775
2015    24      0       0.3699209       84.26517
2015    24      1       0.3332778       77.98337
2015    24      2       0.3222258       75.75379
2015    24      3       0.2979973       71.07802
2015    24      4       0.2767655       67.08245
2015    24      5       0.3793874       85.81467
2015    24      6       0.4408274       96.30747
2015    24      7       0.4564576       99.00909
2015    25      0       0.3105223       73.77334
2015    25      1       0.3316291       77.37225
2015    25      2       0.394611        88.84322
2015    25      3       0.3666635       84.16114
2015    25      4       0.2652315       65.62575
2015    25      5       0.2877949       69.87764
2015    25      6       0.3274986       77.35434
2015    25      7       0.3785176       86.34972
2015    26      0       0.296519        71.44441
2015    26      1       0.2636131       64.93918
2015    26      2       0.2785156       67.76756
2015    26      3       0.3343596       77.93579
2015    26      4       0.3473719       80.34514
2015    26      5       0.4154439       92.36968
2015    26      6       0.4916636       104.6863
2015    26      7       0.5242941       109.9612
2015    27      0       0.4075735       91.34802
2015    27      1       0.3075217       73.63348
2015    27      2       0.229371        58.31215
2015    27      3       0.2015591       52.41236
2015    27      4       0.1906794       49.77649
2015    27      5       0.2335707       58.5718
2015    27      6       0.301396        71.91154
2015    27      7       0.2561048       63.4948
2015    28      0       0.1648419       44.49113
2015    28      1       0.1224144       34.76531
2015    28      2       0.09807625      28.84088
2015    28      3       0.09096243      27.09911
2015    28      4       0.0789597       24.36557
2015    28      5       0.0821637       25.44634
2015    28      6       0.120693        34.58354
2015    28      7       0.1504473       41.35926
2015    29      0       0.07361017      23.46898
2015    29      1       0.053341        18.35964
2015    29      2       0.06293747      20.72493
2015    29      3       0.04483469      16.11924
2015    29      4       0.0442202       15.96089
2015    29      5       0.05623647      19.01022
2015    29      6       0.08719734      26.62002
2015    29      7       0.121596        34.54594
2015    30      0       0.08399708      25.82284
2015    30      1       0.09466448      28.4419
2015    30      2       0.1717827       46.36328
2015    30      3       0.2032258       52.8036
2015    30      4       0.2091215       54.25723
2015    30      5       0.2460794       61.85697
2015    30      6       0.305447        73.15489
2015    30      7       0.3985506       89.79792
2015    31      0       0.1540761       41.94921
2015    31      1       0.09157599      27.50796
2015    31      2       0.0677828       21.68801
2015    31      3       0.04919053      17.0973
2015    31      4       0.04066134      14.90961
2015    31      5       0.04777196      16.77776
2015    31      6       0.06790562      21.79722
2015    31      7       0.09720456      28.86254
2016    1       0       0.4524967       98.46794
2016    1       1       0.3684658       83.82215
2016    1       2       0.325068        75.88679
2016    1       3       0.311903        73.78889
2016    1       4       0.3041746       72.56657
2016    1       5       0.3612586       83.17314
2016    1       6       0.4017301       90.50739
2016    1       7       0.3983252       90.32304
2016    2       0       0.3141538       74.76219
2016    2       1       0.235444        59.80649
2016    2       2       0.1960402       51.43671
2016    2       3       0.1436047       39.80462
2016    2       4       0.09375951      28.19076
2016    2       5       0.1233495       35.15189
2016    2       6       0.1682044       45.29554
2016    2       7       0.257376        63.7623
2016    3       0       0.2009575       52.16098
2016    3       1       0.1543144       41.94218
2016    3       2       0.1781294       46.96342
2016    3       3       0.273649        66.40338
2016    3       4       0.3457351       80.11524
2016    3       5       0.3842039       87.00477
2016    3       6       0.439667        96.62487
2016    3       7       0.4941044       105.6207
2016    4       0       0.4711379       102.0556
2016    4       1       0.3794775       86.77672
2016    4       2       0.3490362       81.12767
2016    4       3       0.3160463       75.1529
2016    4       4       0.3619587       83.24573
2016    4       5       0.4465527       97.85412
2016    4       6       0.4336719       96.35591
2016    4       7       0.5193404       109.9486
2016    5       0       0.5453768       113.9346
2016    5       1       0.5216334       110.0778
2016    5       2       0.4849362       104.3057
2016    5       3       0.3417243       79.97868
2016    5       4       0.2904974       70.32317
2016    5       5       0.3394424       79.74116
2016    5       6       0.4308517       95.71221
2016    5       7       0.519521        110.1861
2016    6       0       0.4818144       103.9786
2016    6       1       0.3937998       88.99624
2016    6       2       0.2883272       69.79664
2016    6       3       0.2107222       54.27786
2016    6       4       0.2808924       68.69909
2016    6       5       0.4036766       91.22746
2016    6       6       0.447383        98.72896
2016    6       7       0.5325716       112.2951
2016    7       0       0.5230235       110.6293
2016    7       1       0.4097974       92.28958
2016    7       2       0.3104631       74.40553
2016    7       3       0.280741        68.75556
2016    7       4       0.2579527       64.37521
2016    7       5       0.3848233       87.45087
2016    7       6       0.4281234       95.17664
2016    7       7       0.4589768       100.6531
2016    8       0       0.5170841       109.7105
2016    8       1       0.4716005       102.8022
2016    8       2       0.5480761       114.731
2016    8       3       0.559629        116.3565
2016    8       4       0.5942574       120.5334
2016    8       5       0.5007942       106.6836
2016    8       6       0.4810475       103.7758
2016    8       7       0.5500781       114.7621
2016    9       0       0.3975257       90.20399
2016    9       1       0.2476028       62.01282
2016    9       2       0.1752929       46.5889
2016    9       3       0.1441878       39.42455
2016    9       4       0.1232238       34.72691
2016    9       5       0.1229638       34.82276
2016    9       6       0.1567727       42.69723
2016    9       7       0.1826852       48.34656
2016    10      0       0.09327234      27.94454
2016    10      1       0.06792587      21.44643
2016    10      2       0.07870071      23.86096
2016    10      3       0.06135543      19.78416
2016    10      4       0.0566624       18.65049
2016    10      5       0.07559954      23.24103
2016    10      6       0.1144437       32.43395
2016    10      7       0.1682558       44.65641
2016    11      0       0.1328273       36.95694
2016    11      1       0.09220561      27.38003
2016    11      2       0.09035666      26.99102
2016    11      3       0.08779318      26.48795
2016    11      4       0.08969712      26.83782
2016    11      5       0.1390572       38.25564
2016    11      6       0.1722736       45.72084
2016    11      7       0.2496438       61.66108
2016    12      0       0.2593601       63.4656
2016    12      1       0.2088289       53.23238
2016    12      2       0.2195907       55.04219
2016    12      3       0.2125047       53.6793
2016    12      4       0.2061795       52.51508
2016    12      5       0.206338        52.86232
2016    12      6       0.2849707       68.80088
2016    12      7       0.3000589       71.70892
2016    13      0       0.1900436       49.63863
2016    13      1       0.1202989       33.95852
2016    13      2       0.08040399      24.68329
2016    13      3       0.05780418      19.29205
2016    13      4       0.05253964      17.85356
2016    13      5       0.06419811      20.71067
2016    13      6       0.08815284      26.80415
2016    13      7       0.1852333       48.4664
2016    14      0       0.2023553       52.19593
2016    14      1       0.2453233       60.98144
2016    14      2       0.4537158       99.0704
2016    14      3       0.4657174       100.876
2016    14      4       0.3967795       89.13836
2016    14      5       0.4765716       102.3836
2016    14      6       0.4620687       100.5149
2016    14      7       0.4659655       101.7134
2016    15      0       0.4873302       105.3398
2016    15      1       0.5757021       119.0431
2016    15      2       0.5131047       109.1807
2016    15      3       0.5261201       111.3267
2016    15      4       0.4884935       105.2145
2016    15      5       0.4911392       104.9384
2016    15      6       0.4917701       105.3097
2016    15      7       0.5096086       108.341
2016    16      0       0.4259598       95.02303
2016    16      1       0.3672538       85.25312
2016    16      2       0.379267        87.76226
2016    16      3       0.2799192       68.87537
2016    16      4       0.2413638       61.234
2016    16      5       0.229089        58.60301
2016    16      6       0.2923539       71.21023
2016    16      7       0.37163         86.24112
2016    17      0       0.4606216       101.5552
2016    17      1       0.5188103       111.2589
2016    17      2       0.5656567       118.6494
2016    17      3       0.4224647       95.87192
2016    17      4       0.4075796       92.8047
2016    17      5       0.4263246       95.68616
2016    17      6       0.4510614       99.85615
2016    17      7       0.5760958       119.4581
2016    18      0       0.6054513       123.2784
2016    18      1       0.4459398       98.91706
2016    18      2       0.3841133       88.72169
2016    18      3       0.303846        73.64275
2016    18      4       0.2266256       57.9984
2016    18      5       0.2451861       61.92299
2016    18      6       0.3588191       83.8042
2016    18      7       0.5438106       114.4245
2016    19      0       0.5577359       116.152
2016    19      1       0.4947204       106.2245
2016    19      2       0.3624578       83.7606
2016    19      3       0.263202        65.22409
2016    19      4       0.2280852       57.96344
2016    19      5       0.2029633       52.85895
2016    19      6       0.2493913       62.47664
2016    19      7       0.2730017       67.18359
2016    20      0       0.1560815       42.90845
2016    20      1       0.1016375       30.11954
2016    20      2       0.1186994       34.05849
2016    20      3       0.1022807       30.29588
2016    20      4       0.06714247      21.69969
2016    20      5       0.05837184      19.55131
2016    20      6       0.07875059      24.73213
2016    20      7       0.1295415       36.79788
2016    21      0       0.1640011       44.55912
2016    21      1       0.1548348       42.42812
2016    21      2       0.1962331       51.39402
2016    21      3       0.2336999       59.23517
2016    21      4       0.2667739       65.85134
2016    21      5       0.2585386       64.4133
2016    21      6       0.3557168       82.55969
2016    21      7       0.4529955       99.45724
2016    22      0       0.4239273       94.96454
2016    22      1       0.4299212       96.45383
2016    22      2       0.5702945       118.1472
2016    22      3       0.5159451       109.6995
2016    22      4       0.3620876       84.45033
2016    22      5       0.3794655       87.03612
2016    22      6       0.4699447       102.2849
2016    22      7       0.5710859       117.9928
2016    23      0       0.5225904       110.5544
2016    23      1       0.4449928       98.50595
2016    23      2       0.3652236       84.81449
2016    23      3       0.4364103       96.55471
2016    23      4       0.3946201       90.04272
2016    23      5       0.3410209       80.32176
2016    23      6       0.3672149       84.71607
2016    23      7       0.4240442       95.03996
2016    24      0       0.3866509       88.55461
2016    24      1       0.3170073       76.15886
2016    24      2       0.3475092       81.95554
2016    24      3       0.4026223       91.51623
2016    24      4       0.5487794       114.4136
2016    24      5       0.4803259       103.545
2016    24      6       0.3975141       90.06562
2016    24      7       0.4309846       96.28144
2016    25      0       0.4708204       102.3461
2016    25      1       0.4134305       93.50274
2016    25      2       0.3933382       90.11152
2016    25      3       0.3558083       83.23195
2016    25      4       0.4169928       93.65019
2016    25      5       0.4007638       90.68292
2016    25      6       0.4533888       99.49781
2016    25      7       0.5699249       117.7287
2016    26      0       0.5399264       112.998
2016    26      1       0.3902782       89.08065
2016    26      2       0.3966118       89.81971
2016    26      3       0.3314578       78.06752
2016    26      4       0.2749449       67.27162
2016    26      5       0.3343867       78.27335
2016    26      6       0.4437609       97.63966
2016    26      7       0.4653277       101.2191
2016    27      0       0.2907676       70.59767
2016    27      1       0.2246196       57.3618
2016    27      2       0.2095234       54.1321
2016    27      3       0.2566083       63.76893
2016    27      4       0.2477088       62.09177
2016    27      5       0.2755683       67.46906
2016    27      6       0.361138        83.63423
2016    27      7       0.4849867       104.4989
2016    28      0       0.4958392       106.1443
2016    28      1       0.5159412       109.3431
2016    28      2       0.5802444       119.2332
2016    28      3       0.3881687       88.3551
2016    28      4       0.3785413       86.35362
2016    28      5       0.507982        107.6065
2016    28      6       0.511804        108.0655
2016    28      7       0.6303602       124.9491
2016    29      0       0.573661        117.7083
2016    29      1       0.4841116       105.0333
2016    29      2       0.42472         95.17747
2016    29      3       0.4166497       93.7239
2016    29      4       0.4335675       96.90812
2016    29      5       0.4635664       101.0603
2016    29      6       0.5380558       113.0281
2016    29      7       0.6331882       126.4055
2016    30      0       0.5717627       117.9324
2016    30      1       0.5725997       118.4553
2016    30      2       0.6055704       123.7169
2016    30      3       0.5816626       120.4806
2016    30      4       0.4961876       107.0746
2016    30      5       0.4401806       97.44316
2016    30      6       0.4879889       105.6799
2016    30      7       0.6275446       126.7722
2016    31      0       0.6288683       127.039
2016    31      1       0.535037        113.1601
2016    31      2       0.4358338       96.78778
2016    31      3       0.5320129       111.612
2016    31      4       0.5247909       110.6805
2016    31      5       0.5577137       115.298
2016    31      6       0.6533156       127.6262
2016    31      7       0.6823226       131.4527
2017    1       0       0.123247        34.94452
2017    1       1       0.09403486      28.01158
2017    1       2       0.09769654      28.81868
2017    1       3       0.1183295       33.52968
2017    1       4       0.126474        35.53237
2017    1       5       0.1115199       32.05371
2017    1       6       0.1344899       37.31578
2017    1       7       0.1674848       44.65615
2017    2       0       0.1314965       36.69865
2017    2       1       0.102845        29.99615
2017    2       2       0.09336898      27.80862
2017    2       3       0.08129691      24.98729
2017    2       4       0.08416371      25.58209
2017    2       5       0.09239453      27.48475
2017    2       6       0.1175014       33.46963
2017    2       7       0.1800135       47.11705
2017    3       0       0.20225         51.70343
2017    3       1       0.1884482       48.69661
2017    3       2       0.2018683       51.53024
2017    3       3       0.2012913       51.39102
2017    3       4       0.2008051       51.32748
2017    3       5       0.2788281       67.24186
2017    3       6       0.3688371       84.14433
2017    3       7       0.4304653       94.87467
2017    4       0       0.4374788       95.80995
2017    4       1       0.3330162       77.59508
2017    4       2       0.3016838       71.72985
2017    4       3       0.3150063       73.81576
2017    4       4       0.2968786       70.6467
2017    4       5       0.2761846       66.94995
2017    4       6       0.3718557       84.63538
2017    4       7       0.4244408       93.73676
2017    5       0       0.3853699       86.63319
2017    5       1       0.2911833       70.04377
2017    5       2       0.2985608       71.25269
2017    5       3       0.2775012       67.08507
2017    5       4       0.2736232       66.22665
2017    5       5       0.2605888       63.68503
2017    5       6       0.3867123       86.77639
2017    5       7       0.4235841       92.96362
2017    6       0       0.3597511       81.98348
2017    6       1       0.3009083       71.2645
2017    6       2       0.2626563       63.74672
2017    6       3       0.2287838       56.80789
2017    6       4       0.2302882       57.17865
2017    6       5       0.2487376       60.94521
2017    6       6       0.3039065       71.84072
2017    6       7       0.3896068       87.65058
2017    7       0       0.3455069       80.04061
2017    7       1       0.3449273       79.79807
2017    7       2       0.3986139       89.3618
2017    7       3       0.4097708       91.51984
2017    7       4       0.3783872       86.41964
2017    7       5       0.4344986       95.44226
2017    7       6       0.4859048       104.1523
2017    7       7       0.5139386       108.6377
2017    8       0       0.4518347       98.33349
2017    8       1       0.3987662       89.38235
2017    8       2       0.3520911       81.15983
2017    8       3       0.2590128       63.74137
2017    8       4       0.2528432       62.59286
2017    8       5       0.318201        75.18555
2017    8       6       0.325315        76.36623
2017    8       7       0.3191411       75.23814
2017    9       0       0.2890395       69.63086
2017    9       1       0.2515362       62.314
2017    9       2       0.2604192       64.06335
2017    9       3       0.2882037       69.43839
2017    9       4       0.3049545       72.88544
2017    9       5       0.2694741       66.00277
2017    9       6       0.2813028       68.20822
2017    9       7       0.2006305       51.85359
2017    10      0       0.1761537       46.46683
2017    10      1       0.1556259       42.02903
2017    10      2       0.1495449       40.68501
2017    10      3       0.09611126      28.39073
2017    10      4       0.07770924      24.00103
2017    10      5       0.08039098      24.7126
2017    10      6       0.09024853      27.24987
2017    10      7       0.09561197      28.72189
2017    11      0       0.07183962      23.00576
2017    11      1       0.08343068      25.64941
2017    11      2       0.1054062       30.80313
2017    11      3       0.09668166      28.96283
2017    11      4       0.07451839      23.63198
2017    11      5       0.08476883      26.1322
2017    11      6       0.1229721       35.13656
2017    11      7       0.1339493       37.59092
2017    12      0       0.09108062      27.6614
2017    12      1       0.09647332      28.96382
2017    12      2       0.1226394       35.20491
2017    12      3       0.1154744       33.63321
2017    12      4       0.1319477       37.55735
2017    12      5       0.1740215       46.8391
2017    12      6       0.3075824       73.57253
2017    12      7       0.3828417       87.55393
2017    13      0       0.4465752       98.31569
2017    13      1       0.352048        82.4842
2017    13      2       0.453794        99.7535
2017    13      3       0.4045668       91.15894
2017    13      4       0.2354604       59.83674
2017    13      5       0.2213347       56.77477
2017    13      6       0.2722548       66.83632
2017    13      7       0.3732435       85.53369
2017    14      0       0.5070317       107.8533
2017    14      1       0.400939        91.11139
2017    14      2       0.3326437       78.96649
2017    14      3       0.3140971       75.71515
2017    14      4       0.235355        59.76414
2017    14      5       0.2081271       54.24428
2017    14      6       0.2210246       56.98053
2017    14      7       0.3369331       79.23127
2017    15      0       0.4036955       91.36537
2017    15      1       0.4504981       99.49558
2017    15      2       0.4603415       101.5467
2017    15      3       0.5005688       107.8359
2017    15      4       0.5007392       107.1284
2017    15      5       0.3666965       84.84335
2017    15      6       0.3591313       83.25738
2017    15      7       0.3834266       87.68305
2017    16      0       0.4504289       99.14357
2017    16      1       0.3637096       84.56173
2017    16      2       0.4259526       95.25951
2017    16      3       0.2426812       61.51945
2017    16      4       0.1981451       52.09581
2017    16      5       0.2717892       66.83667
2017    16      6       0.3064836       73.40667
2017    16      7       0.3134325       74.91595
2017    17      0       0.3008024       72.5154
2017    17      1       0.2359775       59.83064
2017    17      2       0.2265041       57.66123
2017    17      3       0.1749857       46.55494
2017    17      4       0.1480154       40.29978
2017    17      5       0.2035937       52.38477
2017    17      6       0.2195004       56.008
2017    17      7       0.2998166       71.74029
2017    18      0       0.2743001       67.26767
2017    18      1       0.1342729       37.56207
2017    18      2       0.1194807       34.10942
2017    18      3       0.1546195       41.9523
2017    18      4       0.1864642       48.83256
2017    18      5       0.3289881       77.08518
2017    18      6       0.4180122       92.95311
2017    18      7       0.4525809       98.76993
2017    19      0       0.4468292       98.20546
2017    19      1       0.4095967       92.09007
2017    19      2       0.453205        98.95165
2017    19      3       0.3573663       82.70773
2017    19      4       0.4117309       92.2031
2017    19      5       0.5020394       106.344
2017    19      6       0.4974884       106.1471
2017    19      7       0.5117863       108.1205
2017    20      0       0.4764317       103.0855
2017    20      1       0.3864975       88.44613
2017    20      2       0.4399083       97.89649
2017    20      3       0.4486768       99.26042
2017    20      4       0.5101173       108.819
2017    20      5       0.4485876       98.64403
2017    20      6       0.4654208       101.7676
2017    20      7       0.5850118       120.3487
2017    21      0       0.6283897       126.3992
2017    21      1       0.5646642       117.2777
2017    21      2       0.4856127       104.8072
2017    21      3       0.4552876       99.21052
2017    21      4       0.4199002       93.51609
2017    21      5       0.4668209       101.0736
2017    21      6       0.5985682       120.411
2017    21      7       0.5001344       106.4068
2017    22      0       0.3135395       74.91692
2017    22      1       0.2667633       65.81897
2017    22      2       0.2728104       66.87407
2017    22      3       0.2910917       70.3274
2017    22      4       0.2827564       68.77565
2017    22      5       0.2858749       69.31444
2017    22      6       0.3245807       76.77915
2017    22      7       0.2651824       65.29528
2017    23      0       0.2631412       65.00945
2017    23      1       0.2865374       69.84069
2017    23      2       0.3620915       83.70877
2017    23      3       0.2992346       71.97511
2017    23      4       0.3072696       73.10292
2017    23      5       0.2784358       67.64669
2017    23      6       0.272837        66.81197
2017    23      7       0.2792794       68.10307
2017    24      0       0.2312785       58.4114
2017    24      1       0.1894248       49.45546
2017    24      2       0.1679005       44.77514
2017    24      3       0.1650636       44.22831
2017    24      4       0.1477586       40.40805
2017    24      5       0.1504088       41.04565
2017    24      6       0.1767167       46.9648
2017    24      7       0.208439        53.72787
2017    25      0       0.1526554       41.70082
2017    25      1       0.1005393       29.54682
2017    25      2       0.08693659      26.13782
2017    25      3       0.09873242      28.90751
2017    25      4       0.1043861       30.34253
2017    25      5       0.1299486       36.21066
2017    25      6       0.1744832       46.29994
2017    25      7       0.2497371       62.32462
2017    26      0       0.315929        75.24617
2017    26      1       0.3363036       79.10886
2017    26      2       0.3546738       82.55676
2017    26      3       0.3503631       81.45482
2017    26      4       0.354329        82.25895
2017    26      5       0.5465126       112.8027
2017    26      6       0.525464        110.077
2017    26      7       0.5560565       114.6949
2017    27      0       0.4413273       97.16664
2017    27      1       0.4342234       96.11011
2017    27      2       0.3864213       88.25487
2017    27      3       0.4696011       102.6338
2017    27      4       0.4487063       99.41875
2017    27      5       0.4808551       104.1642
2017    27      6       0.5445757       114.1774
2017    27      7       0.6163473       123.8124
2017    28      0       0.5833452       119.8517
2017    28      1       0.628759        126.8102
2017    28      2       0.6657066       131.8978
2017    28      3       0.5573643       116.1087
2017    28      4       0.5221622       110.5796
2017    28      5       0.4981857       106.6121
2017    28      6       0.4904707       105.8903
2017    28      7       0.642467        127.3219
2017    29      0       0.6548461       129.4908
2017    29      1       0.5111485       108.5992
2017    29      2       0.5453296       114.2222
2017    29      3       0.488836        105.5862
2017    29      4       0.5569462       115.9538
2017    29      5       0.4899454       105.6291
2017    29      6       0.548371        114.6969
2017    29      7       0.581951        118.9644
2017    30      0       0.5217308       110.7437
2017    30      1       0.4497368       99.29916
2017    30      2       0.3632826       84.24297
2017    30      3       0.3433917       80.59348
2017    30      4       0.319394        76.20661
2017    30      5       0.4284667       95.45877
2017    30      6       0.4659034       101.8208
2017    30      7       0.6210488       125.7152
2017    31      0       0.5954675       121.3568
2017    31      1       0.5302517       112.1795
2017    31      2       0.5383614       113.698
2017    31      3       0.5698967       118.5552
2017    31      4       0.5161159       109.9132
2017    31      5       0.5196597       109.624
2017    31      6       0.5073967       108.2264
2017    31      7       0.5964797       121.7961
2018    1       0       0.0489359       17.14041
2018    1       1       0.0374392       14.01285
2018    1       2       0.03811047      14.1781
2018    1       3       0.03960729      14.57127
2018    1       4       0.0434377       15.57302
2018    1       5       0.04678195      16.4314
2018    1       6       0.06071716      19.91494
2018    1       7       0.08130547      25.00154
2018    2       0       0.07688049      24.04145
2018    2       1       0.08974558      26.92407
2018    2       2       0.1453338       39.73796
2018    2       3       0.1728967       46.09607
2018    2       4       0.1511912       41.52925
2018    2       5       0.2440484       61.17144
2018    2       6       0.271487        66.73708
2018    2       7       0.2145345       55.17008
2018    3       0       0.1441878       39.99712
2018    3       1       0.1214502       34.66594
2018    3       2       0.1116513       32.39875
2018    3       3       0.1002984       29.76282
2018    3       4       0.08705709      26.70484
2018    3       5       0.07068109      22.64501
2018    3       6       0.06730149      21.83045
2018    3       7       0.07039563      22.67067
2018    4       0       0.03134983      12.5682
2018    4       1       0.02393953      10.54943
2018    4       2       0.02259273      10.18258
2018    4       3       0.02556958      10.99095
2018    4       4       0.02671725      11.28511
2018    4       5       0.02990244      12.14026
2018    4       6       0.03972373      14.74253
2018    4       7       0.05259459      18.09811
2018    5       0       0.03333084      13.12514
2018    5       1       0.02447008      10.64307
2018    5       2       0.03370578      13.10869
2018    5       3       0.05099554      17.60941
2018    5       4       0.06662483      21.53684
2018    5       5       0.07805741      24.40989
2018    5       6       0.1070522       31.32609
2018    5       7       0.1368022       37.94505
2018    6       0       0.1229802       34.9011
2018    6       1       0.126284        35.79459
2018    6       2       0.1424803       39.50281
2018    6       3       0.14773         40.813
2018    6       4       0.1877489       49.68052
2018    6       5       0.2421893       60.89918
2018    6       6       0.2917635       70.25853
2018    6       7       0.2759841       67.34268
2018    7       0       0.190661        50.32015
2018    7       1       0.1799947       48.04231
2018    7       2       0.307015        73.80921
2018    7       3       0.3564139       83.04796
2018    7       4       0.3927979       89.60193
2018    7       5       0.3583982       82.87545
2018    7       6       0.3671511       84.19626
2018    7       7       0.4706651       101.949
2018    8       0       0.501632        106.7617
2018    8       1       0.3425165       80.0635
2018    8       2       0.396143        89.76695
2018    8       3       0.2492767       62.1955
2018    8       4       0.1596746       43.05055
2018    8       5       0.200068        51.89315
2018    8       6       0.2404446       60.20193
2018    8       7       0.2262409       57.12767
2018    9       0       0.173047        46.10856
2018    9       1       0.1534515       41.75816
2018    9       2       0.1392718       38.53574
2018    9       3       0.130098        36.44982
2018    9       4       0.1112902       32.13848
2018    9       5       0.1340771       37.38483
2018    9       6       0.1695622       45.17677
2018    9       7       0.2150043       54.63376
2018    10      0       0.1867258       49.07916
2018    10      1       0.163004        43.91935
2018    10      2       0.1362495       37.84357
2018    10      3       0.1081583       31.36715
2018    10      4       0.08505063      25.75505
2018    10      5       0.1194917       33.7904
2018    10      6       0.1911337       49.45443
2018    10      7       0.2670586       64.84814
2018    11      0       0.2239955       56.62526
2018    11      1       0.1650804       44.05488
2018    11      2       0.1181615       33.06419
2018    11      3       0.1389639       38.07481
2018    11      4       0.1647517       43.88657
2018    11      5       0.1881176       49.00522
2018    11      6       0.2569922       63.10393
2018    11      7       0.2965105       71.17017
2018    12      0       0.2792237       68.17637
2018    12      1       0.2852357       69.44198
2018    12      2       0.3183183       75.64865
2018    12      3       0.3231634       76.37606
2018    12      4       0.2936553       70.71954
2018    12      5       0.2940917       70.80687
2018    12      6       0.396666        89.52224
2018    12      7       0.509453        108.1873
2018    13      0       0.4785088       102.8642
2018    13      1       0.372949        84.81128
2018    13      2       0.3302806       77.02914
2018    13      3       0.3156757       74.1482
2018    13      4       0.2886523       69.07701
2018    13      5       0.373939        84.90882
2018    13      6       0.4119678       92.07434
2018    13      7       0.4381805       96.82603
2018    14      0       0.4311171       95.78492
2018    14      1       0.3503222       81.75644
2018    14      2       0.2963463       71.37212
2018    14      3       0.2769407       67.40534
2018    14      4       0.2490658       62.17592
2018    14      5       0.2719839       66.88306
2018    14      6       0.3471175       81.2496
2018    14      7       0.4865289       104.8369
2018    15      0       0.459772        100.1581
2018    15      1       0.4297664       95.12968
2018    15      2       0.3319292       78.40329
2018    15      3       0.3274794       77.12122
2018    15      4       0.3104713       74.18778
2018    15      5       0.3554677       82.09761
2018    15      6       0.4775175       102.8069
2018    15      7       0.5049658       107.5473
2018    16      0       0.5032          107.372
2018    16      1       0.4695847       102.2125
2018    16      2       0.473363        102.7289
2018    16      3       0.5255218       110.9809
2018    16      4       0.5949053       121.3616
2018    16      5       0.5304057       111.5751
2018    16      6       0.5285765       111.7011
2018    16      7       0.617757        125.1337
2018    17      0       0.579689        118.7252
2018    17      1       0.5220321       109.9754
2018    17      2       0.4685014       101.2211
2018    17      3       0.3796394       86.58382
2018    17      4       0.3236685       76.48848
2018    17      5       0.3311201       78.06539
2018    17      6       0.3808935       87.2608
2018    17      7       0.4149391       93.31744
2018    18      0       0.3295289       77.97085
2018    18      1       0.3097672       73.95599
2018    18      2       0.3219426       75.95941
2018    18      3       0.332116        77.82443
2018    18      4       0.3535744       81.7095
2018    18      5       0.4082884       91.47779
2018    18      6       0.5180971       108.9495
2018    18      7       0.5024552       107.1276
2018    19      0       0.3928908       89.30849
2018    19      1       0.3328697       78.46645
2018    19      2       0.3185999       75.52255
2018    19      3       0.3112463       74.26199
2018    19      4       0.2860532       69.68239
2018    19      5       0.3004432       72.7213
2018    19      6       0.3458391       81.19784
2018    19      7       0.3020449       73.03206
2018    20      0       0.1948994       51.43945
2018    20      1       0.1467971       40.61486
2018    20      2       0.1302858       36.61962
2018    20      3       0.09643768      28.64139
2018    20      4       0.08353775      25.59629
2018    20      5       0.1039584       30.43835
2018    20      6       0.1435142       39.81013
2018    20      7       0.2289165       58.60588
2018    21      0       0.2432973       61.58769
2018    21      1       0.1629441       44.06494
2018    21      2       0.1351227       37.78992
2018    21      3       0.09467217      28.4505
2018    21      4       0.07774295      24.34825
2018    21      5       0.08901894      26.95028
2018    21      6       0.1564949       42.51539
2018    21      7       0.2912329       70.02614
2018    22      0       0.2118742       54.07921
2018    22      1       0.1635508       43.45759
2018    22      2       0.1675669       43.99271
2018    22      3       0.1870127       48.0504
2018    22      4       0.1721024       45.31496
2018    22      5       0.1676606       44.61917
2018    22      6       0.1884938       49.50383
2018    22      7       0.2487161       62.03446
2018    23      0       0.2248719       57.34568
2018    23      1       0.1390785       38.74008
2018    23      2       0.1121087       32.38176
2018    23      3       0.1019679       29.8521
2018    23      4       0.1115891       32.2165
2018    23      5       0.1293036       36.60422
2018    23      6       0.1658755       44.9749
2018    23      7       0.2448822       61.58523
2018    24      0       0.2067218       53.72342
2018    24      1       0.124396        35.46699
2018    24      2       0.1275556       36.01742
2018    24      3       0.1364179       38.0472
2018    24      4       0.1569307       42.67935
2018    24      5       0.2340502       59.18366
2018    24      6       0.3338787       78.68272
2018    24      7       0.384301        87.92424
2018    25      0       0.3009438       72.80879
2018    25      1       0.2168725       55.76999
2018    25      2       0.2068008       53.32203
2018    25      3       0.1887382       49.26843
2018    25      4       0.2034592       52.46866
2018    25      5       0.2431882       60.86075
2018    25      6       0.4022126       90.22659
2018    25      7       0.4811012       103.7151
2018    26      0       0.4836606       104.3797
2018    26      1       0.4149422       93.39006
2018    26      2       0.4918211       105.5688
2018    26      3       0.4311404       95.47108
2018    26      4       0.4723194       102.2668
2018    26      5       0.4098862       92.27771
2018    26      6       0.4996663       106.7947
2018    26      7       0.588025        120.4133
2018    27      0       0.5377805       112.7511
2018    27      1       0.4182717       93.70414
2018    27      2       0.336946        79.42259
2018    27      3       0.4529322       99.57725
2018    27      4       0.5196314       110.0034
2018    27      5       0.4770474       103.1887
2018    27      6       0.5199588       110.233
2018    27      7       0.5271638       111.5048
2018    28      0       0.5616462       116.6704
2018    28      1       0.4686487       102.3073
2018    28      2       0.4192681       93.79229
2018    28      3       0.3522269       81.68049
2018    28      4       0.3456377       80.45663
2018    28      5       0.3243519       76.36569
2018    28      6       0.3870008       87.98147
2018    28      7       0.4858919       104.7368
2018    29      0       0.4400442       97.26531
2018    29      1       0.4144962       92.89916
2018    29      2       0.390418        88.08605
2018    29      3       0.3838069       86.45067
2018    29      4       0.4385529       96.148
2018    29      5       0.4583635       99.54091
2018    29      6       0.457694        99.77528
2018    29      7       0.5250782       110.6119
2018    30      0       0.5399937       112.7444
2018    30      1       0.5203107       110.112
2018    30      2       0.4922113       106.0723
2018    30      3       0.4209489       94.30943
2018    30      4       0.4822461       103.7553
2018    30      5       0.5356139       112.2234
2018    30      6       0.5592755       116.1889
2018    30      7       0.6119386       124.0171
2018    31      0       0.4642437       102.0187
2018    31      1       0.4788251       104.0661
2018    31      2       0.5084063       108.5106
2018    31      3       0.4612934       100.4617
2018    31      4       0.383818        86.94884
2018    31      5       0.3180231       75.51888
2018    31      6       0.405752        91.18505
2018    31      7       0.4726166       102.5114
