####################################################################################################
# Month: 12Dec                                                                                     #
# Station: SAS                                                                                     #
# Frequency: 345 GHz                                                                               #
# Columns are: year    day     segment         tau     Tb (K)                                      #
####################################################################################################
2009    1       0       1.538152        210.258
2009    1       1       1.582157        213.3795
2009    1       2       1.775159        223.3185
2009    1       3       1.641222        216.7805
2009    1       4       1.430903        204.4888
2009    1       5       1.675824        216.9676
2009    1       6       1.722045        219.4482
2009    1       7       1.84415         225.0663
2009    2       0       1.356757        198.9181
2009    2       1       1.088214        178.4615
2009    2       2       1.178971        186.8087
2009    2       3       1.119099        181.7002
2009    2       4       0.8559374       156.2078
2009    2       5       0.8284545       153.0124
2009    2       6       1.052006        176.251
2009    2       7       1.266877        193.9971
2009    3       0       1.324653        197.8723
2009    3       1       1.201171        189.2399
2009    3       2       1.189158        188.1211
2009    3       3       1.180239        187.0376
2009    3       4       0.9358833       165.3891
2009    3       5       0.9695873       168.5026
2009    3       6       1.201594        189.3027
2009    3       7       1.3851          202.0387
2009    4       0       0.8551172       156.8553
2009    4       1       0.415956        94.95792
2009    4       2       0.3415944       81.15585
2009    4       3       0.4673973       103.5157
2009    4       4       0.6303857       128.649
2009    4       5       0.7596365       145.3568
2009    4       6       1.088023        179.3976
2009    4       7       1.133611        183.035
2009    5       0       0.6337373       128.8445
2009    5       1       0.3413145       81.63219
2009    5       2       0.2645598       66.44555
2009    5       3       0.2231342       58.06762
2009    5       4       0.2068622       54.48046
2009    5       5       0.2198833       57.25931
2009    5       6       0.3418816       81.64635
2009    5       7       0.5105105       110.5835
2009    6       0       0.3962422       91.70875
2009    6       1       0.3494833       83.04641
2009    6       2       0.3523616       83.69641
2009    6       3       0.335367        80.42549
2009    6       4       0.2995447       73.67766
2009    6       5       0.2831127       70.76638
2009    6       6       0.4076139       93.98229
2009    6       7       0.5410377       115.3835
2009    7       0       0.433258        98.3078
2009    7       1       0.3748672       88.04671
2009    7       2       0.3958449       91.59784
2009    7       3       0.3773002       88.16462
2009    7       4       0.3495746       83.21918
2009    7       5       0.3323968       80.31356
2009    7       6       0.3852377       89.91611
2009    7       7       0.4571194       101.6999
2009    8       0       0.3701378       86.84804
2009    8       1       0.3555518       83.69741
2009    8       2       0.3476243       81.76206
2009    8       3       0.3577454       83.63966
2009    8       4       0.3761812       86.77125
2009    8       5       0.414112        93.45116
2009    8       6       0.5194885       111.2268
2009    8       7       0.7409198       142.0059
2009    9       0       0.8457946       154.1123
2009    9       1       0.8677687       157.1236
2009    9       2       1.055589        176.151
2009    9       3       1.087087        178.93
2009    9       4       1.072008        177.1565
2009    9       5       1.273752        192.985
2009    9       6       1.396057        201.5578
2009    9       7       1.627556        215.0296
2009    10      0       1.582918        212.3552
2009    10      1       1.377128        199.3339
2009    10      2       1.42507         202.3691
2009    10      3       1.476495        205.7752
2009    10      4       1.424881        202.8029
2009    10      5       1.436277        203.1323
2009    10      6       1.53759         209.4445
2009    10      7       1.555551        210.7982
2009    11      0       1.289786        193.9775
2009    11      1       0.9059244       160.1912
2009    11      2       0.6213083       124.7583
2009    11      3       0.3698645       85.78752
2009    11      4       0.202413        53.36313
2009    11      5       0.2308475       59.22251
2009    11      6       0.3084895       74.95856
2009    11      7       0.3377751       80.53178
2009    12      0       0.1218218       35.58548
2009    12      1       0.1245019       36.30626
2009    12      2       0.1504854       42.23303
2009    12      3       0.1586177       43.99196
2009    12      4       0.1584206       44.01411
2009    12      5       0.2417312       62.11698
2009    12      6       0.3683896       86.5822
2009    12      7       0.5517266       116.661
2009    13      0       0.6631257       132.9172
2009    13      1       1.011451        172.8811
2009    13      2       1.230548        191.7284
2009    13      3       1.553394        212.4938
2009    13      4       1.572814        213.1658
2009    13      5       1.462978        205.2987
2009    13      6       1.218517        188.9462
2009    13      7       1.268158        193.5584
2009    14      0       1.278367        194.8325
2009    14      1       1.001341        171.591
2009    14      2       0.5726839       119.5515
2009    14      3       0.3675027       84.83443
2009    14      4       0.4076038       92.43756
2009    14      5       0.5143697       110.7127
2009    14      6       0.8528707       155.7136
2009    14      7       1.258137        192.6459
2009    15      0       1.350772        198.7781
2009    15      1       1.165353        185.119
2009    15      2       0.8417147       153.9048
2009    15      3       0.5359821       113.5989
2009    15      4       0.3591914       84.04634
2009    15      5       0.5018161       108.5732
2009    15      6       0.7709371       145.842
2009    15      7       1.049062        175.2679
2009    16      0       1.080782        178.1432
2009    16      1       1.029708        173.6677
2009    16      2       0.9965284       170.5816
2009    16      3       0.9425816       165.2547
2009    16      4       0.8648367       157.0602
2009    16      5       1.050299        175.2048
2009    16      6       1.309558        195.973
2009    16      7       1.598843        213.7264
2009    17      0       1.599873        213.0346
2009    17      1       1.453515        204.577
2009    17      2       1.370061        199.2802
2009    17      3       1.100073        179.2357
2009    17      4       1.17544         184.6809
2009    17      5       1.335945        196.5829
2009    17      6       1.455317        204.8567
2009    17      7       1.5166          208.4972
2009    18      0       1.525376        208.2891
2009    18      1       1.371788        198.6499
2009    18      2       1.178185        185.0076
2009    18      3       0.9795216       168.0096
2009    18      4       1.087644        177.5781
2009    18      5       1.134853        181.7054
2009    18      6       1.40121         201.7113
2009    18      7       1.54116         209.9073
2009    19      0       1.406138        201.1065
2009    19      1       1.337286        196.3523
2009    19      2       1.18378         184.5079
2009    19      3       1.067587        174.7878
2009    19      4       1.03305         172.3533
2009    19      5       1.242621        190.3487
2009    19      6       1.507704        208.6812
2009    19      7       1.602815        214.0024
2009    20      0       1.447327        203.8946
2009    20      1       1.300156        192.8745
2009    20      2       1.237416        188.6589
2009    20      3       1.07532         175.257
2009    20      4       0.7465448       140.6261
2009    20      5       0.6418743       127.5373
2009    20      6       0.7686477       144.5969
2009    20      7       0.9076856       160.575
2009    21      0       0.8430103       153.5684
2009    21      1       0.7673973       144.6859
2009    21      2       0.9205595       160.5748
2009    21      3       1.016371        170.3704
2009    21      4       1.158251        182.8704
2009    21      5       1.371527        199.0129
2009    21      6       1.465584        205.4901
2009    21      7       1.615566        214.1509
2009    22      0       1.581319        212.0403
2009    22      1       1.43113         203.3445
2009    22      2       1.439948        204.157
2009    22      3       1.461936        205.3118
2009    22      4       1.378463        200.1538
2009    22      5       1.436149        203.8009
2009    22      6       1.501608        208.6386
2009    22      7       1.72462         220.4234
2009    23      0       1.590422        212.7425
2009    23      1       1.575956        211.9963
2009    23      2       1.53988         210.7526
2009    23      3       1.235756        190.663
2009    23      4       1.418939        203.0539
2009    23      5       1.410359        202.546
2009    23      6       1.640862        215.0396
2009    23      7       1.79172         222.1552
2009    24      0       1.521343        209.1678
2009    24      1       1.375506        200.6142
2009    24      2       1.336252        197.7617
2009    24      3       1.363021        198.9113
2009    24      4       1.529687        208.8644
2009    24      5       1.518987        208.8174
2009    24      6       1.732539        219.9657
2009    24      7       1.694639        219.1917
2009    25      0       1.553534        211.3112
2009    25      1       1.376495        201.0102
2009    25      2       1.175362        186.1799
2009    25      3       1.054108        175.7151
2009    25      4       1.121396        182.3765
2009    25      5       1.347032        198.5055
2009    25      6       1.771258        221.3657
2009    25      7       1.706563        219.1798
2009    26      0       1.63286         214.9562
2009    26      1       1.438723        203.6848
2009    26      2       1.306421        194.7943
2009    26      3       1.077172        176.7584
2009    26      4       1.066877        175.5662
2009    26      5       1.349071        198.0693
2009    26      6       1.718162        218.9716
2009    26      7       1.728752        220.3933
2009    27      0       1.564602        210.9318
2009    27      1       1.390778        200.9834
2009    27      2       1.279422        193.4644
2009    27      3       1.331224        196.6821
2009    27      4       1.269748        192.4502
2009    27      5       1.472783        206.3645
2009    27      6       1.61005         214.4243
2009    27      7       1.734624        220.8507
2009    28      0       1.698641        219.0438
2009    28      1       1.502975        208.6324
2009    28      2       1.238587        191.4631
2009    28      3       1.406801        202.5554
2009    28      4       1.484885        207.3748
2009    28      5       1.494511        207.885
2009    28      6       1.724281        220.0763
2009    28      7       1.807159        224.0729
2009    29      0       1.655128        216.0644
2009    29      1       1.524405        208.7573
2009    29      2       1.440024        203.7679
2009    29      3       1.269741        192.9108
2009    29      4       1.213354        188.7716
2009    29      5       1.31215         196.071
2009    29      6       1.537433        210.1443
2009    29      7       1.4845          207.2529
2009    30      0       1.111242        181.008
2009    30      1       0.9045467       161.1498
2009    30      2       0.865668        156.7493
2009    30      3       0.6814648       134.6787
2009    30      4       0.5375117       114.3913
2009    30      5       0.5232663       112.0376
2009    30      6       0.6866792       135.1924
2009    30      7       0.8777568       157.9504
2009    31      0       0.8156709       151.7318
2009    31      1       0.6894092       135.9421
2009    31      2       0.7215188       139.9953
2009    31      3       0.7573176       144.2657
2009    31      4       0.7037775       137.6551
2009    31      5       0.6520996       131.1584
2009    31      6       0.8814328       158.8452
2009    31      7       1.050048        174.8679
2010    1       0       0.7611002       143.7402
2010    1       1       0.5419172       113.9308
2010    1       2       0.6120912       124.9012
2010    1       3       0.6608523       131.9682
2010    1       4       0.6184665       126.5869
2010    1       5       0.505351        109.6459
2010    1       6       0.6795285       134.7131
2010    1       7       0.9422404       163.9915
2010    2       0       1.00231         169.2904
2010    2       1       1.181086        184.487
2010    2       2       1.369268        199.3315
2010    2       3       1.290547        195.0492
2010    2       4       1.214678        189.1539
2010    2       5       1.200408        188.0351
2010    2       6       1.271172        193.2285
2010    2       7       1.061939        176.2548
2010    3       0       0.8335391       154.0157
2010    3       1       0.5788641       121.4672
2010    3       2       0.3485445       83.04117
2010    3       3       0.209204        54.50691
2010    3       4       0.236614        60.28472
2010    3       5       0.5506165       115.0613
2010    3       6       0.8205802       150.8432
2010    3       7       0.9615885       166.7275
2010    4       0       0.9342737       164.342
2010    4       1       0.8621707       156.4639
2010    4       2       0.7094921       137.975
2010    4       3       0.6379566       128.7854
2010    4       4       0.6060608       124.6931
2010    4       5       0.8345994       153.0374
2010    4       6       1.018924        171.7387
2010    4       7       1.353345        198.7379
2010    5       0       1.385474        200.6198
2010    5       1       1.287061        194.2236
2010    5       2       1.434603        203.7082
2010    5       3       1.419024        202.9178
2010    5       4       1.469217        205.5304
2010    5       5       1.491725        206.2112
2010    5       6       1.490547        206.3688
2010    5       7       1.577431        211.3639
2010    6       0       1.515332        207.9742
2010    6       1       1.463352        205.4935
2010    6       2       1.415027        202.6385
2010    6       3       1.233455        189.9808
2010    6       4       1.195           187.3668
2010    6       5       1.296695        195.0488
2010    6       6       1.493673        208.3839
2010    6       7       1.557372        211.719
2010    7       0       1.233013        190.0519
2010    7       1       1.351623        198.6387
2010    7       2       1.39653         202.3384
2010    7       3       1.358303        199.8386
2010    7       4       1.294209        195.3394
2010    7       5       1.373581        200.9586
2010    7       6       1.588746        213.8147
2010    7       7       1.613782        215.673
2010    8       0       1.524729        211.1281
2010    8       1       1.455583        207.3282
2010    8       2       1.435284        205.967
2010    8       3       1.389491        202.7085
2010    8       4       1.369517        201.1276
2010    8       5       1.531008        210.9479
2010    8       6       1.699529        220.332
2010    8       7       1.881237        228.1875
2010    9       0       1.819219        224.8274
2010    9       1       1.735413        220.7832
2010    9       2       1.573058        212.6533
2010    9       3       1.339402        197.976
2010    9       4       1.569447        211.4797
2010    9       5       1.579324        212.2769
2010    9       6       1.656371        216.7487
2010    9       7       1.645891        216.1807
2010    10      0       1.532776        209.8482
2010    10      1       1.343096        198.098
2010    10      2       1.308781        194.4511
2010    10      3       1.060812        174.9626
2010    10      4       0.7946021       146.7042
2010    10      5       0.9914484       167.9279
2010    10      6       1.406805        202.5409
2010    10      7       1.493095        207.8281
2010    11      0       1.498232        207.8096
2010    11      1       1.454316        205.7557
2010    11      2       1.133891        183.027
2010    11      3       1.210914        187.9301
2010    11      4       1.365158        198.7107
2010    11      5       1.335355        196.9722
2010    11      6       1.602385        214.6396
2010    11      7       1.769036        223.3407
2010    12      0       1.577856        214.1407
2010    12      1       1.510659        210.032
2010    12      2       1.526305        211.0701
2010    12      3       1.653484        217.8417
2010    12      4       1.667817        217.9193
2010    12      5       1.650309        216.388
2010    12      6       1.840172        224.8207
2010    12      7       1.791239        223.8897
2010    13      0       1.690982        219.0512
2010    13      1       1.312899        197.091
2010    13      2       1.276212        193.2363
2010    13      3       1.144126        183.288
2010    13      4       1.118547        181.1604
2010    13      5       1.221162        189.1237
2010    13      6       1.283059        194.1698
2010    13      7       1.047783        174.8258
2010    14      0       0.5341194       113.3389
2010    14      1       0.3509517       82.1995
2010    14      2       0.2981289       72.69624
2010    14      3       0.2391777       61.0372
2010    14      4       0.1981459       52.49764
2010    14      5       0.2212581       57.60853
2010    14      6       0.3473314       82.78678
2010    14      7       0.4689399       104.0954
2010    15      0       0.2991586       74.22
2010    15      1       0.1636608       45.14558
2010    15      2       0.124649        36.42474
2010    15      3       0.1093829       32.93183
2010    15      4       0.1368733       39.25164
2010    15      5       0.1811148       49.26628
2010    15      6       0.2693304       67.89824
2010    15      7       0.4533206       101.3138
2010    16      0       0.5740355       120.0048
2010    16      1       0.5848093       121.3453
2010    16      2       0.6200934       126.4908
2010    16      3       0.4921379       107.6144
2010    16      4       0.3652187       86.00552
2010    16      5       0.3930293       90.90407
2010    16      6       0.4966531       108.2349
2010    16      7       0.6899401       135.9749
2010    17      0       0.8529835       155.1312
2010    17      1       1.053568        176.0876
2010    17      2       1.196096        188.3441
2010    17      3       1.254014        192.823
2010    17      4       1.159295        185.1944
2010    17      5       1.172142        185.8298
2010    17      6       1.241071        191.5938
2010    17      7       1.488514        208.4466
2010    18      0       1.433633        204.8621
2010    18      1       1.183309        188.0594
2010    18      2       1.036449        175.0912
2010    18      3       1.063993        177.4319
2010    18      4       1.041505        175.1907
2010    18      5       1.133239        182.9286
2010    18      6       1.21714         189.8265
2010    18      7       1.428685        204.8692
2010    19      0       1.493161        208.4494
2010    19      1       1.386325        202.3343
2010    19      2       1.290118        195.6289
2010    19      3       1.340079        198.607
2010    19      4       1.412832        202.7923
2010    19      5       1.381017        200.2563
2010    19      6       1.457781        205.0609
2010    19      7       1.485558        206.8307
2010    20      0       1.257317        192.1222
2010    20      1       1.163202        185.2799
2010    20      2       1.148394        184.1139
2010    20      3       1.188537        186.9949
2010    20      4       1.225388        189.6305
2010    20      5       1.352081        198.2895
2010    20      6       1.493355        207.539
2010    20      7       1.477907        206.6727
2010    21      0       1.219215        189.3867
2010    21      1       1.17984         186.8071
2010    21      2       1.267849        193.3486
2010    21      3       1.378216        200.4837
2010    21      4       1.16634         184.8632
2010    21      5       1.339508        197.6249
2010    21      6       1.57467         212.319
2010    21      7       1.51623         209.0705
2010    22      0       1.552812        211.3139
2010    22      1       1.520823        209.9285
2010    22      2       1.26136         192.8011
2010    22      3       1.175641        185.9318
2010    22      4       1.077292        177.5275
2010    22      5       1.229314        190.1612
2010    22      6       1.450223        205.8759
2010    22      7       1.664716        218.2858
2010    23      0       1.786363        224.1661
2010    23      1       1.7963          224.32
2010    23      2       1.653891        217.2152
2010    23      3       1.527527        210.3296
2010    23      4       1.449426        204.9475
2010    23      5       1.44966         205.0639
2010    23      6       1.513689        209.4925
2010    23      7       1.696173        219.1004
2010    24      0       1.579869        212.6688
2010    24      1       1.348724        198.3858
2010    24      2       1.117763        180.3433
2010    24      3       1.266127        191.6599
2010    24      4       1.544377        209.7784
2010    24      5       1.341458        196.8959
2010    24      6       1.404906        201.889
2010    24      7       1.586365        212.5714
2010    25      0       1.47553         206.9932
2010    25      1       1.383025        202.2608
2010    25      2       1.226847        190.6789
2010    25      3       1.143265        183.482
2010    25      4       1.177457        185.9875
2010    25      5       1.367978        199.9062
2010    25      6       1.49105         208.4673
2010    25      7       1.734005        221.2955
2010    26      0       1.782058        222.92
2010    26      1       1.728665        220.1857
2010    26      2       1.581398        212.5734
2010    26      3       1.437574        204.4413
2010    26      4       1.438894        204.6515
2010    26      5       1.439774        205.0473
2010    26      6       1.691615        219.4742
2010    26      7       1.747525        221.2777
2010    27      0       1.240393        190.9991
2010    27      1       1.016472        171.9731
2010    27      2       0.9644214       166.2396
2010    27      3       1.095257        178.1724
2010    27      4       1.379469        200.2501
2010    27      5       1.313265        196.7794
2010    27      6       1.524794        210.8879
2010    27      7       1.783969        223.7366
2010    28      0       1.661803        216.8513
2010    28      1       1.650342        216.2173
2010    28      2       1.700823        219.4888
2010    28      3       1.669068        218.0649
2010    28      4       1.440321        205.061
2010    28      5       1.497872        208.2558
2010    28      6       1.471287        207.3998
2010    28      7       1.619516        215.8711
2010    29      0       1.712791        219.7391
2010    29      1       1.720842        220.3402
2010    29      2       1.735284        221.0913
2010    29      3       1.515913        209.2142
2010    29      4       1.454278        205.119
2010    29      5       1.484188        207.3888
2010    29      6       1.618215        215.5789
2010    29      7       1.726858        220.8526
2010    30      0       1.535098        209.943
2010    30      1       1.280899        193.0361
2010    30      2       1.0394          173.2583
2010    30      3       0.8860832       158.2252
2010    30      4       0.6698702       132.6604
2010    30      5       0.647908        129.8969
2010    30      6       0.7443102       142.9972
2010    30      7       0.7383618       142.0856
2010    31      0       0.3780473       88.90236
2010    31      1       0.2022146       54.17056
2010    31      2       0.1851318       50.21949
2010    31      3       0.1900764       51.20352
2010    31      4       0.2355441       60.78449
2010    31      5       0.3444738       81.87951
2010    31      6       0.4806389       105.5448
2010    31      7       0.6611252       132.1472
2011    1       0       0.9035258       160.3106
2011    1       1       0.9947307       169.7536
2011    1       2       1.108646        179.7706
2011    1       3       0.8620698       155.8184
2011    1       4       0.7111427       138.2447
2011    1       5       0.6029708       123.6219
2011    1       6       0.8015443       148.902
2011    1       7       1.109781        179.6293
2011    2       0       1.148969        182.7851
2011    2       1       1.059129        175.2588
2011    2       2       0.9204199       162.2758
2011    2       3       0.7756714       146.9343
2011    2       4       0.591936        122.6032
2011    2       5       0.6335857       128.3264
2011    2       6       0.8538782       154.9995
2011    2       7       1.172992        185.0836
2011    3       0       1.167031        183.8058
2011    3       1       0.8038774       149.894
2011    3       2       0.6380911       129.235
2011    3       3       0.5136258       110.9939
2011    3       4       0.379167        88.83492
2011    3       5       0.3850849       89.75388
2011    3       6       0.6581108       131.082
2011    3       7       0.9214998       161.8943
2011    4       0       0.6396668       127.8865
2011    4       1       0.3224429       76.50404
2011    4       2       0.3173766       75.43806
2011    4       3       0.2368876       60.2105
2011    4       4       0.1497139       42.16514
2011    4       5       0.1333243       38.83415
2011    4       6       0.2186473       57.45021
2011    4       7       0.3177773       77.03945
2011    5       0       0.1697123       47.10132
2011    5       1       0.1002078       31.06577
2011    5       2       0.07546381      25.07478
2011    5       3       0.06313623      21.98743
2011    5       4       0.08283946      26.92051
2011    5       5       0.1635924       45.7017
2011    5       6       0.285566        71.03364
2011    5       7       0.463131        102.8268
2011    6       0       0.487738        106.2059
2011    6       1       0.5535266       116.9402
2011    6       2       0.7279137       140.9689
2011    6       3       0.5142435       111.2624
2011    6       4       0.5221556       112.3722
2011    6       5       0.7560144       144.046
2011    6       6       0.9779497       168.0637
2011    6       7       0.9533952       165.7266
2011    7       0       0.4518296       101.1778
2011    7       1       0.2664236       67.34662
2011    7       2       0.2355085       60.83896
2011    7       3       0.2521607       64.10092
2011    7       4       0.2401597       61.8369
2011    7       5       0.3694227       86.43424
2011    7       6       0.4939271       107.5049
2011    7       7       0.5811149       120.2616
2011    8       0       0.3629586       85.2876
2011    8       1       0.2598199       65.3888
2011    8       2       0.2900896       71.13748
2011    8       3       0.452325        100.6329
2011    8       4       0.5877486       121.798
2011    8       5       0.6907951       135.2309
2011    8       6       0.8766076       157.2859
2011    8       7       0.927146        162.6883
2011    9       0       0.6153345       125.3587
2011    9       1       0.5192069       111.0796
2011    9       2       0.6359471       128.0506
2011    9       3       0.964151        166.8078
2011    9       4       1.100634        179.6764
2011    9       5       1.139863        181.2177
2011    9       6       1.119686        179.5417
2011    9       7       1.298394        193.4316
2011    10      0       1.255527        190.0681
2011    10      1       1.056662        174.0469
2011    10      2       0.8947977       157.9949
2011    10      3       0.8764253       156.8519
2011    10      4       0.8605473       155.5803
2011    10      5       1.066129        175.716
2011    10      6       1.222123        188.663
2011    10      7       1.272953        192.4577
2011    11      0       1.2577          191.5009
2011    11      1       1.264859        192.2895
2011    11      2       1.301541        194.7458
2011    11      3       1.21736         188.6002
2011    11      4       1.308989        195.0848
2011    11      5       1.373571        198.9546
2011    11      6       1.451113        204.3974
2011    11      7       1.537161        209.5569
2011    12      0       1.419021        202.706
2011    12      1       1.188787        186.3486
2011    12      2       1.365514        198.7142
2011    12      3       1.395702        200.3078
2011    12      4       1.432732        202.908
2011    12      5       1.426723        202.9406
2011    12      6       1.49594         207.5005
2011    12      7       1.594853        213.0116
2011    13      0       1.425306        203.2577
2011    13      1       1.325905        195.9518
2011    13      2       1.208619        187.0875
2011    13      3       1.135887        181.3577
2011    13      4       1.112625        179.5024
2011    13      5       1.272326        191.8152
2011    13      6       1.406498        201.0751
2011    13      7       1.3196          195.6265
2011    14      0       1.120357        179.7431
2011    14      1       1.05796         174.5446
2011    14      2       1.096469        177.5683
2011    14      3       1.188126        184.6838
2011    14      4       1.211892        187.2574
2011    14      5       1.278725        192.6451
2011    14      6       1.373178        200.2238
2011    14      7       1.518228        209.4369
2011    15      0       1.561442        211.0763
2011    15      1       1.339545        196.9427
2011    15      2       1.066616        176.0784
2011    15      3       0.8276797       152.3828
2011    15      4       0.701554        137.201
2011    15      5       0.7747318       146.2506
2011    15      6       1.000678        170.4536
2011    15      7       1.018333        171.8581
2011    16      0       0.4265806       96.9228
2011    16      1       0.279772        69.51891
2011    16      2       0.2936338       71.93268
2011    16      3       0.2640651       66.38814
2011    16      4       0.3064254       74.78786
2011    16      5       0.3927821       90.69603
2011    16      6       0.5313838       113.5146
2011    16      7       0.4454496       99.60957
2011    17      0       0.1799921       48.0279
2011    17      1       0.1500942       40.9529
2011    17      2       0.1365318       38.65503
2011    17      3       0.1745464       46.75549
2011    17      4       0.1908722       50.2339
2011    17      5       0.2755448       68.20489
2011    17      6       0.3884366       89.48116
2011    17      7       0.4639899       102.292
2011    18      0       0.3010582       73.68511
2011    18      1       0.1618417       44.46017
2011    18      2       0.1362534       38.77619
2011    18      3       0.1593053       43.79944
2011    18      4       0.1694477       46.02041
2011    18      5       0.2113012       55.04847
2011    18      6       0.3573576       84.03598
2011    18      7       0.6314865       127.342
2011    19      0       0.6108762       124.3985
2011    19      1       0.4778662       104.2732
2011    19      2       0.5150878       110.2389
2011    19      3       0.7152677       138.6301
2011    19      4       0.972508        167.6768
2011    19      5       1.081131        177.0046
2011    19      6       1.013334        171.2301
2011    19      7       1.09691         179.1793
2011    20      0       1.166182        184.7864
2011    20      1       1.27859         193.6572
2011    20      2       1.421759        202.8497
2011    20      3       1.333046        196.4277
2011    20      4       1.030288        172.4457
2011    20      5       0.9202405       161.779
2011    20      6       1.004046        170.9298
2011    20      7       1.217804        189.2017
2011    21      0       0.9938813       168.9221
2011    21      1       0.8012878       148.632
2011    21      2       0.9239656       161.8139
2011    21      3       0.9290604       162.2476
2011    21      4       0.9047973       159.7464
2011    21      5       1.129032        181.0969
2011    21      6       1.45549         205.7109
2011    21      7       1.666208        217.4739
2011    22      0       1.616443        214.2849
2011    22      1       1.605562        213.6699
2011    22      2       1.509592        208.1043
2011    22      3       1.332478        196.5485
2011    22      4       1.302934        194.6779
2011    22      5       1.470212        205.7813
2011    22      6       1.593232        213.464
2011    22      7       1.70336         219.2327
2011    23      0       1.740405        221.0508
2011    23      1       1.529641        209.3142
2011    23      2       1.253512        189.9236
2011    23      3       1.312457        194.0359
2011    23      4       1.517776        208.3405
2011    23      5       1.426491        203.564
2011    23      6       1.646939        216.7531
2011    23      7       1.788995        223.4479
2011    24      0       1.642944        215.4065
2011    24      1       1.566753        210.9173
2011    24      2       1.524723        208.3062
2011    24      3       1.533308        208.6392
2011    24      4       1.300503        194.3885
2011    24      5       1.325673        196.4312
2011    24      6       1.556752        211.2069
2011    24      7       1.683778        217.7418
2011    25      0       1.671798        216.6869
2011    25      1       1.580565        211.7387
2011    25      2       1.549336        209.7158
2011    25      3       1.480589        205.4813
2011    25      4       1.462037        204.3871
2011    25      5       1.486222        205.8364
2011    25      6       1.557322        210.4204
2011    25      7       1.584374        212.0592
2011    26      0       1.549391        210.0321
2011    26      1       1.505793        207.7161
2011    26      2       1.299783        194.4515
2011    26      3       1.091318        177.9531
2011    26      4       1.009917        170.4185
2011    26      5       1.302996        195.2156
2011    26      6       1.505402        208.9501
2011    26      7       1.665895        217.8119
2011    27      0       1.598956        214.6738
2011    27      1       1.271077        194.3541
2011    27      2       1.064159        177.136
2011    27      3       0.9624665       167.2444
2011    27      4       1.020043        172.7343
2011    27      5       1.334056        197.1599
2011    27      6       1.454187        205.8458
2011    27      7       1.674563        218.163
2011    28      0       1.740332        221.4162
2011    28      1       1.509696        209.4748
2011    28      2       1.304126        195.6311
2011    28      3       1.137319        182.3952
2011    28      4       1.295099        194.576
2011    28      5       1.401208        201.6764
2011    28      6       1.529514        209.9323
2011    28      7       1.585917        213.257
2011    29      0       1.497717        208.642
2011    29      1       1.454337        205.8465
2011    29      2       1.192261        187.5499
2011    29      3       1.087297        178.6026
2011    29      4       1.256527        192.6612
2011    29      5       1.223223        189.5164
2011    29      6       1.38432         201.5572
2011    29      7       1.623261        215.4727
2011    30      0       1.527305        209.3841
2011    30      1       1.470394        205.6719
2011    30      2       1.473763        205.742
2011    30      3       1.44766         204.2712
2011    30      4       1.339943        197.1662
2011    30      5       1.34758         197.9419
2011    30      6       1.547553        211.1944
2011    30      7       1.801587        223.3005
2011    31      0       1.537857        210.007
2011    31      1       1.442163        203.7577
2011    31      2       1.453904        204.2877
2011    31      3       1.462157        204.672
2011    31      4       1.359041        198.5623
2011    31      5       1.401487        201.2201
2011    31      6       1.4306          203.4836
2011    31      7       1.430009        203.978
2012    1       0       1.436433        203.0058
2012    1       1       1.489676        206.647
2012    1       2       1.476031        205.6848
2012    1       3       1.126493        181.0338
2012    1       4       0.9602173       165.8797
2012    1       5       1.090851        177.9569
2012    1       6       1.212139        188.3262
2012    1       7       1.406547        202.0149
2012    2       0       1.405511        201.9675
2012    2       1       1.261293        191.9982
2012    2       2       1.27692         193.0471
2012    2       3       1.173582        185.7975
2012    2       4       1.119107        181.0675
2012    2       5       1.237199        190.2946
2012    2       6       1.358592        199.6044
2012    2       7       1.581876        213.4144
2012    3       0       1.591733        214.2078
2012    3       1       1.535448        211.5528
2012    3       2       1.711974        220.5279
2012    3       3       1.439506        205.0213
2012    3       4       1.239304        190.7191
2012    3       5       1.288267        194.0563
2012    3       6       1.329173        197.7328
2012    3       7       1.524558        210.5421
2012    4       0       1.555262        212.1692
2012    4       1       1.360177        200.5838
2012    4       2       1.4656          206.9932
2012    4       3       1.345064        198.9452
2012    4       4       1.398127        201.8294
2012    4       5       1.313171        196.2665
2012    4       6       1.537238        210.4478
2012    4       7       1.888659        227.1886
2012    5       0       1.536621        211.9124
2012    5       1       1.603115        215.1079
2012    5       2       1.681978        219.29
2012    5       3       1.531034        210.9359
2012    5       4       1.516261        208.975
2012    5       5       1.587363        213.0326
2012    5       6       1.723793        220.0683
2012    5       7       1.844698        225.3056
2012    6       0       1.534047        210.6322
2012    6       1       1.301623        196.4262
2012    6       2       1.136176        183.2048
2012    6       3       1.013852        172.4356
2012    6       4       0.9486854       166.3179
2012    6       5       1.211807        188.9137
2012    6       6       1.499916        208.7676
2012    6       7       1.70929         219.9329
2012    7       0       1.63799         216.2429
2012    7       1       1.413787        203.9112
2012    7       2       1.400069        203.006
2012    7       3       1.441511        205.4421
2012    7       4       1.37375         200.9465
2012    7       5       1.447354        205.8128
2012    7       6       1.568487        213.4235
2012    7       7       1.874931        227.9729
2012    8       0       1.864308        227.623
2012    8       1       1.590412        213.6719
2012    8       2       1.491777        206.5568
2012    8       3       1.620259        214.0266
2012    8       4       1.335556        196.7576
2012    8       5       1.402993        201.5158
2012    8       6       1.429381        204.3753
2012    8       7       1.67433         218.405
2012    9       0       1.668241        217.7438
2012    9       1       1.652478        216.6913
2012    9       2       1.653967        216.6096
2012    9       3       1.631528        215.9994
2012    9       4       1.596276        213.9003
2012    9       5       1.54297         210.7294
2012    9       6       1.786598        222.5642
2012    9       7       1.877225        226.8902
2012    10      0       1.771624        222.9838
2012    10      1       1.710494        220.6228
2012    10      2       1.738628        222.107
2012    10      3       1.596784        214.2657
2012    10      4       1.513779        209.2955
2012    10      5       1.490017        208.2999
2012    10      6       1.852516        226.0944
2012    10      7       1.889021        228.4006
2012    11      0       1.86869         227.2113
2012    11      1       1.730597        220.5092
2012    11      2       1.633382        215.5795
2012    11      3       1.464215        206.4115
2012    11      4       1.344914        199.0721
2012    11      5       1.392417        201.9642
2012    11      6       1.693476        218.6477
2012    11      7       1.786357        223.8006
2012    12      0       1.824415        225.3676
2012    12      1       1.568778        213.4729
2012    12      2       1.334509        198.946
2012    12      3       1.267051        193.6427
2012    12      4       1.224632        190.0833
2012    12      5       1.239256        191.0771
2012    12      6       1.323966        197.8195
2012    12      7       1.374425        201.1095
2012    13      0       1.070033        177.3843
2012    13      1       1.035243        174.4394
2012    13      2       1.376862        200.6863
2012    13      3       1.31791         196.9449
2012    13      4       1.178092        186.5416
2012    13      5       1.255352        192.0864
2012    13      6       1.3383          198.4147
2012    13      7       1.443152        204.5043
2012    14      0       1.282543        193.9068
2012    14      1       1.311382        196.3393
2012    14      2       1.322199        196.7325
2012    14      3       1.484415        206.3904
2012    14      4       1.536846        209.4668
2012    14      5       1.535944        209.0779
2012    14      6       1.668313        216.5391
2012    14      7       1.78162         222.4996
2012    15      0       1.608796        215.218
2012    15      1       1.44702         206.2751
2012    15      2       1.484066        208.4845
2012    15      3       1.465894        207.4526
2012    15      4       1.470873        207.2161
2012    15      5       1.474779        207.2949
2012    15      6       1.777399        222.8709
2012    15      7       1.860199        226.4931
2012    16      0       1.766629        223.0863
2012    16      1       1.882561        227.9251
2012    16      2       1.691457        219.0977
2012    16      3       1.479272        207.9885
2012    16      4       1.330993        198.0455
2012    16      5       1.343511        198.8733
2012    16      6       1.483828        207.9302
2012    16      7       1.80958         224.4117
2012    17      0       1.762908        222.1512
2012    17      1       1.655922        217.3896
2012    17      2       1.537243        211.1164
2012    17      3       1.444042        205.1287
2012    17      4       1.31355         196.3504
2012    17      5       1.505581        208.2011
2012    17      6       1.556821        211.9404
2012    17      7       1.735742        221.9287
2012    18      0       1.677037        219.6808
2012    18      1       1.679612        218.9613
2012    18      2       1.684676        218.3535
2012    18      3       1.585588        212.5633
2012    18      4       1.567248        211.7765
2012    18      5       1.489401        207.3997
2012    18      6       1.681564        217.3644
2012    18      7       1.483033        206.6988
2012    19      0       1.196935        187.3042
2012    19      1       1.168289        185.5032
2012    19      2       1.22685         190.0016
2012    19      3       1.198016        187.2896
2012    19      4       1.123527        181.7309
2012    19      5       1.348275        198.6358
2012    19      6       1.464389        206.7916
2012    19      7       1.408312        203.0853
2012    20      0       1.182118        187.8102
2012    20      1       1.053789        176.3746
2012    20      2       0.8919954       159.8257
2012    20      3       0.7807076       147.3795
2012    20      4       0.7499147       143.5791
2012    20      5       0.8508141       155.7343
2012    20      6       1.166339        186.5926
2012    20      7       1.473352        207.6733
2012    21      0       1.205652        189.1116
2012    21      1       0.9064443       162.1634
2012    21      2       0.9442669       165.8535
2012    21      3       0.9293355       164.3639
2012    21      4       1.000667        171.5156
2012    21      5       0.9246755       163.8246
2012    21      6       1.070987        177.4402
2012    21      7       1.324967        197.1881
2012    22      0       1.484578        207.2263
2012    22      1       1.541127        211.428
2012    22      2       1.578346        212.4145
2012    22      3       1.44515         204.5342
2012    22      4       1.488279        207.4655
2012    22      5       1.625315        214.8411
2012    22      6       1.556789        212.0571
2012    22      7       1.695963        219.8212
2012    23      0       1.728314        221.1029
2012    23      1       1.585679        214.3375
2012    23      2       1.38508         202.1691
2012    23      3       1.336252        198.6316
2012    23      4       1.228816        190.7395
2012    23      5       1.360503        200.1206
2012    23      6       1.424333        205.0391
2012    23      7       1.454608        207.1586
2012    24      0       1.389788        203.1276
2012    24      1       1.246082        193.2258
2012    24      2       1.307288        197.2033
2012    24      3       1.123527        182.5603
2012    24      4       1.021952        173.3878
2012    24      5       1.254576        192.3506
2012    24      6       1.519336        210.4469
2012    24      7       1.8258          226.5113
2012    25      0       1.848749        226.948
2012    25      1       1.613612        216.2354
2012    25      2       1.60976         215.7151
2012    25      3       1.674847        219.3617
2012    25      4       1.484471        208.5056
2012    25      5       1.487821        208.6578
2012    25      6       1.77566         224.3409
2012    25      7       1.95504         231.2374
2012    26      0       1.68757         218.3488
2012    26      1       1.707996        219.9117
2012    26      2       1.802745        224.2095
2012    26      3       1.678201        218.3247
2012    26      4       1.395662        202.5144
2012    26      5       1.536137        211.0436
2012    26      6       1.681927        219.1627
2012    26      7       1.831113        226.0246
2012    27      0       1.792491        223.6801
2012    27      1       1.643928        216.4672
2012    27      2       1.53362         209.747
2012    27      3       1.444061        203.82
2012    27      4       1.35055         198.0305
2012    27      5       1.27758         193.3462
2012    27      6       1.322769        197.5868
2012    27      7       1.288271        194.614
2012    28      0       0.8775755       157.7857
2012    28      1       0.685659        135.4748
2012    28      2       0.7803333       146.4966
2012    28      3       0.7627767       144.1731
2012    28      4       0.8011601       148.6456
2012    28      5       0.9710593       167.0716
2012    28      6       0.9980034       169.9908
2012    28      7       0.9985923       170.3534
2012    29      0       0.8363083       153.0372
2012    29      1       0.7405342       141.2223
2012    29      2       0.7149917       137.218
2012    29      3       0.6997528       135.1764
2012    29      4       0.7543316       142.6796
2012    29      5       0.9100773       160.3578
2012    29      6       0.9666736       166.9058
2012    29      7       0.9195911       162.2227
2012    30      0       0.6157092       125.559
2012    30      1       0.4379579       97.70809
2012    30      2       0.3863522       88.41446
2012    30      3       0.3492069       82.05825
2012    30      4       0.3606884       84.22895
2012    30      5       0.4359208       97.37678
2012    30      6       0.6422183       128.5323
2012    30      7       0.9267177       162.25
2012    31      0       0.7641306       144.8952
2012    31      1       0.7136373       137.6475
2012    31      2       0.7712991       144.576
2012    31      3       0.8219606       150.193
2012    31      4       0.7888973       147.1421
2012    31      5       0.7519903       143.0575
2012    31      6       1.019105        171.8221
2012    31      7       1.217877        189.3332
2013    1       0       1.4415          203.4699
2013    1       1       1.229153        189.1287
2013    1       2       1.173442        184.9214
2013    1       3       1.006408        170.4975
2013    1       4       0.9697329       167.1157
2013    1       5       0.8868205       158.9812
2013    1       6       0.9980191       170.1058
2013    1       7       1.429475        203.5374
2013    2       0       1.494766        207.2588
2013    2       1       1.472524        205.8591
2013    2       2       0.8731725       157.1365
2013    2       3       0.5373338       113.5297
2013    2       4       0.4152214       93.85879
2013    2       5       0.5888666       121.6067
2013    2       6       0.8250152       151.169
2013    2       7       1.125776        180.2075
2013    3       0       0.8820131       156.8866
2013    3       1       0.5582518       115.9851
2013    3       2       0.5764814       118.4872
2013    3       3       0.4488262       98.60611
2013    3       4       0.3793369       86.82764
2013    3       5       0.6155603       125.0637
2013    3       6       0.8585702       155.9249
2013    3       7       1.057035        175.1956
2013    4       0       0.6626618       132.2006
2013    4       1       0.5096275       109.8813
2013    4       2       0.6184237       125.6169
2013    4       3       0.8178566       151.0604
2013    4       4       1.144499        183.0931
2013    4       5       1.462054        204.2148
2013    4       6       1.472687        205.8776
2013    4       7       1.527131        209.0595
2013    5       0       1.224009        189.2378
2013    5       1       1.177715        185.9127
2013    5       2       1.071098        176.6698
2013    5       3       0.9331216       163.3232
2013    5       4       0.8633849       155.6626
2013    5       5       1.154109        182.8579
2013    5       6       1.163438        184.5062
2013    5       7       1.247715        191.7587
2013    6       0       1.290174        194.8025
2013    6       1       1.104942        180.9967
2013    6       2       0.9321684       164.8263
2013    6       3       1.071445        177.6862
2013    6       4       1.21052         188.1108
2013    6       5       1.231307        189.7635
2013    6       6       1.384626        200.8443
2013    6       7       1.552156        210.8433
2013    7       0       1.526133        208.9667
2013    7       1       1.40379         201.4099
2013    7       2       1.348493        197.7032
2013    7       3       1.223219        189.0684
2013    7       4       1.328676        196.0646
2013    7       5       1.32876         196.1828
2013    7       6       1.447998        204.3274
2013    7       7       1.50972         208.2733
2013    8       0       1.568629        211.6398
2013    8       1       1.398685        200.8228
2013    8       2       1.258732        191.4258
2013    8       3       1.118756        180.395
2013    8       4       1.102028        178.984
2013    8       5       1.303336        194.7016
2013    8       6       1.5247          209.9089
2013    8       7       1.619343        214.9393
2013    9       0       1.280623        192.6046
2013    9       1       1.134849        180.8508
2013    9       2       1.091285        177.1232
2013    9       3       1.051649        173.5094
2013    9       4       1.2047          187.2106
2013    9       5       1.401283        201.4859
2013    9       6       1.405015        202.1476
2013    9       7       1.650218        215.6923
2013    10      0       1.47585         207.0217
2013    10      1       1.228203        190.8785
2013    10      2       1.374284        200.5526
2013    10      3       1.484293        206.895
2013    10      4       1.457572        205.5756
2013    10      5       1.567222        211.3344
2013    10      6       1.663823        216.9861
2013    10      7       1.743192        221.2935
2013    11      0       1.629811        215.4469
2013    11      1       1.620702        214.3154
2013    11      2       1.536041        209.6788
2013    11      3       1.538165        210.2782
2013    11      4       1.513087        208.8056
2013    11      5       1.558948        211.2034
2013    11      6       1.5851          212.964
2013    11      7       1.560013        211.8951
2013    12      0       1.309104        196.1965
2013    12      1       1.27963         193.9455
2013    12      2       1.351216        198.7766
2013    12      3       1.406515        202.5384
2013    12      4       1.353852        199.2784
2013    12      5       1.371583        200.4507
2013    12      6       1.498846        208.7872
2013    12      7       1.51316         208.9274
2013    13      0       1.308997        195.3742
2013    13      1       1.091493        179.0034
2013    13      2       1.053145        175.3268
2013    13      3       1.041297        173.908
2013    13      4       0.9340073       163.8416
2013    13      5       0.9554166       166.1881
2013    13      6       1.028094        173.6287
2013    13      7       1.215892        188.9019
2013    14      0       1.137739        181.5649
2013    14      1       1.01413         170.3695
2013    14      2       1.112347        179.4136
2013    14      3       1.393333        200.4375
2013    14      4       1.418328        202.1914
2013    14      5       1.388226        199.793
2013    14      6       1.37887         199.757
2013    14      7       1.453776        204.7569
2013    15      0       1.225037        189.4754
2013    15      1       1.219269        188.0961
2013    15      2       1.263776        191.4618
2013    15      3       1.256851        191.4081
2013    15      4       1.177889        185.1761
2013    15      5       1.265389        191.94
2013    15      6       1.424238        203.5398
2013    15      7       1.565989        211.6061
2013    16      0       1.408676        201.9954
2013    16      1       1.342533        197.1602
2013    16      2       1.377674        198.5489
2013    16      3       1.330466        196.2174
2013    16      4       1.195681        186.6809
2013    16      5       1.255101        191.6363
2013    16      6       1.355964        199.4132
2013    16      7       1.375506        200.437
2013    17      0       1.045771        174.8835
2013    17      1       0.9404174       164.2109
2013    17      2       0.9567647       165.4153
2013    17      3       0.8853909       158.2559
2013    17      4       0.9270074       162.8342
2013    17      5       1.119375        180.7094
2013    17      6       1.255209        192.0955
2013    17      7       1.246555        192.1766
2013    18      0       0.9443535       166.0325
2013    18      1       0.7158255       139.5875
2013    18      2       0.6516186       130.6968
2013    18      3       0.5471433       115.2192
2013    18      4       0.4735773       103.5296
2013    18      5       0.5735922       118.6415
2013    18      6       0.735108        141.0279
2013    18      7       0.9943195       169.5366
2013    19      0       0.917342        161.6666
2013    19      1       0.7849896       146.6769
2013    19      2       0.9273376       163.23
2013    19      3       0.9053879       160.563
2013    19      4       0.9096582       161.3421
2013    19      5       1.08764         178.3635
2013    19      6       1.275831        193.8348
2013    19      7       1.383866        200.5514
2013    20      0       1.131765        180.6314
2013    20      1       1.179577        185.1019
2013    20      2       1.298056        195.0926
2013    20      3       1.18433         186.6203
2013    20      4       1.215159        188.8705
2013    20      5       1.251821        191.742
2013    20      6       1.45899         205.8288
2013    20      7       1.754846        221.4456
2013    21      0       1.678791        218.2009
2013    21      1       1.58089         212.0375
2013    21      2       1.540744        209.1816
2013    21      3       1.424565        202.2468
2013    21      4       1.221943        188.5782
2013    21      5       1.25393         191.0402
2013    21      6       1.378113        200.8798
2013    21      7       1.592421        213.8744
2013    22      0       1.667953        217.3468
2013    22      1       1.551137        210.7078
2013    22      2       1.45417         204.3486
2013    22      3       1.425341        202.4758
2013    22      4       1.348412        197.6752
2013    22      5       1.294384        194.6244
2013    22      6       1.340926        198.9044
2013    22      7       1.438947        205.586
2013    23      0       1.459177        205.9854
2013    23      1       1.382355        199.9271
2013    23      2       1.406564        200.4942
2013    23      3       1.402425        200.4725
2013    23      4       1.194409        186.4848
2013    23      5       1.183217        186.3614
2013    23      6       1.3305          197.8392
2013    23      7       1.445352        205.1638
2013    24      0       1.19331         187.2867
2013    24      1       1.056837        174.3816
2013    24      2       1.331064        196.3986
2013    24      3       1.255735        192.587
2013    24      4       1.047534        175.8663
2013    24      5       1.183314        186.8653
2013    24      6       1.412537        203.6389
2013    24      7       1.658011        217.1108
2013    25      0       1.518117        208.7919
2013    25      1       1.231553        191.6778
2013    25      2       1.103409        181.1899
2013    25      3       0.9142885       162.3844
2013    25      4       0.8588549       156.0384
2013    25      5       1.077539        176.639
2013    25      6       1.179636        185.5927
2013    25      7       1.460087        205.4712
2013    26      0       1.476504        206.4294
2013    26      1       1.39302         201.057
2013    26      2       1.249813        191.3455
2013    26      3       1.096138        179.2226
2013    26      4       1.092138        178.6892
2013    26      5       1.229407        189.1977
2013    26      6       1.414379        202.6913
2013    26      7       1.56847         212.0767
2013    27      0       1.49165         207.8099
2013    27      1       1.43366         204.6762
2013    27      2       1.453985        205.8683
2013    27      3       1.471401        206.0954
2013    27      4       1.221305        188.948
2013    27      5       1.304747        195.2773
2013    27      6       1.411259        203.2196
2013    27      7       1.68602         218.936
2013    28      0       1.76871         222.8758
2013    28      1       1.703112        219.0357
2013    28      2       1.643641        216.0726
2013    28      3       1.505943        208.5737
2013    28      4       1.258531        192.8322
2013    28      5       1.427907        203.913
2013    28      6       1.577179        213.2028
2013    28      7       1.741121        221.7211
2013    29      0       1.758036        222.4306
2013    29      1       1.557513        212.9667
2013    29      2       1.492834        208.8922
2013    29      3       1.28034         194.5411
2013    29      4       1.27322         193.6623
2013    29      5       1.503432        208.188
2013    29      6       1.623876        215.6475
2013    29      7       1.732194        221.1535
2013    30      0       1.454818        206.0932
2013    30      1       1.284527        194.3604
2013    30      2       1.107705        179.8144
2013    30      3       0.9268846       163.0275
2013    30      4       1.019043        171.4878
2013    30      5       1.186825        186.0975
2013    30      6       1.361354        199.9481
2013    30      7       1.495755        208.1413
2013    31      0       1.170581        185.679
2013    31      1       1.05032         175.1966
2013    31      2       0.9286685       163.4379
2013    31      3       0.9956552       169.4143
2013    31      4       1.085891        177.5874
2013    31      5       1.147687        183.0603
2013    31      6       1.146129        183.1905
2013    31      7       1.171285        185.4046
2014    1       0       1.147856        181.9854
2014    1       1       0.6987915       134.9877
2014    1       2       0.5965945       121.1014
2014    1       3       0.5027213       106.8982
2014    1       4       0.4956716       105.5266
2014    1       5       0.5202386       110.1283
2014    1       6       0.6018812       123.0697
2014    1       7       0.8201175       150.4657
2014    2       0       0.7888998       147.316
2014    2       1       0.6904127       134.9889
2014    2       2       0.5018627       107.562
2014    2       3       0.4138882       93.17825
2014    2       4       0.3602696       84.13981
2014    2       5       0.3734972       86.46874
2014    2       6       0.4295968       96.46175
2014    2       7       0.4297224       96.72363
2014    3       0       0.3830067       88.6886
2014    3       1       0.3764362       87.47501
2014    3       2       0.5556893       117.3251
2014    3       3       0.7814255       147.1379
2014    3       4       1.021153        172.6265
2014    3       5       1.196154        187.6356
2014    3       6       1.358248        199.3843
2014    3       7       1.528853        209.4654
2014    4       0       1.469892        205.6275
2014    4       1       1.222216        189.0294
2014    4       2       1.075051        176.3535
2014    4       3       0.9631012       165.0528
2014    4       4       0.9215484       161.3399
2014    4       5       1.114729        179.7207
2014    4       6       1.289497        194.176
2014    4       7       1.566278        211.477
2014    5       0       1.570583        211.7674
2014    5       1       1.49004         207.2187
2014    5       2       1.091059        177.7364
2014    5       3       0.6765262       132.8134
2014    5       4       0.511051        109.0831
2014    5       5       0.5720695       118.2944
2014    5       6       0.7601353       143.5607
2014    5       7       1.025664        172.4918
2014    6       0       1.173809        185.0617
2014    6       1       1.107574        179.8429
2014    6       2       0.9732942       167.6693
2014    6       3       0.8296572       152.2767
2014    6       4       0.6554958       130.8002
2014    6       5       0.6604805       131.4837
2014    6       6       0.8402978       153.7318
2014    6       7       1.133216        182.0305
2014    7       0       0.9981631       170.0667
2014    7       1       0.7805428       146.8466
2014    7       2       0.6968454       136.3184
2014    7       3       0.7226295       139.471
2014    7       4       0.6278576       127.2613
2014    7       5       0.652102        130.6419
2014    7       6       0.9039586       160.6241
2014    7       7       1.149099        183.4549
2014    8       0       0.8647685       156.6628
2014    8       1       0.7254544       141.3497
2014    8       2       0.8398923       154.3294
2014    8       3       0.8111115       150.7981
2014    8       4       0.7089566       138.858
2014    8       5       0.7095444       138.7502
2014    8       6       0.9443082       165.3587
2014    8       7       1.135268        182.9646
2014    9       0       0.6757257       134.6151
2014    9       1       0.4165139       95.33174
2014    9       2       0.410566        94.31338
2014    9       3       0.6873907       135.48
2014    9       4       0.7337885       141.4521
2014    9       5       1.002443        170.0311
2014    9       6       1.210621        187.767
2014    9       7       1.135068        180.9899
2014    10      0       0.8432963       152.258
2014    10      1       0.870301        155.0576
2014    10      2       1.127797        180.5165
2014    10      3       1.040771        173.5368
2014    10      4       0.9164894       161.5751
2014    10      5       0.8599982       155.6991
2014    10      6       1.043608        174.4283
2014    10      7       1.313135        196.1645
2014    11      0       1.334229        197.1365
2014    11      1       1.321568        196.3505
2014    11      2       1.245268        190.9439
2014    11      3       0.9993221       170.9651
2014    11      4       0.9465475       165.3696
2014    11      5       1.033205        173.6837
2014    11      6       1.387745        201.5424
2014    11      7       1.539058        210.7607
2014    12      0       1.225598        189.2171
2014    12      1       1.006612        171.2719
2014    12      2       1.026809        173.3699
2014    12      3       0.932055        164.7101
2014    12      4       0.8825599       159.7182
2014    12      5       1.033321        174.5981
2014    12      6       1.212027        190.2159
2014    12      7       1.412718        203.9452
2014    13      0       0.7455999       143.1312
2014    13      1       0.780317        146.8317
2014    13      2       0.7572335       144.6179
2014    13      3       0.5260933       113.2285
2014    13      4       0.3957488       91.27801
2014    13      5       0.3739144       87.01918
2014    13      6       0.5514853       115.5775
2014    13      7       0.8697193       156.9467
2014    14      0       1.109362        179.8866
2014    14      1       1.244324        190.8524
2014    14      2       1.360831        198.856
2014    14      3       1.252599        191.5921
2014    14      4       1.365883        198.5252
2014    14      5       1.390898        199.9256
2014    14      6       1.326478        196.6898
2014    14      7       1.569972        212.1565
2014    15      0       1.670586        217.1006
2014    15      1       1.492163        206.6366
2014    15      2       1.233498        189.1938
2014    15      3       1.049736        173.8145
2014    15      4       0.9588492       166.0082
2014    15      5       1.175062        185.319
2014    15      6       1.366475        199.7395
2014    15      7       1.574314        212.858
2014    16      0       1.384162        201.7805
2014    16      1       1.398033        202.4944
2014    16      2       1.453936        204.928
2014    16      3       1.454933        204.5576
2014    16      4       1.130975        182.3126
2014    16      5       1.177784        186.4736
2014    16      6       1.295659        195.8148
2014    16      7       1.525012        210.4491
2014    17      0       1.480403        207.6696
2014    17      1       1.463393        206.7214
2014    17      2       1.375779        201.3673
2014    17      3       1.217272        189.4755
2014    17      4       1.138066        183.3647
2014    17      5       1.393709        201.7448
2014    17      6       1.501552        208.6298
2014    17      7       1.52451         210.4013
2014    18      0       1.571923        212.7766
2014    18      1       1.430037        204.4434
2014    18      2       1.348701        198.7928
2014    18      3       1.201665        188.0022
2014    18      4       1.174158        185.6978
2014    18      5       1.324177        196.4762
2014    18      6       1.463847        205.9556
2014    18      7       1.566232        212.1563
2014    19      0       1.484224        207.1223
2014    19      1       1.255359        191.2429
2014    19      2       1.247972        190.4807
2014    19      3       1.358538        198.8541
2014    19      4       1.317471        196.7928
2014    19      5       1.267594        192.8569
2014    19      6       1.389605        201.759
2014    19      7       1.455784        205.6092
2014    20      0       1.127024        182.1852
2014    20      1       1.135834        182.9709
2014    20      2       1.184755        186.8997
2014    20      3       0.9800339       168.3164
2014    20      4       0.8391396       153.8843
2014    20      5       0.9091967       161.6392
2014    20      6       1.024779        173.0415
2014    20      7       0.8858925       159.3188
2014    21      0       0.5355082       115.1545
2014    21      1       0.3041769       75.07564
2014    21      2       0.1985464       53.41439
2014    21      3       0.1562503       43.95966
2014    21      4       0.1373342       39.69731
2014    21      5       0.1661318       45.98774
2014    21      6       0.2421121       61.95706
2014    21      7       0.341698        81.34045
2014    22      0       0.2518606       63.91853
2014    22      1       0.2148526       55.63353
2014    22      2       0.2315176       59.09297
2014    22      3       0.2640101       65.91145
2014    22      4       0.3196373       76.86375
2014    22      5       0.5189178       111.1734
2014    22      6       0.8321102       153.0928
2014    22      7       0.9863636       169.2692
2014    23      0       0.9252691       162.3555
2014    23      1       0.7801385       146.4882
2014    23      2       0.8379231       152.1588
2014    23      3       1.012635        169.4976
2014    23      4       1.282185        192.7175
2014    23      5       1.350271        197.786
2014    23      6       1.31701         196.5728
2014    23      7       1.213034        188.5438
2014    24      0       0.9505051       164.5738
2014    24      1       0.8766559       156.3279
2014    24      2       0.8210487       150.147
2014    24      3       0.8004409       147.7607
2014    24      4       0.8007898       147.6272
2014    24      5       0.7129847       137.4357
2014    24      6       0.7183693       138.641
2014    24      7       0.7128422       137.9915
2014    25      0       0.6709836       132.4283
2014    25      1       0.6364626       127.2211
2014    25      2       0.6584472       129.8367
2014    25      3       0.701308        134.9872
2014    25      4       0.6845208       133.0634
2014    25      5       0.6632043       130.5019
2014    25      6       0.7116101       137.7027
2014    25      7       0.83874         153.0023
2014    26      0       0.8302215       152.0431
2014    26      1       0.8886028       159.0433
2014    26      2       1.220797        189.463
2014    26      3       1.457446        204.9107
2014    26      4       1.434062        204.4172
2014    26      5       1.362353        199.139
2014    26      6       1.362697        199.2353
2014    26      7       1.477493        206.61
2014    27      0       1.646164        215.5496
2014    27      1       1.627233        214.8774
2014    27      2       1.651321        216.7014
2014    27      3       1.205908        187.6705
2014    27      4       1.065346        175.3213
2014    27      5       1.339373        196.9899
2014    27      6       1.576405        212.0645
2014    27      7       1.663985        217.4076
2014    28      0       1.715438        220.0483
2014    28      1       1.749723        221.69
2014    28      2       1.671826        217.3639
2014    28      3       1.587723        213.4184
2014    28      4       1.546865        210.1257
2014    28      5       1.403553        201.6358
2014    28      6       1.52038         209.1102
2014    28      7       1.596675        213.5997
2014    29      0       1.578338        212.765
2014    29      1       1.37734         201.1279
2014    29      2       1.377691        201.3689
2014    29      3       1.37448         200.7073
2014    29      4       1.37365         199.9305
2014    29      5       1.368137        199.2645
2014    29      6       1.529043        209.4009
2014    29      7       1.537449        209.9772
2014    30      0       1.31952         195.9536
2014    30      1       1.010885        170.4783
2014    30      2       0.8673389       155.3359
2014    30      3       0.9498906       164.1497
2014    30      4       1.008511        169.7173
2014    30      5       1.011636        170.7714
2014    30      6       1.154609        184.1219
2014    30      7       1.226065        189.7275
2014    31      0       0.9529381       164.9387
2014    31      1       0.7626878       143.0945
2014    31      2       0.6798336       132.4774
2014    31      3       0.5550896       114.1385
2014    31      4       0.5067159       107.072
2014    31      5       0.4035211       91.04798
2014    31      6       0.4810901       104.544
2014    31      7       0.6840958       133.7177
2015    1       0       0.4360234       96.68746
2015    1       1       0.4585178       100.2029
2015    1       2       0.4716274       102.5117
2015    1       3       0.5428148       114.0652
2015    1       4       0.5785973       119.1798
2015    1       5       0.7952915       147.522
2015    1       6       0.8851174       157.7052
2015    1       7       1.116814        179.728
2015    2       0       0.9893312       168.0173
2015    2       1       0.7748605       145.2624
2015    2       2       0.7052774       136.4503
2015    2       3       0.5893325       120.8752
2015    2       4       0.5100688       109.3232
2015    2       5       0.7121754       137.7327
2015    2       6       0.967154        166.5893
2015    2       7       1.044679        173.5025
2015    3       0       1.022274        169.8692
2015    3       1       0.9024429       159.0826
2015    3       2       0.5520402       114.7636
2015    3       3       0.2896167       70.32696
2015    3       4       0.1748763       47.42702
2015    3       5       0.1749945       47.65917
2015    3       6       0.2477243       63.29378
2015    3       7       0.3657037       86.21778
2015    4       0       0.2375627       61.50074
2015    4       1       0.195066        52.08789
2015    4       2       0.2473711       62.71757
2015    4       3       0.3187877       76.99533
2015    4       4       0.3545828       83.72478
2015    4       5       0.4388122       98.28843
2015    4       6       0.5737262       119.3362
2015    4       7       0.8127608       149.4965
2015    5       0       0.5856539       119.979
2015    5       1       0.5113974       108.4003
2015    5       2       0.5234021       110.3325
2015    5       3       0.5751004       118.1483
2015    5       4       0.620536        124.4409
2015    5       5       0.6279448       125.6086
2015    5       6       0.7085643       136.9092
2015    5       7       0.7857578       146.3432
2015    6       0       0.6709534       132.6456
2015    6       1       0.5566733       116.5504
2015    6       2       0.5453884       114.7917
2015    6       3       0.5227084       111.4869
2015    6       4       0.4570979       101.2669
2015    6       5       0.4299805       97.03306
2015    6       6       0.5600836       117.4578
2015    6       7       0.8253323       151.5757
2015    7       0       0.9482356       164.233
2015    7       1       1.012942        170.8187
2015    7       2       0.8653245       155.9657
2015    7       3       0.7908574       145.9914
2015    7       4       0.7913591       146.0147
2015    7       5       0.868126        155.5324
2015    7       6       1.118403        179.4943
2015    7       7       1.280939        192.6071
2015    8       0       1.280884        192.4644
2015    8       1       1.242105        189.7859
2015    8       2       1.244187        189.6809
2015    8       3       1.146986        181.955
2015    8       4       1.181287        184.2679
2015    8       5       1.323082        194.6708
2015    8       6       1.409481        201.3936
2015    8       7       1.388929        199.9756
2015    9       0       0.8862603       157.2688
2015    9       1       0.5758979       118.8284
2015    9       2       0.5002596       107.8709
2015    9       3       0.589631        121.4399
2015    9       4       0.6797257       133.809
2015    9       5       0.8538822       154.4779
2015    9       6       1.035269        173.6769
2015    9       7       1.165862        185.3365
2015    10      0       0.8306365       153.1228
2015    10      1       0.693395        136.1003
2015    10      2       0.7741311       145.7233
2015    10      3       0.9898047       168.6698
2015    10      4       1.048367        174.8939
2015    10      5       1.117061        181.5638
2015    10      6       1.161685        185.6671
2015    10      7       1.009643        172.4182
2015    11      0       0.6339031       128.7339
2015    11      1       0.5958874       122.1652
2015    11      2       0.7194815       138.5592
2015    11      3       0.806709        149.2662
2015    11      4       0.7261387       139.9715
2015    11      5       0.7127118       138.648
2015    11      6       0.703049        137.636
2015    11      7       0.6880486       135.8198
2015    12      0       0.6479299       130.9011
2015    12      1       0.6207486       126.9687
2015    12      2       0.572015        120.0326
2015    12      3       0.5325874       114.2441
2015    12      4       0.5051111       110.063
2015    12      5       0.5079216       110.4785
2015    12      6       0.5552749       117.7608
2015    12      7       0.5380258       115.6007
2015    13      0       0.3233545       79.69721
2015    13      1       0.2554711       65.85951
2015    13      2       0.2791895       70.45704
2015    13      3       0.2785764       70.02032
2015    13      4       0.2640674       66.99085
2015    13      5       0.2933165       72.69613
2015    13      6       0.3816803       89.13855
2015    13      7       0.4350192       98.65021
2015    14      0       0.2264091       59.8445
2015    14      1       0.1399015       40.77829
2015    14      2       0.1407766       40.93788
2015    14      3       0.1378225       40.16973
2015    14      4       0.1266291       37.5538
2015    14      5       0.1700539       47.19769
2015    14      6       0.2531003       64.78771
2015    14      7       0.3876467       89.95649
2015    15      0       0.3213011       77.55693
2015    15      1       0.2019017       53.71276
2015    15      2       0.1949356       52.37742
2015    15      3       0.2534561       64.74321
2015    15      4       0.354648        84.25532
2015    15      5       0.7244851       140.2245
2015    15      6       1.053239        175.986
2015    15      7       1.218914        189.8736
2015    16      0       1.241012        191.3468
2015    16      1       1.170849        186.5299
2015    16      2       1.341618        198.2706
2015    16      3       1.211218        189.0574
2015    16      4       1.368763        200.1864
2015    16      5       1.569439        211.1183
2015    16      6       1.530999        209.8857
2015    16      7       1.614887        214.5969
2015    17      0       1.652607        216.6116
2015    17      1       1.633812        215.4769
2015    17      2       1.560204        211.2455
2015    17      3       1.431066        203.6026
2015    17      4       1.231494        189.5742
2015    17      5       1.246368        191.002
2015    17      6       1.326996        197.5578
2015    17      7       1.424897        203.9076
2015    18      0       1.235738        189.4425
2015    18      1       1.098372        178.0666
2015    18      2       1.052883        174.2896
2015    18      3       1.018656        170.6513
2015    18      4       1.024552        171.1173
2015    18      5       1.052676        173.3255
2015    18      6       1.137289        181.4218
2015    18      7       1.199747        187.0245
2015    19      0       1.088503        177.997
2015    19      1       1.016194        171.2705
2015    19      2       1.027823        172.2761
2015    19      3       0.9931149       169.1288
2015    19      4       1.15276         183.6612
2015    19      5       1.209417        188.1403
2015    19      6       1.387639        200.9837
2015    19      7       1.427603        203.0398
2015    20      0       1.186175        185.7566
2015    20      1       0.9607769       165.2819
2015    20      2       0.8883118       157.288
2015    20      3       0.9028607       158.5372
2015    20      4       1.068498        175.0235
2015    20      5       1.346864        197.3083
2015    20      6       1.468988        206.067
2015    20      7       1.532739        210.1209
2015    21      0       1.471361        206.2886
2015    21      1       1.320306        196.3005
2015    21      2       1.43306         203.4293
2015    21      3       1.378622        199.5316
2015    21      4       1.376462        199.2231
2015    21      5       1.423153        202.1935
2015    21      6       1.4852          206.9321
2015    21      7       1.572738        211.7306
2015    22      0       1.228168        188.1179
2015    22      1       0.8848623       155.9434
2015    22      2       0.8998784       157.8105
2015    22      3       0.9075485       158.916
2015    22      4       0.8414196       151.9315
2015    22      5       0.8032295       147.3108
2015    22      6       0.9281898       161.0695
2015    22      7       0.8796349       156.4416
2015    23      0       0.7938805       146.9353
2015    23      1       0.8862041       156.3201
2015    23      2       0.9552465       164.1158
2015    23      3       1.044488        172.0575
2015    23      4       0.9894302       167.3495
2015    23      5       1.06196         173.9402
2015    23      6       1.175898        183.7568
2015    23      7       1.267774        190.8753
2015    24      0       1.187014        184.8779
2015    24      1       1.153883        182.786
2015    24      2       1.085511        176.6222
2015    24      3       1.002829        168.8143
2015    24      4       0.9717204       165.8808
2015    24      5       1.177913        184.0531
2015    24      6       1.34363         196.6294
2015    24      7       1.367839        198.1241
2015    25      0       1.063716        175.2136
2015    25      1       1.122742        179.6879
2015    25      2       1.29445         193.6831
2015    25      3       1.230257        189.223
2015    25      4       0.9328554       163.8549
2015    25      5       0.946476        164.9242
2015    25      6       1.049545        175.0282
2015    25      7       1.188311        186.3957
2015    26      0       1.010424        171.0285
2015    26      1       0.9245662       162.222
2015    26      2       0.9692785       166.5136
2015    26      3       1.118033        179.5212
2015    26      4       1.156477        182.9492
2015    26      5       1.29774         193.8185
2015    26      6       1.462328        204.849
2015    26      7       1.53727         209.5951
2015    27      0       1.279615        193.248
2015    27      1       1.061736        175.9118
2015    27      2       0.8097467       150.4563
2015    27      3       0.7117506       138.342
2015    27      4       0.6743536       132.7297
2015    27      5       0.8220202       150.4671
2015    27      6       0.9775259       167.213
2015    27      7       0.855956        155.4323
2015    28      0       0.5827575       120.9354
2015    28      1       0.4325898       97.02354
2015    28      2       0.3456756       81.10632
2015    28      3       0.3199199       76.17603
2015    28      4       0.2764442       68.3066
2015    28      5       0.2878051       71.45914
2015    28      6       0.4264415       96.67434
2015    28      7       0.5286411       113.0896
2015    29      0       0.2565228       65.64259
2015    29      1       0.1831966       50.16888
2015    29      2       0.2180078       57.42015
2015    29      3       0.1520139       43.07937
2015    29      4       0.1496341       42.54749
2015    29      5       0.1936958       52.16401
2015    29      6       0.3065529       74.96035
2015    29      7       0.4235319       95.53774
2015    30      0       0.2943425       72.53413
2015    30      1       0.3283288       79.15182
2015    30      2       0.531079        114.0334
2015    30      3       0.6288656       127.7428
2015    30      4       0.6153225       126.1707
2015    30      5       0.7955165       149.3592
2015    30      6       1.019714        172.2613
2015    30      7       1.268952        192.4826
2015    31      0       0.533901        113.4569
2015    31      1       0.3207539       77.17195
2015    31      2       0.2350233       60.20074
2015    31      3       0.1679687       46.1581
2015    31      4       0.1367828       39.19856
2015    31      5       0.1630152       45.20531
2015    31      6       0.2368875       60.80979
2015    31      7       0.3428615       81.27446
2016    1       0       1.370663        198.5579
2016    1       1       1.172558        183.6578
2016    1       2       1.055964        173.4736
2016    1       3       1.068705        175.0437
2016    1       4       1.02885         171.9071
2016    1       5       1.132646        181.3446
2016    1       6       1.29285         194.5085
2016    1       7       1.319696        196.8855
2016    2       0       1.008886        171.4125
2016    2       1       0.8063417       150.5974
2016    2       2       0.6648619       132.6807
2016    2       3       0.4916062       107.2151
2016    2       4       0.3273554       78.86926
2016    2       5       0.434603        97.9049
2016    2       6       0.5934628       122.7696
2016    2       7       0.8643712       156.4058
2016    3       0       0.7032745       136.9725
2016    3       1       0.5470306       115.0447
2016    3       2       0.6138679       124.2905
2016    3       3       0.9052058       159.3797
2016    3       4       1.163884        183.4842
2016    3       5       1.202407        186.8381
2016    3       6       1.360113        198.9086
2016    3       7       1.508057        208.1757
2016    4       0       1.450786        204.6166
2016    4       1       1.248965        191.1834
2016    4       2       1.202706        187.3145
2016    4       3       1.081511        177.3146
2016    4       4       1.17874         184.8239
2016    4       5       1.373167        199.3931
2016    4       6       1.39938         202.4305
2016    4       7       1.620873        215.0485
2016    5       0       1.645797        216.0868
2016    5       1       1.592873        212.9801
2016    5       2       1.482631        206.6715
2016    5       3       1.137956        182.3676
2016    5       4       0.997047        169.8961
2016    5       5       1.13498         182.7499
2016    5       6       1.38616         201.658
2016    5       7       1.624992        215.8045
2016    6       0       1.54382         210.5592
2016    6       1       1.295712        194.5141
2016    6       2       0.9962866       169.569
2016    6       3       0.7453601       142.3949
2016    6       4       0.9376122       164.2234
2016    6       5       1.234321        190.8011
2016    6       6       1.425788        204.622
2016    6       7       1.681319        218.5523
2016    7       0       1.611103        214.4519
2016    7       1       1.351097        198.9117
2016    7       2       1.079213        177.9246
2016    7       3       0.9833916       169.1557
2016    7       4       0.9046395       161.5227
2016    7       5       1.158943        184.3958
2016    7       6       1.337275        198.2929
2016    7       7       1.4672          207.0248
2016    8       0       1.574134        212.5615
2016    8       1       1.441525        205.2491
2016    8       2       1.516525        209.7127
2016    8       3       1.543805        211.0038
2016    8       4       1.56243         211.3228
2016    8       5       1.44479         204.5248
2016    8       6       1.49318         207.8707
2016    8       7       1.65472         216.8416
2016    9       0       1.304991        195.6838
2016    9       1       0.8630061       156.3295
2016    9       2       0.6216335       125.9332
2016    9       3       0.5103578       108.8484
2016    9       4       0.4362205       97.05599
2016    9       5       0.4353976       97.34537
2016    9       6       0.5560468       117.0646
2016    9       7       0.637917        128.5288
2016    10      0       0.3276477       78.53251
2016    10      1       0.2364211       59.55121
2016    10      2       0.2587307       63.59056
2016    10      3       0.2121495       54.4154
2016    10      4       0.1953189       50.96142
2016    10      5       0.2643038       64.91805
2016    10      6       0.4022458       90.51544
2016    10      7       0.5964514       121.336
2016    11      0       0.456281        100.3933
2016    11      1       0.3244929       76.97767
2016    11      2       0.317506        75.82487
2016    11      3       0.307902        74.34111
2016    11      4       0.314955        75.34588
2016    11      5       0.4833903       104.4801
2016    11      6       0.5963427       121.9617
2016    11      7       0.8205238       150.3709
2016    12      0       0.8730705       155.4873
2016    12      1       0.7313876       139.0914
2016    12      2       0.7268675       137.7429
2016    12      3       0.744209        139.7806
2016    12      4       0.7269598       137.9779
2016    12      5       0.7317237       139.4464
2016    12      6       0.9166147       161.336
2016    12      7       0.9960672       168.9382
2016    13      0       0.6617409       131.0655
2016    13      1       0.4207207       94.17399
2016    13      2       0.2818652       69.24165
2016    13      3       0.1994701       53.02827
2016    13      4       0.1802308       48.52026
2016    13      5       0.2232193       57.43664
2016    13      6       0.3104938       75.57778
2016    13      7       0.6209075       125.6667
2016    14      0       0.7183636       138.3148
2016    14      1       0.864256        155.2598
2016    14      2       1.324263        196.2913
2016    14      3       1.394458        200.7252
2016    14      4       1.180886        185.0998
2016    14      5       1.320929        195.4997
2016    14      6       1.393799        201.5166
2016    14      7       1.49849         208.636
2016    15      0       1.529655        210.5129
2016    15      1       1.632823        216.1494
2016    15      2       1.537484        210.1519
2016    15      3       1.505424        208.2916
2016    15      4       1.454154        205.2526
2016    15      5       1.48446         206.3519
2016    15      6       1.529856        209.4439
2016    15      7       1.583509        212.8177
2016    16      0       1.440642        204.8688
2016    16      1       1.252378        192.7068
2016    16      2       1.192993        188.4603
2016    16      3       0.9449949       165.8767
2016    16      4       0.7943566       149.5974
2016    16      5       0.8072544       151.1697
2016    16      6       0.9898514       170.8129
2016    16      7       1.218794        191.3757
2016    17      0       1.491807        209.8023
2016    17      1       1.621405        217.2696
2016    17      2       1.644163        218.5705
2016    17      3       1.321005        199.1046
2016    17      4       1.21209         190.5852
2016    17      5       1.292134        196.5084
2016    17      6       1.466451        208.395
2016    17      7       1.796089        225.5457
2016    18      0       1.854099        227.2284
2016    18      1       1.510718        210.3781
2016    18      2       1.295909        196.8667
2016    18      3       1.049732        176.3904
2016    18      4       0.8014775       150.2768
2016    18      5       0.8580199       157.1578
2016    18      6       1.187579        188.8485
2016    18      7       1.728179        222.1776
2016    19      0       1.746959        222.1732
2016    19      1       1.593122        213.8822
2016    19      2       1.221218        189.5781
2016    19      3       0.9299423       163.8319
2016    19      4       0.8046956       149.7931
2016    19      5       0.7192323       139.8728
2016    19      6       0.8378599       154.3902
2016    19      7       0.9355207       164.6331
2016    20      0       0.5516291       117.3953
2016    20      1       0.3588153       84.82526
2016    20      2       0.4194201       95.26435
2016    20      3       0.3604924       85.17653
2016    20      4       0.2337174       60.42714
2016    20      5       0.2016445       53.85346
2016    20      6       0.2759543       69.52648
2016    20      7       0.4586722       102.5853
2016    21      0       0.5804186       121.3378
2016    21      1       0.5467626       116.0292
2016    21      2       0.689691        135.7537
2016    21      3       0.8227103       151.9922
2016    21      4       0.9292547       163.4574
2016    21      5       0.8800347       159.0264
2016    21      6       1.13608         183.1747
2016    21      7       1.445691        205.4855
2016    22      0       1.391269        202.211
2016    22      1       1.349796        200.1613
2016    22      2       1.609323        215.0297
2016    22      3       1.528898        210.0142
2016    22      4       1.110866        181.5618
2016    22      5       1.165622        185.6848
2016    22      6       1.47123         207.1952
2016    22      7       1.747601        221.6216
2016    23      0       1.653077        216.6102
2016    23      1       1.416889        203.7363
2016    23      2       1.206244        189.0537
2016    23      3       1.426901        203.4032
2016    23      4       1.284516        194.7334
2016    23      5       1.060241        176.8546
2016    23      6       1.142093        183.8271
2016    23      7       1.312257        197.1911
2016    24      0       1.293314        195.6088
2016    24      1       1.086513        179.7362
2016    24      2       1.103227        181.264
2016    24      3       1.202576        188.8759
2016    24      4       1.413406        202.9987
2016    24      5       1.378736        200.4626
2016    24      6       1.288974        194.8355
2016    24      7       1.330386        198.4319
2016    25      0       1.426312        204.2047
2016    25      1       1.324825        198.0055
2016    25      2       1.246309        192.3269
2016    25      3       1.173433        186.3862
2016    25      4       1.263399        192.7503
2016    25      5       1.243116        191.3803
2016    25      6       1.43043         204.4346
2016    25      7       1.710033        219.7803
2016    26      0       1.656507        216.6024
2016    26      1       1.336939        198.3362
2016    26      2       1.317308        196.3161
2016    26      3       1.14816         183.3089
2016    26      4       0.9703466       167.2036
2016    26      5       1.099108        178.6619
2016    26      6       1.405537        202.2083
2016    26      7       1.455364        205.2616
2016    27      0       1.014436        171.892
2016    27      1       0.7909522       148.3407
2016    27      2       0.7397418       141.9549
2016    27      3       0.8944728       159.5323
2016    27      4       0.8673324       156.8408
2016    27      5       0.9004387       160.3109
2016    27      6       1.172686        185.8698
2016    27      7       1.513754        209.0476
2016    28      0       1.522156        209.2782
2016    28      1       1.538917        210.206
2016    28      2       1.694236        218.9968
2016    28      3       1.295796        194.8528
2016    28      4       1.282403        193.4005
2016    28      5       1.539236        209.4385
2016    28      6       1.525448        208.7823
2016    28      7       1.735236        219.5128
2016    29      0       1.653378        216.0834
2016    29      1       1.457174        206.1314
2016    29      2       1.349723        199.0756
2016    29      3       1.339745        198.2262
2016    29      4       1.322436        197.5495
2016    29      5       1.44001         204.7118
2016    29      6       1.671874        218.1893
2016    29      7       1.869069        226.8017
2016    30      0       1.767021        222.4126
2016    30      1       1.73588         221.3139
2016    30      2       1.704669        220.113
2016    30      3       1.60915         215.4282
2016    30      4       1.408559        203.5641
2016    30      5       1.389728        201.8823
2016    30      6       1.555445        212.5997
2016    30      7       1.846876        226.9272
2016    31      0       1.838306        226.5994
2016    31      1       1.630491        216.2941
2016    31      2       1.471953        207.0833
2016    31      3       1.68166         217.9007
2016    31      4       1.610155        214.2087
2016    31      5       1.66977         217.2053
2016    31      6       1.810954        223.2231
2016    31      7       1.838628        224.5614
2017    1       0       0.437292        97.82146
2017    1       1       0.3320386       78.9588
2017    1       2       0.3453844       81.21933
2017    1       3       0.4196931       94.00689
2017    1       4       0.4486416       99.23255
2017    1       5       0.3954258       90.12972
2017    1       6       0.4776107       103.8516
2017    1       7       0.5923379       121.1677
2017    2       0       0.4664715       102.2069
2017    2       1       0.3637537       84.43105
2017    2       2       0.3294296       78.32543
2017    2       3       0.2857478       70.26281
2017    2       4       0.2963929       72.0101
2017    2       5       0.326264        77.45516
2017    2       6       0.4141047       93.49251
2017    2       7       0.6169103       124.1043
2017    3       0       0.6846141       132.7408
2017    3       1       0.6503758       128.0273
2017    3       2       0.6630637       129.7414
2017    3       3       0.6666685       130.0781
2017    3       4       0.6785857       131.7229
2017    3       5       0.8873779       156.9264
2017    3       6       1.16106         183.1835
2017    3       7       1.32843         195.7626
2017    4       0       1.314951        194.335
2017    4       1       1.097213        177.3345
2017    4       2       0.9871311       167.1661
2017    4       3       1.012869        168.8577
2017    4       4       0.9748374       165.461
2017    4       5       0.9277726       161.4208
2017    4       6       1.134052        181.0544
2017    4       7       1.292437        193.0492
2017    5       0       1.196733        184.8949
2017    5       1       1.008491        169.8453
2017    5       2       0.9801468       166.6206
2017    5       3       0.9621945       164.6529
2017    5       4       0.9296072       161.2065
2017    5       5       0.8797418       155.9075
2017    5       6       1.164681        182.6045
2017    5       7       1.255867        189.1327
2017    6       0       1.136642        179.8149
2017    6       1       1.008681        168.5929
2017    6       2       0.876232        154.966
2017    6       3       0.760195        141.4288
2017    6       4       0.7726641       143.0369
2017    6       5       0.8226714       149.0302
2017    6       6       0.9608071       164.3963
2017    6       7       1.211811        186.9119
2017    7       0       1.150677        182.1987
2017    7       1       1.12353         179.8314
2017    7       2       1.247148        189.6387
2017    7       3       1.278595        192.2594
2017    7       4       1.221113        188.478
2017    7       5       1.294127        193.4872
2017    7       6       1.474319        206.0251
2017    7       7       1.553473        210.4398
2017    8       0       1.387721        199.5203
2017    8       1       1.276328        191.9361
2017    8       2       1.152061        182.1813
2017    8       3       0.8996863       158.9483
2017    8       4       0.8930759       158.4387
2017    8       5       1.05089         173.7659
2017    8       6       1.056699        174.4487
2017    8       7       1.043153        173.3678
2017    9       0       0.9693085       166.1834
2017    9       1       0.88457         157.5311
2017    9       2       0.9198765       161.1711
2017    9       3       1.004529        169.3223
2017    9       4       1.030754        172.222
2017    9       5       0.8976574       159.2855
2017    9       6       0.9218718       161.8956
2017    9       7       0.6971464       135.7202
2017    10      0       0.614721        124.2384
2017    10      1       0.5527625       115.3485
2017    10      2       0.5309587       112.0816
2017    10      3       0.3394482       79.97812
2017    10      4       0.2727122       67.34797
2017    10      5       0.2824475       69.45423
2017    10      6       0.3180795       76.82357
2017    10      7       0.3367154       80.88531
2017    11      0       0.2509322       64.43247
2017    11      1       0.2929605       72.13794
2017    11      2       0.3716021       86.46948
2017    11      3       0.3388798       81.22452
2017    11      4       0.2591731       65.97627
2017    11      5       0.2960349       73.24626
2017    11      6       0.4267995       96.89083
2017    11      7       0.466785        103.3076
2017    12      0       0.3202367       77.88335
2017    12      1       0.3389347       81.41556
2017    12      2       0.4302894       97.83472
2017    12      3       0.404691        93.70325
2017    12      4       0.4577721       102.9264
2017    12      5       0.5924017       123.2965
2017    12      6       0.9830353       169.156
2017    12      7       1.26163         192.9819
2017    13      0       1.419064        203.4925
2017    13      1       1.193248        188.4247
2017    13      2       1.328889        198.0225
2017    13      3       1.207528        188.5964
2017    13      4       0.7947767       149.6
2017    13      5       0.7655403       145.797
2017    13      6       0.9031753       161.0474
2017    13      7       1.20328         188.3119
2017    14      0       1.553667        211.2896
2017    14      1       1.360819        200.3261
2017    14      2       1.143386        184.4159
2017    14      3       1.004447        172.2174
2017    14      4       0.7276748       141.4191
2017    14      5       0.7212458       140.8148
2017    14      6       0.7766448       147.8647
2017    14      7       1.125158        182.2433
2017    15      0       1.324833        197.7524
2017    15      1       1.354398        200.2109
2017    15      2       1.339921        199.4549
2017    15      3       1.469871        207.3102
2017    15      4       1.507419        208.6896
2017    15      5       1.141828        183.698
2017    15      6       1.128341        182.7087
2017    15      7       1.242544        191.8247
2017    16      0       1.446805        205.562
2017    16      1       1.243758        192.1002
2017    16      2       1.219827        190.0549
2017    16      3       0.7714276       146.9001
2017    16      4       0.6291169       128.281
2017    16      5       0.8756325       158.0487
2017    16      6       0.9951966       170.2066
2017    16      7       1.028374        173.5473
2017    17      0       1.021295        172.6729
2017    17      1       0.8271007       152.8663
2017    17      2       0.7942612       148.5505
2017    17      3       0.5932984       121.8871
2017    17      4       0.5204852       110.3924
2017    17      5       0.7140904       137.5997
2017    17      6       0.7765657       146.0935
2017    17      7       0.9655754       166.5859
2017    18      0       0.9460181       165.2339
2017    18      1       0.4735828       104.0818
2017    18      2       0.388098        89.30879
2017    18      3       0.5168618       110.1982
2017    18      4       0.6311418       126.6609
2017    18      5       1.042062        172.7743
2017    18      6       1.268308        192.0897
2017    18      7       1.401341        201.3922
2017    19      0       1.390408        200.9368
2017    19      1       1.32436         196.6283
2017    19      2       1.387334        200.2024
2017    19      3       1.189889        186.2997
2017    19      4       1.255675        191.3691
2017    19      5       1.477021        205.7017
2017    19      6       1.528682        209.2453
2017    19      7       1.533649        209.533
2017    20      0       1.456102        205.4901
2017    20      1       1.284069        194.5163
2017    20      2       1.358214        199.8109
2017    20      3       1.371338        200.6197
2017    20      4       1.4426          205.2012
2017    20      5       1.375284        200.6702
2017    20      6       1.492468        208.646
2017    20      7       1.762477        222.7606
2017    21      0       1.809282        224.5862
2017    21      1       1.660261        217.4993
2017    21      2       1.496056        207.8921
2017    21      3       1.458136        204.3923
2017    21      4       1.372609        199.4831
2017    21      5       1.430666        203.0971
2017    21      6       1.709366        218.4299
2017    21      7       1.527494        209.6095
2017    22      0       1.095976        179.3637
2017    22      1       0.9417679       164.8242
2017    22      2       0.9644046       166.6814
2017    22      3       1.02766         172.4387
2017    22      4       0.9994284       169.963
2017    22      5       1.008566        170.6342
2017    22      6       1.042265        174.278
2017    22      7       0.908463        160.9092
2017    23      0       0.9246871       162.7136
2017    23      1       1.008912        171.5936
2017    23      2       1.202423        187.6995
2017    23      3       1.053526        174.9906
2017    23      4       1.040926        173.4228
2017    23      5       0.98123         167.5206
2017    23      6       0.9425562       164.4952
2017    23      7       0.931627        163.5876
2017    24      0       0.8077084       149.7408
2017    24      1       0.6731039       132.4686
2017    24      2       0.597313        121.979
2017    24      3       0.5866314       120.6344
2017    24      4       0.5248238       111.5008
2017    24      5       0.5344942       113.1376
2017    24      6       0.6259671       126.8099
2017    24      7       0.7199738       139.2563
2017    25      0       0.537845        114.1646
2017    25      1       0.3557894       83.31837
2017    25      2       0.3060755       73.54771
2017    25      3       0.3486005       81.36093
2017    25      4       0.368015        85.21822
2017    25      5       0.4600155       100.8356
2017    25      6       0.6153748       124.9058
2017    25      7       0.8545497       155.5715
2017    26      0       1.053009        175.3217
2017    26      1       1.139432        182.7688
2017    26      2       1.171264        185.6312
2017    26      3       1.170625        184.9466
2017    26      4       1.171484        185.1603
2017    26      5       1.505133        207.0505
2017    26      6       1.532607        209.1814
2017    26      7       1.598237        213.0835
2017    27      0       1.435267        203.8361
2017    27      1       1.440265        204.3428
2017    27      2       1.326308        197.1818
2017    27      3       1.461093        206.2554
2017    27      4       1.424488        204.3264
2017    27      5       1.488165        208.1378
2017    27      6       1.721772        220.7869
2017    27      7       1.782466        222.7102
2017    28      0       1.690683        218.8978
2017    28      1       1.760041        222.6933
2017    28      2       1.871577        227.724
2017    28      3       1.645682        216.5513
2017    28      4       1.505845        208.4614
2017    28      5       1.503998        208.5099
2017    28      6       1.562701        212.6402
2017    28      7       1.822918        224.6119
2017    29      0       1.876383        227.1391
2017    29      1       1.666971        217.1952
2017    29      2       1.634373        215.7972
2017    29      3       1.516276        209.3457
2017    29      4       1.593531        213.5505
2017    29      5       1.559789        212.0654
2017    29      6       1.739221        221.5781
2017    29      7       1.78053         222.6907
2017    30      0       1.607981        214.7226
2017    30      1       1.432098        204.5099
2017    30      2       1.241943        191.2945
2017    30      3       1.171973        185.6817
2017    30      4       1.093523        179.2651
2017    30      5       1.273398        193.8486
2017    30      6       1.458863        206.8737
2017    30      7       1.83721         226.5176
2017    31      0       1.823508        225.0915
2017    31      1       1.676293        218.6583
2017    31      2       1.619624        216.2494
2017    31      3       1.695145        220.0905
2017    31      4       1.582214        213.272
2017    31      5       1.526951        209.767
2017    31      6       1.568675        212.8113
2017    31      7       1.773653        223.0747
2018    1       0       0.1669075       46.26652
2018    1       1       0.1253164       36.35486
2018    1       2       0.127781        36.89
2018    1       3       0.1333618       38.18053
2018    1       4       0.1474368       41.40469
2018    1       5       0.1597861       44.1643
2018    1       6       0.2110922       55.123
2018    1       7       0.2858978       70.33395
2018    2       0       0.2697096       67.52581
2018    2       1       0.3162238       75.77358
2018    2       2       0.5134053       109.2852
2018    2       3       0.609438        124.1814
2018    2       4       0.531545        113.5103
2018    2       5       0.7814059       147.0187
2018    2       6       0.9040601       160.9594
2018    2       7       0.733987        141.3906
2018    3       0       0.509418        110.2063
2018    3       1       0.4290874       96.78002
2018    3       2       0.3927635       90.57488
2018    3       3       0.352059        83.42994
2018    3       4       0.3027748       74.56781
2018    3       5       0.2461614       63.21216
2018    3       6       0.2339908       60.79754
2018    3       7       0.2444698       63.16311
2018    4       0       0.1025107       31.57688
2018    4       1       0.07516382      24.92952
2018    4       2       0.07018163      23.71847
2018    4       3       0.0812367       26.40437
2018    4       4       0.08547833      27.37674
2018    4       5       0.09725733      30.20032
2018    4       6       0.1335369       38.7044
2018    4       7       0.1804061       49.31663
2018    5       0       0.1097907       33.41003
2018    5       1       0.07734363      25.29895
2018    5       2       0.1116003       33.43764
2018    5       3       0.1749521       47.84509
2018    5       4       0.2318899       59.94085
2018    5       5       0.2733277       68.51018
2018    5       6       0.3784519       88.14463
2018    5       7       0.4760661       103.9773
2018    6       0       0.4281428       96.34159
2018    6       1       0.4430605       99.16879
2018    6       2       0.5004761       108.4756
2018    6       3       0.5097669       110.2593
2018    6       4       0.5924255       122.9026
2018    6       5       0.7544329       144.1809
2018    6       6       0.947227        164.6775
2018    6       7       0.9238231       162.36
2018    7       0       0.6585413       131.996
2018    7       1       0.6272695       127.8179
2018    7       2       0.9506653       165.7602
2018    7       3       1.041398        174.4205
2018    7       4       1.03102         173.5983
2018    7       5       1.040641        173.7694
2018    7       6       1.134605        182.1284
2018    7       7       1.465249        205.7937
2018    8       0       1.516722        208.4594
2018    8       1       1.18585         186.1539
2018    8       2       1.244306        190.3998
2018    8       3       0.844406        153.7936
2018    8       4       0.5640988       117.4294
2018    8       5       0.705623        137.0992
2018    8       6       0.8290107       152.1113
2018    8       7       0.7777367       145.7884
2018    9       0       0.6122356       124.7358
2018    9       1       0.5428432       114.5382
2018    9       2       0.4924854       106.6446
2018    9       3       0.4601655       101.4301
2018    9       4       0.3932748       90.20514
2018    9       5       0.475412        103.9854
2018    9       6       0.602125        122.8823
2018    9       7       0.718611        138.2486
2018    10      0       0.6574478       130.9667
2018    10      1       0.5779353       119.8044
2018    10      2       0.4831222       105.0972
2018    10      3       0.3824393       88.17732
2018    10      4       0.2993533       72.47881
2018    10      5       0.4238696       94.71705
2018    10      6       0.6346322       126.834
2018    10      7       0.8437467       152.7617
2018    11      0       0.7718317       144.895
2018    11      1       0.5741398       118.5193
2018    11      2       0.3878158       87.53439
2018    11      3       0.4895225       104.9776
2018    11      4       0.5830677       119.3541
2018    11      5       0.6537655       129.5259
2018    11      6       0.8138685       149.9464
2018    11      7       0.9621508       166.482
2018    12      0       0.9651295       167.0604
2018    12      1       0.9999268       170.5223
2018    12      2       1.077899        177.5267
2018    12      3       1.079622        177.3214
2018    12      4       0.9994935       169.8122
2018    12      5       0.9629697       166.475
2018    12      6       1.250636        191.6109
2018    12      7       1.566848        212.0545
2018    13      0       1.482907        206.2685
2018    13      1       1.202482        186.5997
2018    13      2       1.075586        175.7914
2018    13      3       1.020358        170.43
2018    13      4       0.9488137       163.4678
2018    13      5       1.123115        179.9283
2018    13      6       1.275047        192.9733
2018    13      7       1.379594        200.7166
2018    14      0       1.354959        199.0515
2018    14      1       1.18113         186.1979
2018    14      2       1.01823         171.5369
2018    14      3       0.9427494       163.7941
2018    14      4       0.8774444       157.6278
2018    14      5       0.9248222       163.1605
2018    14      6       1.137682        183.4405
2018    14      7       1.532736        210.3414
2018    15      0       1.490205        206.9835
2018    15      1       1.395923        201.3432
2018    15      2       1.134151        182.7879
2018    15      3       1.118966        180.4275
2018    15      4       1.083214        177.7887
2018    15      5       1.120145        180.601
2018    15      6       1.440489        204.2893
2018    15      7       1.552046        211.1208
2018    16      0       1.543044        210.6053
2018    16      1       1.485457        207.4315
2018    16      2       1.504491        208.3516
2018    16      3       1.597428        213.6646
2018    16      4       1.699995        219.1121
2018    16      5       1.598243        213.7032
2018    16      6       1.635339        216.5852
2018    16      7       1.850439        226.8521
2018    17      0       1.743591        220.5653
2018    17      1       1.598088        212.8558
2018    17      2       1.471378        205.1527
2018    17      3       1.2674          192.0509
2018    17      4       1.123106        180.8605
2018    17      5       1.135811        182.256
2018    17      6       1.243282        191.639
2018    17      7       1.346723        199.0539
2018    18      0       1.131129        182.414
2018    18      1       1.079248        177.2286
2018    18      2       1.113459        179.6848
2018    18      3       1.151101        182.7913
2018    18      4       1.196276        186.4093
2018    18      5       1.318003        195.5586
2018    18      6       1.540797        209.7281
2018    18      7       1.553132        211.0548
2018    19      0       1.357854        199.3785
2018    19      1       1.170434        185.3477
2018    19      2       1.11488         180.1092
2018    19      3       1.093882        178.4932
2018    19      4       0.9972022       170.2233
2018    19      5       1.004423        171.6825
2018    19      6       1.110767        181.9287
2018    19      7       0.9970867       171.5652
2018    20      0       0.6844402       136.0473
2018    20      1       0.5171943       111.5824
2018    20      2       0.4581143       101.504
2018    20      3       0.3368157       80.08863
2018    20      4       0.2907909       71.48738
2018    20      5       0.3650829       85.34133
2018    20      6       0.5081218       110.1009
2018    20      7       0.8085152       151.5671
2018    21      0       0.8157446       152.1233
2018    21      1       0.5771483       120.1666
2018    21      2       0.4783262       104.9406
2018    21      3       0.3320292       79.87743
2018    21      4       0.2649651       66.90603
2018    21      5       0.3126455       75.78594
2018    21      6       0.5447996       115.1931
2018    21      7       0.9575417       165.4034
2018    22      0       0.7290778       139.3456
2018    22      1       0.5780969       118.1376
2018    22      2       0.5735031       116.7213
2018    22      3       0.6263742       124.0204
2018    22      4       0.6109429       122.7693
2018    22      5       0.5953582       121.3824
2018    22      6       0.6435057       129.3381
2018    22      7       0.8443945       154.1463
2018    23      0       0.7811455       147.165
2018    23      1       0.4932553       107.433
2018    23      2       0.3969551       90.97552
2018    23      3       0.3606061       84.08937
2018    23      4       0.394648        90.44637
2018    23      5       0.4575066       101.9539
2018    23      6       0.5877525       122.4981
2018    23      7       0.8408517       154.6636
2018    24      0       0.6998668       137.6144
2018    24      1       0.4387424       98.85885
2018    24      2       0.4504797       100.2953
2018    24      3       0.4820164       105.4018
2018    24      4       0.5506408       116.1223
2018    24      5       0.7912627       148.2572
2018    24      6       1.102028        179.9387
2018    24      7       1.261117        192.8791
2018    25      0       1.037701        174.7182
2018    25      1       0.7612592       144.9878
2018    25      2       0.7274652       139.9385
2018    25      3       0.6676239       131.6138
2018    25      4       0.7101875       137.3371
2018    25      5       0.8349341       152.9238
2018    25      6       1.23044         189.8196
2018    25      7       1.50014         208.1857
2018    26      0       1.50509         208.5849
2018    26      1       1.398766        202.4168
2018    26      2       1.521235        209.1936
2018    26      3       1.411212        202.2779
2018    26      4       1.469821        205.8955
2018    26      5       1.330433        197.5977
2018    26      6       1.58422         213.1619
2018    26      7       1.762831        222.2658
2018    27      0       1.666134        217.0509
2018    27      1       1.371321        200.2068
2018    27      2       1.14892         183.9698
2018    27      3       1.408576        202.6707
2018    27      4       1.550791        211.0164
2018    27      5       1.47613         206.7256
2018    27      6       1.622432        215.6455
2018    27      7       1.699866        219.4677
2018    28      0       1.703223        219.5597
2018    28      1       1.475689        207.4865
2018    28      2       1.360037        199.3391
2018    28      3       1.173121        184.9903
2018    28      4       1.169372        184.5781
2018    28      5       1.088965        177.4474
2018    28      6       1.231994        190.2464
2018    28      7       1.510332        208.8252
2018    29      0       1.418677        203.1252
2018    29      1       1.335835        197.2962
2018    29      2       1.281893        192.6717
2018    29      3       1.234699        188.0737
2018    29      4       1.380483        199.2689
2018    29      5       1.402506        200.5261
2018    29      6       1.397217        201.2232
2018    29      7       1.565954        211.6131
2018    30      0       1.58981         212.3922
2018    30      1       1.575339        212.2981
2018    30      2       1.542671        210.915
2018    30      3       1.388466        201.439
2018    30      4       1.483402        206.5522
2018    30      5       1.614941        214.1767
2018    30      6       1.696404        219.1831
2018    30      7       1.766979        222.7653
2018    31      0       1.476727        208.0098
2018    31      1       1.537033        211.1638
2018    31      2       1.60262         214.1582
2018    31      3       1.476391        206.2178
2018    31      4       1.280581        192.4902
2018    31      5       1.106854        179.6224
2018    31      6       1.273886        193.4599
2018    31      7       1.446907        205.3399
