####################################################################################################
# Month: 08Aug                                                                                     #
# Station: PIKE                                                                                    #
# Frequency: 230 GHz                                                                               #
# Columns are: year    day     segment         tau     Tb (K)                                      #
####################################################################################################
2009    1       0       0.3248115       76.31036
2009    1       1       0.2194668       55.76431
2009    1       2       0.1759046       46.68142
2009    1       3       0.1062314       31.04819
2009    1       4       0.1093363       31.63003
2009    1       5       0.06717904      21.66513
2009    1       6       0.08090477      25.1125
2009    1       7       0.1520513       41.78441
2009    2       0       0.1976306       51.67134
2009    2       1       0.1742232       46.6349
2009    2       2       0.1266283       35.90544
2009    2       3       0.08324388      25.57645
2009    2       4       0.09451129      28.29214
2009    2       5       0.1012925       29.94286
2009    2       6       0.1512268       41.53675
2009    2       7       0.302564        72.48428
2009    3       0       0.3285284       77.24152
2009    3       1       0.2664415       65.52286
2009    3       2       0.1784386       47.54288
2009    3       3       0.1446584       40.07182
2009    3       4       0.1636555       44.14506
2009    3       5       0.1890501       49.67865
2009    3       6       0.2651269       65.24231
2009    3       7       0.352169        81.5731
2009    4       0       0.3487018       80.91153
2009    4       1       0.3031298       72.62022
2009    4       2       0.2386089       60.0235
2009    4       3       0.1495919       40.98816
2009    4       4       0.1404395       38.77765
2009    4       5       0.2112193       54.13328
2009    4       6       0.272504        66.60395
2009    4       7       0.4347199       95.78751
2009    5       0       0.3190627       75.47402
2009    5       1       0.2398975       60.38271
2009    5       2       0.1611034       43.64191
2009    5       3       0.1871661       49.36715
2009    5       4       0.2098645       54.15371
2009    5       5       0.2728653       66.5886
2009    5       6       0.2346656       59.17331
2009    5       7       0.2875352       69.65884
2009    6       0       0.3867268       87.92625
2009    6       1       0.4596268       99.77176
2009    6       2       0.4747143       102.6123
2009    6       3       0.2350437       59.12321
2009    6       4       0.234657        58.9198
2009    6       5       0.3357958       78.01829
2009    6       6       0.265713        64.03773
2009    6       7       0.323204        74.72297
2009    7       0       0.3829059       86.65078
2009    7       1       0.4192058       93.20192
2009    7       2       0.281859        68.56781
2009    7       3       0.1921155       50.54235
2009    7       4       0.1282134       36.25001
2009    7       5       0.0918161       27.43774
2009    7       6       0.06436228      20.82278
2009    7       7       0.07547075      23.74106
2009    8       0       0.1164252       33.42853
2009    8       1       0.1085961       31.58688
2009    8       2       0.06544286      21.22962
2009    8       3       0.04688509      16.58855
2009    8       4       0.03072205      12.31691
2009    8       5       0.02775173      11.46845
2009    8       6       0.03249192      12.68017
2009    8       7       0.06079078      19.84252
2009    9       0       0.08650305      26.03429
2009    9       1       0.0820619       25.02781
2009    9       2       0.0533897       18.14563
2009    9       3       0.02896438      11.8281
2009    9       4       0.0325045       12.75026
2009    9       5       0.02496717      10.7536
2009    9       6       0.0252823       10.87069
2009    9       7       0.05383662      18.25192
2009    10      0       0.09095433      27.14298
2009    10      1       0.1166875       32.92535
2009    10      2       0.1056699       30.48071
2009    10      3       0.08197691      25.08564
2009    10      4       0.05555687      18.55915
2009    10      5       0.06514903      20.77369
2009    10      6       0.0742365       23.04738
2009    10      7       0.1430247       38.94248
2009    11      0       0.1637036       43.3983
2009    11      1       0.1242137       34.86446
2009    11      2       0.1344071       37.01959
2009    11      3       0.1819364       47.06501
2009    11      4       0.1101329       31.4617
2009    11      5       0.09761972      28.59878
2009    11      6       0.1001202       29.58083
2009    11      7       0.1608099       43.42426
2009    12      0       0.2062295       52.98622
2009    12      1       0.187453        49.24293
2009    12      2       0.1603302       43.48721
2009    12      3       0.1062349       31.20471
2009    12      4       0.07470463      23.5665
2009    12      5       0.07700728      24.0617
2009    12      6       0.1324579       37.15894
2009    12      7       0.1742469       46.40929
2009    13      0       0.2273259       57.25648
2009    13      1       0.2111049       53.98543
2009    13      2       0.2035033       52.61117
2009    13      3       0.2195211       55.93922
2009    13      4       0.2652981       65.02864
2009    13      5       0.2406664       60.24867
2009    13      6       0.3558428       82.33193
2009    13      7       0.5573283       115.5872
2009    14      0       0.514948        109.1409
2009    14      1       0.4008497       90.72493
2009    14      2       0.4532899       98.84223
2009    14      3       0.3948785       88.36195
2009    14      4       0.3705749       83.71936
2009    14      5       0.454331        98.68048
2009    14      6       0.4873028       105.486
2009    14      7       0.5075082       108.5399
2009    15      0       0.4633496       101.1712
2009    15      1       0.283936        68.8295
2009    15      2       0.1728264       46.10912
2009    15      3       0.1302965       36.77342
2009    15      4       0.1220692       34.96934
2009    15      5       0.1259176       35.79874
2009    15      6       0.2374641       59.38597
2009    15      7       0.2438873       61.27663
2009    16      0       0.1939248       50.64333
2009    16      1       0.1057459       31.03391
2009    16      2       0.06464756      21.12383
2009    16      3       0.06121176      20.24338
2009    16      4       0.069519        22.2226
2009    16      5       0.07682781      23.95199
2009    16      6       0.1048295       30.56531
2009    16      7       0.1828488       47.5992
2009    17      0       0.2536005       61.86202
2009    17      1       0.2027827       51.78371
2009    17      2       0.1109718       31.90295
2009    17      3       0.1006536       29.53462
2009    17      4       0.1172614       33.34763
2009    17      5       0.1097676       31.63861
2009    17      6       0.1266018       35.43044
2009    17      7       0.2204039       55.48841
2009    18      0       0.2773188       66.48675
2009    18      1       0.3202014       74.5155
2009    18      2       0.1691212       44.53157
2009    18      3       0.1866828       47.62984
2009    18      4       0.1471763       39.21499
2009    18      5       0.1339001       36.54941
2009    18      6       0.1516843       40.69125
2009    18      7       0.317864        73.9234
2009    19      0       0.1608554       42.48475
2009    19      1       0.1055457       30.40197
2009    19      2       0.1059346       30.08851
2009    19      3       0.1483253       39.4538
2009    19      4       0.1715139       45.01444
2009    19      5       0.1446654       39.23404
2009    19      6       0.1491924       40.34469
2009    19      7       0.1499308       40.70045
2009    20      0       0.151521        41.13608
2009    20      1       0.104739        30.54516
2009    20      2       0.08552856      26.06242
2009    20      3       0.08971813      27.11884
2009    20      4       0.06184055      20.35116
2009    20      5       0.03959492      14.63228
2009    20      6       0.03657046      13.813
2009    20      7       0.05962137      19.59625
2009    21      0       0.08664741      26.31443
2009    21      1       0.1138956       32.90875
2009    21      2       0.1131859       32.81182
2009    21      3       0.06673962      21.60475
2009    21      4       0.05061796      17.45246
2009    21      5       0.05495102      18.43273
2009    21      6       0.06692604      21.43567
2009    21      7       0.0907975       27.37399
2009    22      0       0.1025162       30.19875
2009    22      1       0.1193237       34.16062
2009    22      2       0.1545736       42.19577
2009    22      3       0.1800697       47.7876
2009    22      4       0.1647569       44.42689
2009    22      5       0.124047        35.34406
2009    22      6       0.08863255      26.9804
2009    22      7       0.1446888       39.99388
2009    23      0       0.1849208       48.69512
2009    23      1       0.192549        50.24566
2009    23      2       0.1910405       50.04556
2009    23      3       0.1836484       48.31159
2009    23      4       0.1825459       47.83634
2009    23      5       0.1967115       50.57236
2009    23      6       0.1280384       35.70212
2009    23      7       0.1283657       36.01745
2009    24      0       0.2705457       66.04283
2009    24      1       0.3376219       78.37134
2009    24      2       0.3239929       76.27238
2009    24      3       0.2791799       67.61486
2009    24      4       0.3569417       81.37642
2009    24      5       0.3985383       88.59396
2009    24      6       0.4521045       98.05649
2009    24      7       0.5940215       119.4682
2009    25      0       0.5198397       108.9472
2009    25      1       0.4025306       90.38575
2009    25      2       0.3102266       74.1827
2009    25      3       0.2726929       66.99458
2009    25      4       0.2701083       66.47762
2009    25      5       0.2590023       64.08665
2009    25      6       0.4843922       102.9516
2009    25      7       0.4422397       95.94249
2009    26      0       0.3002731       71.22886
2009    26      1       0.2862824       68.8273
2009    26      2       0.3040805       72.27768
2009    26      3       0.2623021       64.36447
2009    26      4       0.2528116       62.40117
2009    26      5       0.1963983       50.81416
2009    26      6       0.3227635       75.54404
2009    26      7       0.3209893       75.51883
2009    27      0       0.3470968       80.41296
2009    27      1       0.2802787       67.74189
2009    27      2       0.244492        60.78976
2009    27      3       0.1977418       51.25491
2009    27      4       0.1026542       30.02948
2009    27      5       0.04665225      16.36534
2009    27      6       0.05756774      19.18228
2009    27      7       0.1009386       29.72365
2009    28      0       0.1191443       33.86424
2009    28      1       0.06991252      22.18469
2009    28      2       0.05662012      18.86619
2009    28      3       0.07813811      24.04646
2009    28      4       0.08338921      25.26618
2009    28      5       0.1085314       31.26921
2009    28      6       0.1106073       31.91104
2009    28      7       0.1420209       39.14983
2009    29      0       0.2184292       55.63802
2009    29      1       0.1911006       49.89834
2009    29      2       0.1654002       44.35857
2009    29      3       0.1215634       34.52326
2009    29      4       0.1175074       33.44672
2009    29      5       0.2025353       51.86007
2009    29      6       0.231955        57.72783
2009    29      7       0.3492098       80.1503
2009    30      0       0.3496375       79.86932
2009    30      1       0.2626601       63.73225
2009    30      2       0.2310456       57.18067
2009    30      3       0.2264251       56.37991
2009    30      4       0.1940432       49.92869
2009    30      5       0.2089624       52.88621
2009    30      6       0.2292921       57.12314
2009    30      7       0.2725418       66.0017
2009    31      0       0.2423959       60.07048
2009    31      1       0.3701205       83.75279
2009    31      2       0.1396282       38.01269
2009    31      3       0.1693979       44.91786
2009    31      4       0.289531        69.00427
2009    31      5       0.2168987       54.82726
2009    31      6       0.1610194       43.17876
2009    31      7       0.3431273       79.11286
2010    1       0       0.5584242       114.8438
2010    1       1       0.4218355       92.71412
2010    1       2       0.3001126       71.43939
2010    1       3       0.2588253       63.69465
2010    1       4       0.2544555       62.81125
2010    1       5       0.2902285       69.85303
2010    1       6       0.4325174       95.47809
2010    1       7       0.5165535       109.5748
2010    2       0       0.4940773       105.9519
2010    2       1       0.5328358       112.14
2010    2       2       0.6179856       124.9674
2010    2       3       0.5792773       120.0006
2010    2       4       0.3663916       85.33337
2010    2       5       0.292891        71.51265
2010    2       6       0.3436581       80.94745
2010    2       7       0.4313383       96.82566
2010    3       0       0.5246364       112.1146
2010    3       1       0.5248517       111.4084
2010    3       2       0.3304335       76.62148
2010    3       3       0.2307144       57.53138
2010    3       4       0.2463075       61.03868
2010    3       5       0.2849313       68.45729
2010    3       6       0.3740574       85.04252
2010    3       7       0.5116032       108.2181
2010    4       0       0.5497383       113.4705
2010    4       1       0.4893702       104.522
2010    4       2       0.3466581       79.84629
2010    4       3       0.2577557       63.40907
2010    4       4       0.1719577       45.38146
2010    4       5       0.2127452       53.99704
2010    4       6       0.3174555       74.10641
2010    4       7       0.4285711       93.4714
2010    5       0       0.3869265       86.76934
2010    5       1       0.4450559       97.60494
2010    5       2       0.5229076       109.4185
2010    5       3       0.2708453       65.78857
2010    5       4       0.2153341       54.98197
2010    5       5       0.2053573       53.01493
2010    5       6       0.2659799       65.46451
2010    5       7       0.5050839       107.2196
2010    6       0       0.6048154       121.4349
2010    6       1       0.4976092       106.0707
2010    6       2       0.4142493       93.0122
2010    6       3       0.4223137       94.13872
2010    6       4       0.3302689       78.29688
2010    6       5       0.2725722       67.29176
2010    6       6       0.2615179       65.05905
2010    6       7       0.4065065       91.61896
2010    7       0       0.4919192       105.9265
2010    7       1       0.3043016       73.14473
2010    7       2       0.2316252       58.27305
2010    7       3       0.1819536       47.82991
2010    7       4       0.2083428       53.49853
2010    7       5       0.2307665       57.86463
2010    7       6       0.3100551       73.58878
2010    7       7       0.4478769       98.13108
2010    8       0       0.5700496       117.5908
2010    8       1       0.465212        101.2872
2010    8       2       0.253074        62.71342
2010    8       3       0.2009329       51.59942
2010    8       4       0.2284464       57.44038
2010    8       5       0.2629754       64.55966
2010    8       6       0.2540028       62.79962
2010    8       7       0.3553688       81.49641
2010    9       0       0.3871831       87.40783
2010    9       1       0.3646322       83.59871
2010    9       2       0.3472066       80.6131
2010    9       3       0.343352        79.95472
2010    9       4       0.325337        76.5036
2010    9       5       0.3590601       82.6327
2010    9       6       0.4267726       93.99775
2010    9       7       0.438935        95.95416
2010    10      0       0.394495        88.35572
2010    10      1       0.2908278       70.37447
2010    10      2       0.1497931       41.33211
2010    10      3       0.08118695      25.33621
2010    10      4       0.08215763      25.56269
2010    10      5       0.0588553       19.80722
2010    10      6       0.06495251      21.38968
2010    10      7       0.1459676       40.28301
2010    11      0       0.2927424       70.45753
2010    11      1       0.2989442       71.94851
2010    11      2       0.1522917       41.81988
2010    11      3       0.07051358      22.72818
2010    11      4       0.04155691      15.37864
2010    11      5       0.03047035      12.43085
2010    11      6       0.06383618      21.05522
2010    11      7       0.1800112       47.86849
2010    12      0       0.2952128       71.29457
2010    12      1       0.2660095       65.49842
2010    12      2       0.2017528       52.30015
2010    12      3       0.2165438       55.48023
2010    12      4       0.217802        55.58208
2010    12      5       0.1469888       40.10922
2010    12      6       0.2685029       64.64334
2010    12      7       0.4587016       98.40849
2010    13      0       0.4294411       94.52032
2010    13      1       0.2073484       53.55431
2010    13      2       0.1208701       34.67835
2010    13      3       0.05331489      18.35613
2010    13      4       0.03408381      13.31045
2010    13      5       0.02574767      11.05909
2010    13      6       0.03394428      13.2998
2010    13      7       0.08704249      26.72191
2010    14      0       0.1357428       37.99084
2010    14      1       0.1408742       39.13396
2010    14      2       0.1313722       37.07445
2010    14      3       0.1222293       35.0192
2010    14      4       0.1038837       30.67554
2010    14      5       0.05797784      19.45275
2010    14      6       0.06006922      19.96195
2010    14      7       0.1168878       33.53991
2010    15      0       0.1734707       46.05821
2010    15      1       0.2089385       53.76914
2010    15      2       0.1863036       49.24774
2010    15      3       0.1473601       40.81554
2010    15      4       0.09877672      29.54237
2010    15      5       0.08283041      25.63316
2010    15      6       0.07945604      24.95431
2010    15      7       0.1957503       51.47148
2010    16      0       0.2530129       62.85276
2010    16      1       0.2155202       55.13257
2010    16      2       0.1595445       43.19189
2010    16      3       0.1514827       41.30439
2010    16      4       0.2492919       61.31173
2010    16      5       0.3427094       78.40451
2010    16      6       0.3774633       84.80404
2010    16      7       0.4726532       100.8076
2010    17      0       0.3838127       86.37823
2010    17      1       0.2280952       56.96196
2010    17      2       0.2013577       52.04002
2010    17      3       0.09574878      28.51895
2010    17      4       0.05040111      17.53879
2010    17      5       0.03817369      14.36771
2010    17      6       0.05660974      19.10471
2010    17      7       0.1256261       35.56491
2010    18      0       0.1830843       48.25733
2010    18      1       0.1737004       46.36813
2010    18      2       0.0758602       23.87665
2010    18      3       0.04518985      16.12683
2010    18      4       0.04617245      16.32394
2010    18      5       0.04877462      16.93605
2010    18      6       0.06413222      20.79651
2010    18      7       0.124821        35.1889
2010    19      0       0.217412        55.10488
2010    19      1       0.3065537       72.61209
2010    19      2       0.3467072       80.05899
2010    19      3       0.3673688       83.50699
2010    19      4       0.3001136       71.51518
2010    19      5       0.3138363       74.41855
2010    19      6       0.2955631       71.04906
2010    19      7       0.287785        69.6536
2010    20      0       0.2980306       71.30461
2010    20      1       0.2174482       54.71353
2010    20      2       0.1839061       48.23914
2010    20      3       0.09083349      27.55207
2010    20      4       0.07617386      24.1141
2010    20      5       0.06009001      20.16777
2010    20      6       0.05026818      17.6973
2010    20      7       0.09104512      27.87613
2010    21      0       0.2110286       54.85119
2010    21      1       0.2064101       53.87744
2010    21      2       0.1384627       38.98003
2010    21      3       0.09096152      27.90992
2010    21      4       0.07763812      24.6677
2010    21      5       0.0844448       26.32063
2010    21      6       0.09260691      28.34006
2010    21      7       0.1718636       46.51526
2010    22      0       0.2060342       53.87841
2010    22      1       0.1688781       45.73257
2010    22      2       0.1610909       44.02601
2010    22      3       0.1687006       45.68766
2010    22      4       0.13783         38.77275
2010    22      5       0.08180118      25.45684
2010    22      6       0.1513105       41.66996
2010    22      7       0.5066475       107.9143
2010    23      0       0.6200816       124.7195
2010    23      1       0.5296985       112.4021
2010    23      2       0.5098216       109.5096
2010    23      3       0.4341366       96.98884
2010    23      4       0.4213717       94.28971
2010    23      5       0.4020749       90.83184
2010    23      6       0.5563823       115.6906
2010    23      7       0.6482812       129.5402
2010    24      0       0.4316246       95.83196
2010    24      1       0.3463281       81.02721
2010    24      2       0.2680985       66.61258
2010    24      3       0.3699039       86.271
2010    24      4       0.1995676       52.4681
2010    24      5       0.1010516       30.11093
2010    24      6       0.04146506      15.25271
2010    24      7       0.03811999      14.36441
2010    25      0       0.1345293       37.622
2010    25      1       0.2128458       55.12927
2010    25      2       0.1580584       43.3251
2010    25      3       0.08279572      25.7187
2010    25      4       0.05451481      18.59862
2010    25      5       0.0466737       16.5685
2010    25      6       0.05218822      18.01689
2010    25      7       0.1114886       32.54871
2010    26      0       0.144703        40.21746
2010    26      1       0.1278226       36.42701
2010    26      2       0.127527        36.33014
2010    26      3       0.1246837       35.60951
2010    26      4       0.103766        30.66937
2010    26      5       0.07598025      23.96024
2010    26      6       0.06945852      22.43404
2010    26      7       0.1090697       31.99193
2010    27      0       0.1558627       42.49911
2010    27      1       0.1644922       44.40972
2010    27      2       0.1890259       49.79274
2010    27      3       0.1826712       48.52575
2010    27      4       0.1654899       44.79018
2010    27      5       0.1579019       43.06217
2010    27      6       0.1923287       50.46028
2010    27      7       0.2901194       69.96165
2010    28      0       0.3676565       84.31922
2010    28      1       0.369589        84.78697
2010    28      2       0.2622224       64.41928
2010    28      3       0.2677153       65.1426
2010    28      4       0.2306206       57.82718
2010    28      5       0.1859851       48.51819
2010    28      6       0.2239199       56.51006
2010    28      7       0.2905571       69.67706
2010    29      0       0.3860191       86.81
2010    29      1       0.2952727       70.87687
2010    29      2       0.1604088       43.60413
2010    29      3       0.06603929      21.48087
2010    29      4       0.04443614      15.87919
2010    29      5       0.0581346       19.13176
2010    29      6       0.115303        32.64858
2010    29      7       0.309753        72.83215
2010    30      0       0.1350785       37.67538
2010    30      1       0.05147064      17.74403
2010    30      2       0.1030951       30.00098
2010    30      3       0.2334362       58.48231
2010    30      4       0.3497424       80.02497
2010    30      5       0.2025922       52.05332
2010    30      6       0.1296437       36.27078
2010    30      7       0.07353196      23.36049
2010    31      0       0.05836148      19.69076
2010    31      1       0.04197315      15.42906
2010    31      2       0.04443141      16.03591
2010    31      3       0.05198025      17.93772
2010    31      4       0.05957745      19.84496
2010    31      5       0.05779548      19.33397
2010    31      6       0.05788654      19.36654
2010    31      7       0.1054757       30.80398
2011    1       0       0.5498699       116.3948
2011    1       1       0.3635764       85.20397
2011    1       2       0.3359273       79.99685
2011    1       3       0.3529616       83.15176
2011    1       4       0.3478814       82.25793
2011    1       5       0.367483        85.79962
2011    1       6       0.5244021       112.1781
2011    1       7       0.7106071       139.0054
2011    2       0       0.8524482       156.4719
2011    2       1       0.7913001       149.4079
2011    2       2       0.552068        116.3563
2011    2       3       0.5116837       109.9881
2011    2       4       0.8071296       150.7923
2011    2       5       0.905048        162.276
2011    2       6       0.7916229       148.9332
2011    2       7       0.5408141       114.4946
2011    3       0       0.7228264       141.4059
2011    3       1       0.6632702       132.1159
2011    3       2       0.6579156       130.5885
2011    3       3       0.6570464       130.9219
2011    3       4       0.5645371       117.3459
2011    3       5       0.4195345       94.19535
2011    3       6       0.425334        95.32764
2011    3       7       0.6379626       127.7697
2011    4       0       0.767779        144.9273
2011    4       1       0.4934572       105.9036
2011    4       2       0.5702222       117.8253
2011    4       3       0.5843666       120.1766
2011    4       4       0.4554536       99.92938
2011    4       5       0.314884        74.85988
2011    4       6       0.3935242       88.60941
2011    4       7       0.5185997       109.0825
2011    5       0       0.4835378       103.839
2011    5       1       0.5030429       107.196
2011    5       2       0.2722481       66.13039
2011    5       3       0.150123        41.29074
2011    5       4       0.1606694       43.6749
2011    5       5       0.2316261       58.86658
2011    5       6       0.2844727       68.91549
2011    5       7       0.4186312       92.95363
2011    6       0       0.4332633       95.7843
2011    6       1       0.3193366       75.30839
2011    6       2       0.1527232       41.89776
2011    6       3       0.149432        41.17223
2011    6       4       0.1389413       38.71676
2011    6       5       0.08596626      26.39143
2011    6       6       0.1076324       31.57537
2011    6       7       0.1848389       48.69218
2011    7       0       0.2856913       68.85196
2011    7       1       0.3230082       76.13926
2011    7       2       0.2093821       54.03522
2011    7       3       0.1383768       38.65003
2011    7       4       0.1013361       30.10647
2011    7       5       0.07298615      23.31837
2011    7       6       0.06465891      21.24354
2011    7       7       0.1193551       34.28409
2011    8       0       0.1559394       42.49091
2011    8       1       0.1280609       36.34854
2011    8       2       0.07479186      23.72426
2011    8       3       0.04219452      15.44963
2011    8       4       0.05529215      18.83921
2011    8       5       0.06824544      22.10695
2011    8       6       0.1084912       31.77502
2011    8       7       0.1761751       46.7951
2011    9       0       0.1996307       51.75517
2011    9       1       0.1890756       49.66746
2011    9       2       0.178099        47.47972
2011    9       3       0.1337827       37.52734
2011    9       4       0.08878498      27.01165
2011    9       5       0.08858247      27.03277
2011    9       6       0.1085931       31.88299
2011    9       7       0.1374622       38.46645
2011    10      0       0.1265541       35.86991
2011    10      1       0.1043858       30.77311
2011    10      2       0.09366168      28.24876
2011    10      3       0.09899613      29.51179
2011    10      4       0.1204794       34.56428
2011    10      5       0.1174748       33.80645
2011    10      6       0.1602976       43.51609
2011    10      7       0.2104599       54.17268
2011    11      0       0.2026049       52.48043
2011    11      1       0.1654198       44.52174
2011    11      2       0.1389045       38.67556
2011    11      3       0.1271642       36.02681
2011    11      4       0.1331528       37.41061
2011    11      5       0.1270114       35.95199
2011    11      6       0.1691254       45.29576
2011    11      7       0.3206969       75.76459
2011    12      0       0.4033095       90.40909
2011    12      1       0.2881267       69.78222
2011    12      2       0.1905702       50.22264
2011    12      3       0.145161        40.21078
2011    12      4       0.120003        34.46297
2011    12      5       0.1271623       36.05008
2011    12      6       0.1580687       43.05816
2011    12      7       0.286913        69.52604
2011    13      0       0.3259967       76.972
2011    13      1       0.2488308       62.31067
2011    13      2       0.1668109       45.21358
2011    13      3       0.1118944       32.71477
2011    13      4       0.09438613      28.54312
2011    13      5       0.08746741      26.85405
2011    13      6       0.1177386       34.13125
2011    13      7       0.245503        61.98934
2011    14      0       0.2896992       70.54073
2011    14      1       0.2755664       68.08972
2011    14      2       0.2944942       71.18628
2011    14      3       0.2754164       67.11702
2011    14      4       0.315155        74.40449
2011    14      5       0.3797249       86.30475
2011    14      6       0.4149201       92.42362
2011    14      7       0.5700648       116.6562
2011    15      0       0.4954267       105.5602
2011    15      1       0.4349424       96.33677
2011    15      2       0.4184642       93.32324
2011    15      3       0.317375        75.47923
2011    15      4       0.2743193       67.25731
2011    15      5       0.2871275       69.7667
2011    15      6       0.3629899       84.02545
2011    15      7       0.4252716       94.65923
2011    16      0       0.4388892       96.9662
2011    16      1       0.3566292       82.95367
2011    16      2       0.1844567       49.07158
2011    16      3       0.09721143      29.12686
2011    16      4       0.08484639      26.00487
2011    16      5       0.08936632      27.06822
2011    16      6       0.1405298       39.10911
2011    16      7       0.3620368       83.6254
2011    17      0       0.4729637       102.7325
2011    17      1       0.4046644       90.85261
2011    17      2       0.2631746       64.25065
2011    17      3       0.09412066      28.16781
2011    17      4       0.06387587      20.95033
2011    17      5       0.07288497      23.12661
2011    17      6       0.116184        33.46904
2011    17      7       0.2682933       65.92244
2011    18      0       0.255476        63.24199
2011    18      1       0.1716111       45.89544
2011    18      2       0.06264596      20.49827
2011    18      3       0.05866382      19.46891
2011    18      4       0.1120747       32.41311
2011    18      5       0.1307868       36.51194
2011    18      6       0.1490928       40.38485
2011    18      7       0.2500877       61.41009
2011    19      0       0.2875893       68.81672
2011    19      1       0.2688857       65.56297
2011    19      2       0.2502774       62.04357
2011    19      3       0.2375701       59.29735
2011    19      4       0.2687963       65.05935
2011    19      5       0.3847792       86.628
2011    19      6       0.4541556       99.07902
2011    19      7       0.5198718       109.7113
2011    20      0       0.3867503       87.69292
2011    20      1       0.4402889       97.2517
2011    20      2       0.4104663       91.25294
2011    20      3       0.1970466       50.92777
2011    20      4       0.1440565       39.58654
2011    20      5       0.1662978       44.36545
2011    20      6       0.1868603       48.80622
2011    20      7       0.3967553       89.32744
2011    21      0       0.5210174       109.1435
2011    21      1       0.5143484       108.8792
2011    21      2       0.4884119       103.7137
2011    21      3       0.4572429       98.30251
2011    21      4       0.3639601       82.9562
2011    21      5       0.304563        72.3479
2011    21      6       0.3120907       73.73979
2011    21      7       0.3951699       89.0474
2011    22      0       0.5479992       113.8384
2011    22      1       0.5411183       113.4221
2011    22      2       0.4217411       93.7748
2011    22      3       0.3545535       82.04236
2011    22      4       0.3537764       82.32716
2011    22      5       0.315715        75.5106
2011    22      6       0.3162071       75.71409
2011    22      7       0.4230576       94.83701
2011    23      0       0.545325        114.6679
2011    23      1       0.5053502       108.4252
2011    23      2       0.404106        91.53967
2011    23      3       0.3418194       80.39165
2011    23      4       0.3012314       72.7058
2011    23      5       0.2574159       63.99831
2011    23      6       0.2541527       63.43083
2011    23      7       0.3610222       83.96331
2011    24      0       0.4506566       99.65816
2011    24      1       0.4179206       94.15789
2011    24      2       0.3663993       85.19885
2011    24      3       0.3610561       84.21036
2011    24      4       0.3156396       75.54644
2011    24      5       0.3213401       76.41292
2011    24      6       0.3730288       85.50788
2011    24      7       0.3522851       81.76187
2011    25      0       0.3514634       81.56734
2011    25      1       0.3551679       82.15044
2011    25      2       0.3275765       77.14308
2011    25      3       0.3267166       76.97535
2011    25      4       0.347485        81.13742
2011    25      5       0.2864119       69.78247
2011    25      6       0.3111372       74.75034
2011    25      7       0.5055394       108.748
2011    26      0       0.5667209       118.082
2011    26      1       0.5622358       116.8906
2011    26      2       0.4311065       95.39542
2011    26      3       0.3666425       84.53437
2011    26      4       0.3500828       81.55115
2011    26      5       0.3538542       82.13501
2011    26      6       0.4783264       103.2686
2011    26      7       0.6737702       133.4274
2011    27      0       0.6983649       136.9161
2011    27      1       0.6951564       136.1664
2011    27      2       0.6452958       129.1551
2011    27      3       0.3820306       88.08213
2011    27      4       0.3411068       80.56432
2011    27      5       0.3466477       81.51932
2011    27      6       0.3710632       85.95147
2011    27      7       0.453337        100.2191
2011    28      0       0.5414009       114.6438
2011    28      1       0.5524661       115.6317
2011    28      2       0.5016126       107.0888
2011    28      3       0.5023006       107.2333
2011    28      4       0.4745881       103.4334
2011    28      5       0.4145629       93.68322
2011    28      6       0.52719         112.2566
2011    28      7       0.5857251       121.3166
2011    29      0       0.6384498       128.7054
2011    29      1       0.5534568       115.5461
2011    29      2       0.4108638       92.48793
2011    29      3       0.2599509       64.87993
2011    29      4       0.2442124       61.88714
2011    29      5       0.2995754       72.6576
2011    29      6       0.4719084       102.0744
2011    29      7       0.6101083       124.156
2011    30      0       0.6338143       127.8731
2011    30      1       0.3801508       87.5803
2011    30      2       0.2458542       62.03139
2011    30      3       0.2346864       59.76667
2011    30      4       0.2502823       62.63863
2011    30      5       0.3273143       77.42846
2011    30      6       0.447902        98.28115
2011    30      7       0.5309616       111.669
2011    31      0       0.5285396       111.6992
2011    31      1       0.3046961       73.73325
2011    31      2       0.1862432       49.59525
2011    31      3       0.1600825       43.67288
2011    31      4       0.138585        38.71666
2011    31      5       0.1262196       35.89774
2011    31      6       0.1441714       40.20938
2011    31      7       0.327894        77.60277
2012    1       0       0.4290956       95.69752
2012    1       1       0.5279896       111.911
2012    1       2       0.4622163       100.701
2012    1       3       0.3760682       85.5978
2012    1       4       0.2990624       71.55219
2012    1       5       0.2021113       52.65426
2012    1       6       0.2039261       52.77186
2012    1       7       0.2655536       65.19635
2012    2       0       0.305951        72.96021
2012    2       1       0.2943544       69.99526
2012    2       2       0.3240027       75.93901
2012    2       3       0.2955605       71.34432
2012    2       4       0.2372624       59.82291
2012    2       5       0.2449776       60.96207
2012    2       6       0.4056105       90.25382
2012    2       7       0.4664166       101.5156
2012    3       0       0.4596003       100.3538
2012    3       1       0.3964312       88.87013
2012    3       2       0.3432268       79.03439
2012    3       3       0.2323014       58.30932
2012    3       4       0.1863042       48.65086
2012    3       5       0.146865        40.04478
2012    3       6       0.1441837       39.45632
2012    3       7       0.230474        57.73168
2012    4       0       0.3130891       73.64852
2012    4       1       0.2549955       62.62097
2012    4       2       0.2310792       57.75678
2012    4       3       0.1554984       41.74136
2012    4       4       0.1109948       31.44011
2012    4       5       0.1118941       31.61354
2012    4       6       0.101699        29.58899
2012    4       7       0.1621027       43.46
2012    5       0       0.2109897       53.60109
2012    5       1       0.1430168       39.34175
2012    5       2       0.07298844      22.79568
2012    5       3       0.06274293      20.28091
2012    5       4       0.07595255      23.38167
2012    5       5       0.09623003      28.13349
2012    5       6       0.1449656       38.93976
2012    5       7       0.2321071       57.6323
2012    6       0       0.2743573       66.22924
2012    6       1       0.2703498       65.64043
2012    6       2       0.3072142       72.4034
2012    6       3       0.2720076       65.8972
2012    6       4       0.2569109       62.99892
2012    6       5       0.2565389       62.88893
2012    6       6       0.2933201       70.12097
2012    6       7       0.5352888       112.1418
2012    7       0       0.4730909       102.2616
2012    7       1       0.4668626       100.696
2012    7       2       0.4342478       95.13289
2012    7       3       0.3553981       82.01717
2012    7       4       0.313851        74.63213
2012    7       5       0.2840035       68.93495
2012    7       6       0.285148        69.01896
2012    7       7       0.3693883       84.75716
2012    8       0       0.4022941       90.68197
2012    8       1       0.1950718       51.08815
2012    8       2       0.1258652       35.84798
2012    8       3       0.0852018       26.30869
2012    8       4       0.05371254      18.49184
2012    8       5       0.05108081      17.82553
2012    8       6       0.07593613      24.02661
2012    8       7       0.1127195       32.80707
2012    9       0       0.1470688       40.69067
2012    9       1       0.1874485       49.41846
2012    9       2       0.1920658       50.32778
2012    9       3       0.2215111       56.87391
2012    9       4       0.1507395       41.38077
2012    9       5       0.1562175       42.4988
2012    9       6       0.2006256       51.98994
2012    9       7       0.3679147       84.45808
2012    10      0       0.4724027       102.1537
2012    10      1       0.3292186       77.50312
2012    10      2       0.2584405       63.87202
2012    10      3       0.2583401       63.68542
2012    10      4       0.23576         59.1147
2012    10      5       0.2374088       59.52979
2012    10      6       0.2874178       69.29357
2012    10      7       0.4147925       92.70479
2012    11      0       0.4508756       98.55296
2012    11      1       0.4074089       90.72342
2012    11      2       0.340441        79.25874
2012    11      3       0.3599737       82.16639
2012    11      4       0.3387173       78.25848
2012    11      5       0.2434532       60.45182
2012    11      6       0.1765056       46.78764
2012    11      7       0.3630468       83.40993
2012    12      0       0.4234608       93.90062
2012    12      1       0.2586487       63.47721
2012    12      2       0.2211939       55.91274
2012    12      3       0.1172166       33.61543
2012    12      4       0.05160789      17.82077
2012    12      5       0.04161105      15.22927
2012    12      6       0.07430074      23.44289
2012    12      7       0.1982626       51.38528
2012    13      0       0.2663756       65.5456
2012    13      1       0.2529645       62.80313
2012    13      2       0.2042796       52.5753
2012    13      3       0.1678982       44.78543
2012    13      4       0.2012421       51.62494
2012    13      5       0.2468325       60.82044
2012    13      6       0.3861514       86.52759
2012    13      7       0.4804703       103.1216
2012    14      0       0.4917488       105.3779
2012    14      1       0.4588691       99.31513
2012    14      2       0.2648032       64.28462
2012    14      3       0.1972996       50.45442
2012    14      4       0.108847        31.02262
2012    14      5       0.0816746       24.6481
2012    14      6       0.08748826      26.17494
2012    14      7       0.1375336       37.83623
2012    15      0       0.2186639       54.84225
2012    15      1       0.2745773       65.88926
2012    15      2       0.2562151       62.45533
2012    15      3       0.2854045       68.17075
2012    15      4       0.2882674       68.94865
2012    15      5       0.2419736       60.05587
2012    15      6       0.2011806       51.95341
2012    15      7       0.2731233       66.57878
2012    16      0       0.3413338       79.45406
2012    16      1       0.3738229       85.11261
2012    16      2       0.2353558       59.26077
2012    16      3       0.1741038       46.45674
2012    16      4       0.1696886       45.39602
2012    16      5       0.146301        40.17351
2012    16      6       0.1719148       45.74196
2012    16      7       0.3309884       77.61317
2012    17      0       0.3644982       83.86167
2012    17      1       0.2084504       53.7463
2012    17      2       0.1731805       46.09051
2012    17      3       0.2112601       53.70621
2012    17      4       0.2367576       58.98482
2012    17      5       0.161626        43.23655
2012    17      6       0.1490809       40.61488
2012    17      7       0.2576598       63.41688
2012    18      0       0.3334733       77.9067
2012    18      1       0.2382559       59.78432
2012    18      2       0.1605334       43.37621
2012    18      3       0.1380247       38.02027
2012    18      4       0.1486739       40.30078
2012    18      5       0.09300253      27.94202
2012    18      6       0.06521923      21.2746
2012    18      7       0.1393186       38.73632
2012    19      0       0.2320479       58.56541
2012    19      1       0.1725523       46.11818
2012    19      2       0.1408402       39.16671
2012    19      3       0.05948518      19.85044
2012    19      4       0.05234114      18.01276
2012    19      5       0.0546757       18.52949
2012    19      6       0.05352278      18.22042
2012    19      7       0.110268        31.87162
2012    20      0       0.1870771       48.84394
2012    20      1       0.1868523       48.84722
2012    20      2       0.2065546       52.85023
2012    20      3       0.2103506       53.5786
2012    20      4       0.2723339       65.53371
2012    20      5       0.4057481       89.74897
2012    20      6       0.4300579       94.45758
2012    20      7       0.515895        107.5514
2012    21      0       0.4917352       104.7412
2012    21      1       0.3282358       77.18991
2012    21      2       0.1775762       47.10926
2012    21      3       0.1271253       35.93396
2012    21      4       0.1171728       33.57401
2012    21      5       0.1206689       34.36228
2012    21      6       0.1393142       38.73938
2012    21      7       0.2341118       59.14614
2012    22      0       0.3109488       74.30572
2012    22      1       0.2519899       62.75453
2012    22      2       0.1889549       49.66448
2012    22      3       0.1561182       42.36221
2012    22      4       0.2422139       59.92877
2012    22      5       0.3226385       75.27078
2012    22      6       0.4118646       91.17099
2012    22      7       0.5798923       117.3922
2012    23      0       0.4429022       97.11408
2012    23      1       0.4061701       91.47076
2012    23      2       0.3678926       84.38734
2012    23      3       0.3040742       72.60689
2012    23      4       0.2221262       56.14845
2012    23      5       0.2397457       59.60475
2012    23      6       0.4577716       99.3172
2012    23      7       0.531571        111.2696
2012    24      0       0.5149088       109.2634
2012    24      1       0.5546421       115.7127
2012    24      2       0.5195044       109.9526
2012    24      3       0.4128252       91.92934
2012    24      4       0.3384927       79.0343
2012    24      5       0.3382224       79.17119
2012    24      6       0.4216487       93.44305
2012    24      7       0.3951215       88.4077
2012    25      0       0.3606868       82.10756
2012    25      1       0.2586172       63.36617
2012    25      2       0.1852472       48.72595
2012    25      3       0.1565934       42.65906
2012    25      4       0.1342686       37.58189
2012    25      5       0.1333643       37.26125
2012    25      6       0.1381208       38.37039
2012    25      7       0.189397        49.72991
2012    26      0       0.2579407       63.80565
2012    26      1       0.2137017       54.83162
2012    26      2       0.1892427       49.20911
2012    26      3       0.103966        30.44967
2012    26      4       0.0877055       26.49052
2012    26      5       0.1014128       29.68671
2012    26      6       0.129182        36.19501
2012    26      7       0.1663522       44.57713
2012    27      0       0.2178962       55.60311
2012    27      1       0.2646534       65.20011
2012    27      2       0.2397742       60.48483
2012    27      3       0.2560665       63.56771
2012    27      4       0.290831        70.06599
2012    27      5       0.289521        69.87691
2012    27      6       0.3167206       75.22046
2012    27      7       0.423522        94.50864
2012    28      0       0.4598136       100.4746
2012    28      1       0.3480653       81.15625
2012    28      2       0.3176849       75.5805
2012    28      3       0.3226558       76.35017
2012    28      4       0.3145283       74.81551
2012    28      5       0.33356         78.39846
2012    28      6       0.3854866       87.93452
2012    28      7       0.4173787       93.80795
2012    29      0       0.3904647       88.57912
2012    29      1       0.3211114       75.46414
2012    29      2       0.3172506       74.83894
2012    29      3       0.3030908       72.38013
2012    29      4       0.284973        69.08881
2012    29      5       0.2712419       66.53984
2012    29      6       0.2757995       67.70947
2012    29      7       0.3192163       76.45417
2012    30      0       0.3659879       85.10321
2012    30      1       0.3469433       81.03344
2012    30      2       0.3046308       72.99992
2012    30      3       0.220501        56.68173
2012    30      4       0.1621889       44.19242
2012    30      5       0.1455431       40.4335
2012    30      6       0.1676215       45.46149
2012    30      7       0.2162721       55.78755
2012    31      0       0.1360534       38.17879
2012    31      1       0.1295885       36.64427
2012    31      2       0.1274796       36.32781
2012    31      3       0.1232546       35.41414
2012    31      4       0.1090778       32.04713
2012    31      5       0.1251589       35.6894
2012    31      6       0.1635205       44.22384
2012    31      7       0.2153259       55.1399
2013    1       0       0.3535751       82.19592
2013    1       1       0.3292628       77.46338
2013    1       2       0.2597858       63.93276
2013    1       3       0.1836845       48.46549
2013    1       4       0.1860307       48.83816
2013    1       5       0.1901488       49.36937
2013    1       6       0.3992636       88.76546
2013    1       7       0.4508133       97.44587
2013    2       0       0.5007997       106.1361
2013    2       1       0.3867468       87.56888
2013    2       2       0.5349857       111.9995
2013    2       3       0.2628396       64.62341
2013    2       4       0.2071601       52.67944
2013    2       5       0.1506456       40.80312
2013    2       6       0.1242417       35.03232
2013    2       7       0.2710648       66.50331
2013    3       0       0.3767648       86.41674
2013    3       1       0.3569425       82.76695
2013    3       2       0.2997361       71.71665
2013    3       3       0.2908443       69.43728
2013    3       4       0.2772334       66.98449
2013    3       5       0.3008595       71.75116
2013    3       6       0.4388413       96.41218
2013    3       7       0.499292        107.0797
2013    4       0       0.5306198       111.5831
2013    4       1       0.4472875       98.29087
2013    4       2       0.4501143       98.47279
2013    4       3       0.4475487       97.8754
2013    4       4       0.2569692       63.48356
2013    4       5       0.2043048       52.62473
2013    4       6       0.2815027       68.31407
2013    4       7       0.4100375       91.93373
2013    5       0       0.519706        109.8911
2013    5       1       0.4460738       97.60246
2013    5       2       0.3068746       72.55561
2013    5       3       0.2373344       59.13892
2013    5       4       0.2421775       60.15953
2013    5       5       0.2643708       64.5984
2013    5       6       0.3234006       75.96574
2013    5       7       0.5222543       109.2366
2013    6       0       0.572067        116.9857
2013    6       1       0.4011012       89.75993
2013    6       2       0.4040866       90.32995
2013    6       3       0.3170502       74.42795
2013    6       4       0.2625434       63.88513
2013    6       5       0.2272709       56.74656
2013    6       6       0.2802899       67.39033
2013    6       7       0.4544053       98.38198
2013    7       0       0.5676748       116.187
2013    7       1       0.5124497       108.0071
2013    7       2       0.500191        106.1617
2013    7       3       0.5282328       110.8281
2013    7       4       0.5370994       112.3024
2013    7       5       0.5271507       110.6963
2013    7       6       0.5375613       111.9135
2013    7       7       0.5313169       111.3582
2013    8       0       0.4844514       104.0532
2013    8       1       0.4550034       98.71092
2013    8       2       0.386045        87.22573
2013    8       3       0.3347135       77.48267
2013    8       4       0.3015638       70.80235
2013    8       5       0.2896921       68.71669
2013    8       6       0.2426889       60.18738
2013    8       7       0.313558        73.76608
2013    9       0       0.3779357       85.27872
2013    9       1       0.2603989       63.61059
2013    9       2       0.1928712       49.95341
2013    9       3       0.1756267       46.02086
2013    9       4       0.1833599       47.63151
2013    9       5       0.1897441       49.11839
2013    9       6       0.2562624       63.22062
2013    9       7       0.3724697       84.7235
2013    10      0       0.3304281       77.28745
2013    10      1       0.2949822       70.09313
2013    10      2       0.20406         51.91771
2013    10      3       0.1580094       42.4006
2013    10      4       0.1704981       45.4414
2013    10      5       0.1892896       49.45142
2013    10      6       0.2349402       58.85368
2013    10      7       0.3483522       80.7311
2013    11      0       0.3416793       79.74602
2013    11      1       0.2607674       64.31415
2013    11      2       0.2159846       55.04024
2013    11      3       0.1687132       45.00373
2013    11      4       0.1610415       43.26456
2013    11      5       0.1576964       42.86568
2013    11      6       0.277935        67.49828
2013    11      7       0.4158764       92.53712
2013    12      0       0.4247968       94.2609
2013    12      1       0.3362513       78.68252
2013    12      2       0.2993476       71.83732
2013    12      3       0.356555        82.08801
2013    12      4       0.4217652       93.52843
2013    12      5       0.3880206       87.5439
2013    12      6       0.4585181       98.77212
2013    12      7       0.4639063       101.1593
2013    13      0       0.4975809       106.7941
2013    13      1       0.4850057       105.4864
2013    13      2       0.5417581       113.3252
2013    13      3       0.5549069       114.025
2013    13      4       0.369991        84.16435
2013    13      5       0.2770077       66.91187
2013    13      6       0.3931413       88.43401
2013    13      7       0.4802337       103.0252
2013    14      0       0.3816661       86.85672
2013    14      1       0.2610923       64.87325
2013    14      2       0.2043089       53.1421
2013    14      3       0.1750628       46.5525
2013    14      4       0.1778122       47.23159
2013    14      5       0.183509        48.48249
2013    14      6       0.1440264       39.91183
2013    14      7       0.2531149       62.75749
2013    15      0       0.3599917       82.80022
2013    15      1       0.2901218       70.04181
2013    15      2       0.233828        58.67667
2013    15      3       0.2195164       55.51878
2013    15      4       0.1653221       44.31638
2013    15      5       0.1451622       39.95334
2013    15      6       0.1741778       46.42046
2013    15      7       0.2626175       64.644
2013    16      0       0.3262476       76.75896
2013    16      1       0.3008966       72.06893
2013    16      2       0.2175175       55.69087
2013    16      3       0.1639309       44.2612
2013    16      4       0.1453602       40.0208
2013    16      5       0.1674117       44.93657
2013    16      6       0.1884631       49.57281
2013    16      7       0.2749382       67.32432
2013    17      0       0.3890058       88.35051
2013    17      1       0.4062144       91.20096
2013    17      2       0.2722211       66.79171
2013    17      3       0.2326482       58.79798
2013    17      4       0.1951947       50.81068
2013    17      5       0.1507626       41.06204
2013    17      6       0.1853204       48.62472
2013    17      7       0.2653148       65.07476
2013    18      0       0.3701057       84.58899
2013    18      1       0.3272739       77.07486
2013    18      2       0.2594518       64.13031
2013    18      3       0.2203487       56.1105
2013    18      4       0.2110289       54.03188
2013    18      5       0.2307568       57.94082
2013    18      6       0.2925908       70.21265
2013    18      7       0.4261958       94.34555
2013    19      0       0.5597144       115.8342
2013    19      1       0.4476328       98.70591
2013    19      2       0.4930896       105.7009
2013    19      3       0.2895025       70.27619
2013    19      4       0.1809703       48.27338
2013    19      5       0.1361776       38.34968
2013    19      6       0.1640205       44.57266
2013    19      7       0.2195501       56.5648
2013    20      0       0.3841067       88.17497
2013    20      1       0.4098345       92.50519
2013    20      2       0.3054765       73.48283
2013    20      3       0.2134462       55.18194
2013    20      4       0.1718025       46.12291
2013    20      5       0.146983        40.55931
2013    20      6       0.1662512       44.84768
2013    20      7       0.2897916       70.42737
2013    21      0       0.3975022       90.30749
2013    21      1       0.3141891       74.54046
2013    21      2       0.2320864       58.43342
2013    21      3       0.2199084       56.0361
2013    21      4       0.3362481       78.95556
2013    21      5       0.3987837       90.21355
2013    21      6       0.4167046       92.97816
2013    21      7       0.4045541       90.45638
2013    22      0       0.3885519       88.02348
2013    22      1       0.3998145       90.25356
2013    22      2       0.4364794       96.77104
2013    22      3       0.4747048       103.3366
2013    22      4       0.4177576       93.58641
2013    22      5       0.4666197       101.6943
2013    22      6       0.5194566       110.6969
2013    22      7       0.5187159       109.9266
2013    23      0       0.4224801       93.89631
2013    23      1       0.4836004       104.3339
2013    23      2       0.4571362       99.89344
2013    23      3       0.4436806       97.14394
2013    23      4       0.3335451       77.36732
2013    23      5       0.2407456       59.84016
2013    23      6       0.1991178       51.72187
2013    23      7       0.3000379       72.31484
2013    24      0       0.261198        64.94482
2013    24      1       0.2277781       58.23072
2013    24      2       0.1788118       47.69645
2013    24      3       0.1514291       41.39263
2013    24      4       0.1837549       48.0682
2013    24      5       0.2285876       57.43567
2013    24      6       0.3759819       84.64201
2013    24      7       0.4892125       103.2114
2013    25      0       0.4507229       97.81199
2013    25      1       0.3988369       89.35808
2013    25      2       0.3478902       80.65469
2013    25      3       0.2406144       60.30181
2013    25      4       0.2402106       59.99411
2013    25      5       0.304522        72.41465
2013    25      6       0.4570939       98.90141
2013    25      7       0.4409208       97.1953
2013    26      0       0.4452274       98.18481
2013    26      1       0.3676223       84.94753
2013    26      2       0.3195862       76.108
2013    26      3       0.2655477       65.62368
2013    26      4       0.1785198       47.69574
2013    26      5       0.1343859       38.00694
2013    26      6       0.1972297       52.00815
2013    26      7       0.3756416       87.02164
2013    27      0       0.4643287       102.27
2013    27      1       0.399718        91.78872
2013    27      2       0.1981785       52.14186
2013    27      3       0.1362985       38.26999
2013    27      4       0.1289958       36.78218
2013    27      5       0.1886615       49.70297
2013    27      6       0.3006766       72.72203
2013    27      7       0.3582049       83.96073
2013    28      0       0.238532        60.50557
2013    28      1       0.1251711       35.60401
2013    28      2       0.06720274      21.75446
2013    28      3       0.03372655      13.15827
2013    28      4       0.03619052      13.77739
2013    28      5       0.04337362      15.61092
2013    28      6       0.04848433      16.95553
2013    28      7       0.07765068      24.38785
2013    29      0       0.09753009      29.21796
2013    29      1       0.09729969      29.13153
2013    29      2       0.1196104       34.41274
2013    29      3       0.1157266       33.47673
2013    29      4       0.09946236      29.51991
2013    29      5       0.1204005       34.42938
2013    29      6       0.1734775       46.53261
2013    29      7       0.2328145       59.29234
2013    30      0       0.3220156       76.99078
2013    30      1       0.361179        84.07891
2013    30      2       0.3299511       78.31349
2013    30      3       0.3196241       76.37967
2013    30      4       0.3269095       77.42081
2013    30      5       0.3429581       80.02872
2013    30      6       0.4030087       90.54831
2013    30      7       0.437158        96.55779
2013    31      0       0.422705        93.85773
2013    31      1       0.4609147       100.7933
2013    31      2       0.3727659       86.01468
2013    31      3       0.3655214       84.22626
2013    31      4       0.3564882       82.54967
2013    31      5       0.4239291       94.56542
2013    31      6       0.495862        106.4252
2013    31      7       0.6436368       128.6746
2014    1       0       0.5069807       107.4616
2014    1       1       0.4338149       95.7265
2014    1       2       0.3748082       85.44562
2014    1       3       0.3292423       77.24548
2014    1       4       0.3518585       81.28498
2014    1       5       0.3518901       81.1932
2014    1       6       0.5118748       107.2549
2014    1       7       0.4348668       95.16474
2014    2       0       0.393308        87.93586
2014    2       1       0.307322        72.32199
2014    2       2       0.1663116       44.23685
2014    2       3       0.1402274       38.56267
2014    2       4       0.1254448       35.19623
2014    2       5       0.1190244       33.81585
2014    2       6       0.1317751       36.90494
2014    2       7       0.2489173       62.01369
2014    3       0       0.2270444       57.05265
2014    3       1       0.1360805       37.80024
2014    3       2       0.0997971       29.47004
2014    3       3       0.09270596      27.70802
2014    3       4       0.09917649      29.16044
2014    3       5       0.1040489       30.30506
2014    3       6       0.1236465       34.87704
2014    3       7       0.1595063       42.93741
2014    4       0       0.1913964       49.50606
2014    4       1       0.1663764       43.83136
2014    4       2       0.1783891       46.29777
2014    4       3       0.1795711       46.56865
2014    4       4       0.1766614       46.09335
2014    4       5       0.2124816       53.69749
2014    4       6       0.3546233       80.9426
2014    4       7       0.4620957       99.04468
2014    5       0       0.3803438       86.00485
2014    5       1       0.3007321       71.87744
2014    5       2       0.334451        77.90498
2014    5       3       0.3377905       78.6748
2014    5       4       0.3471192       80.45386
2014    5       5       0.3425803       79.81504
2014    5       6       0.4130642       90.57722
2014    5       7       0.4568852       97.49315
2014    6       0       0.3520785       81.11475
2014    6       1       0.2094748       53.95899
2014    6       2       0.105621        31.03258
2014    6       3       0.09348236      28.19031
2014    6       4       0.1119209       32.43025
2014    6       5       0.1398412       38.76207
2014    6       6       0.3076175       73.39075
2014    6       7       0.334359        78.48535
2014    7       0       0.2667346       65.83959
2014    7       1       0.3078074       73.69797
2014    7       2       0.2681141       66.02742
2014    7       3       0.1943909       51.10091
2014    7       4       0.1869644       49.41938
2014    7       5       0.2232774       56.37161
2014    7       6       0.3785642       84.49946
2014    7       7       0.396497        88.70505
2014    8       0       0.4186          93.11233
2014    8       1       0.3991517       89.53698
2014    8       2       0.2313334       58.33352
2014    8       3       0.1886887       49.55105
2014    8       4       0.1539297       41.82119
2014    8       5       0.1465482       39.92991
2014    8       6       0.1476103       40.35084
2014    8       7       0.2622468       64.44233
2014    9       0       0.2681275       65.63124
2014    9       1       0.2419324       60.39491
2014    9       2       0.2022044       52.14097
2014    9       3       0.1607959       43.10326
2014    9       4       0.1175156       33.42098
2014    9       5       0.1507747       40.91195
2014    9       6       0.2363192       59.03747
2014    9       7       0.3399131       78.97109
2014    10      0       0.3483608       80.34846
2014    10      1       0.3173892       74.64335
2014    10      2       0.2894607       69.28367
2014    10      3       0.2285155       56.84327
2014    10      4       0.1832424       47.31821
2014    10      5       0.1801489       46.94184
2014    10      6       0.2907226       69.07706
2014    10      7       0.2977351       70.25777
2014    11      0       0.3457706       79.59766
2014    11      1       0.3728918       84.37001
2014    11      2       0.2365004       58.92588
2014    11      3       0.1826552       47.86292
2014    11      4       0.1080351       31.23758
2014    11      5       0.08354944      25.55354
2014    11      6       0.09707567      28.79836
2014    11      7       0.1409          38.82004
2014    12      0       0.2077016       53.22371
2014    12      1       0.15071         41.05263
2014    12      2       0.1250119       35.28977
2014    12      3       0.09084028      27.28806
2014    12      4       0.07809914      24.24075
2014    12      5       0.07343973      23.1255
2014    12      6       0.07809866      24.34397
2014    12      7       0.1090182       31.80161
2014    13      0       0.1349325       37.65359
2014    13      1       0.1316062       36.72876
2014    13      2       0.1147479       32.69374
2014    13      3       0.1147515       32.4759
2014    13      4       0.1170389       32.9948
2014    13      5       0.1128779       32.1048
2014    13      6       0.1529462       41.3473
2014    13      7       0.3038026       72.25083
2014    14      0       0.3690963       83.62666
2014    14      1       0.33217         77.20996
2014    14      2       0.3356398       78.53925
2014    14      3       0.3252482       76.74709
2014    14      4       0.3955367       89.29563
2014    14      5       0.3391569       79.47625
2014    14      6       0.4216529       93.30929
2014    14      7       0.5254933       110.8455
2014    15      0       0.5523855       115.5577
2014    15      1       0.3317974       78.4212
2014    15      2       0.1456317       40.17609
2014    15      3       0.1368033       38.00784
2014    15      4       0.163818        44.01814
2014    15      5       0.1678062       44.89372
2014    15      6       0.2240807       56.88664
2014    15      7       0.3059745       72.81739
2014    16      0       0.3960822       89.06567
2014    16      1       0.3324239       77.53847
2014    16      2       0.2308454       57.91078
2014    16      3       0.1786146       47.21498
2014    16      4       0.1302426       36.5325
2014    16      5       0.09432492      28.18385
2014    16      6       0.1843846       48.47392
2014    16      7       0.3035018       72.38857
2014    17      0       0.3619408       83.25184
2014    17      1       0.2385888       59.90724
2014    17      2       0.1588303       42.99353
2014    17      3       0.1373774       38.06424
2014    17      4       0.1183444       33.79065
2014    17      5       0.1003816       29.63652
2014    17      6       0.1599197       43.152
2014    17      7       0.3116899       73.61214
2014    18      0       0.3486012       80.40976
2014    18      1       0.1413875       39.13189
2014    18      2       0.1665553       44.58211
2014    18      3       0.1339691       37.28257
2014    18      4       0.1227739       34.6863
2014    18      5       0.1377418       38.05226
2014    18      6       0.1947236       50.40292
2014    18      7       0.3454943       79.72886
2014    19      0       0.3177359       74.77018
2014    19      1       0.226421        57.34483
2014    19      2       0.2570058       63.27886
2014    19      3       0.2054254       52.59453
2014    19      4       0.1676317       44.5508
2014    19      5       0.1620474       43.20874
2014    19      6       0.2966997       70.15104
2014    19      7       0.377912        85.52199
2014    20      0       0.4019121       89.60419
2014    20      1       0.355038        81.23407
2014    20      2       0.3418023       79.43438
2014    20      3       0.3064789       72.88169
2014    20      4       0.2918614       70.12054
2014    20      5       0.3379318       79.03601
2014    20      6       0.4242343       94.15206
2014    20      7       0.4149573       92.92832
2014    21      0       0.3958633       89.4715
2014    21      1       0.323466        76.52031
2014    21      2       0.2988804       72.03204
2014    21      3       0.1703256       45.62693
2014    21      4       0.1347655       37.53079
2014    21      5       0.1165641       33.20672
2014    21      6       0.1492992       40.69544
2014    21      7       0.2779053       67.58888
2014    22      0       0.4821263       103.0016
2014    22      1       0.5808626       118.3514
2014    22      2       0.5208287       109.6046
2014    22      3       0.4222965       93.20228
2014    22      4       0.3805957       85.38936
2014    22      5       0.4024169       88.61578
2014    22      6       0.5422235       111.1264
2014    22      7       0.5525424       113.5757
2014    23      0       0.4409366       96.51136
2014    23      1       0.2917724       70.25308
2014    23      2       0.2165378       55.21725
2014    23      3       0.1866477       49.02409
2014    23      4       0.1233376       35.11067
2014    23      5       0.1219731       34.69971
2014    23      6       0.1312708       36.88103
2014    23      7       0.3044095       72.87287
2014    24      0       0.2171099       55.73101
2014    24      1       0.1738416       46.44777
2014    24      2       0.1546291       42.14685
2014    24      3       0.1510139       41.36723
2014    24      4       0.1245083       35.22691
2014    24      5       0.1037292       30.27462
2014    24      6       0.1478912       40.64433
2014    24      7       0.2802818       68.18219
2014    25      0       0.3227503       75.85537
2014    25      1       0.2514831       62.79877
2014    25      2       0.2334536       59.17672
2014    25      3       0.1314836       36.96177
2014    25      4       0.06942872      22.15394
2014    25      5       0.07627718      23.55285
2014    25      6       0.1318218       36.77611
2014    25      7       0.4258341       93.23522
2014    26      0       0.4031405       89.10932
2014    26      1       0.2526652       62.04385
2014    26      2       0.1932101       50.13842
2014    26      3       0.2103875       53.87721
2014    26      4       0.2400823       59.51476
2014    26      5       0.2591086       63.02023
2014    26      6       0.4912878       103.4697
2014    26      7       0.463411        99.02247
2014    27      0       0.4836816       102.4392
2014    27      1       0.5144711       107.0729
2014    27      2       0.4151328       91.22981
2014    27      3       0.3833255       86.72324
2014    27      4       0.262841        64.62909
2014    27      5       0.191069        50.1159
2014    27      6       0.1132614       32.97474
2014    27      7       0.248427        62.07383
2014    28      0       0.2828929       68.68702
2014    28      1       0.2307554       58.13878
2014    28      2       0.1758718       46.36847
2014    28      3       0.1527551       41.09046
2014    28      4       0.2471683       60.59428
2014    28      5       0.2836954       68.06589
2014    28      6       0.3851666       86.09137
2014    28      7       0.4429151       95.92859
2014    29      0       0.4395698       96.15648
2014    29      1       0.2055723       53.15197
2014    29      2       0.07937672      24.8055
2014    29      3       0.05496265      18.68646
2014    29      4       0.06579742      21.35556
2014    29      5       0.1081496       31.50197
2014    29      6       0.2422921       60.51376
2014    29      7       0.3392908       78.98797
2014    30      0       0.414695        91.88791
2014    30      1       0.2526816       61.9077
2014    30      2       0.2326656       58.15206
2014    30      3       0.1818714       47.78854
2014    30      4       0.131732        36.60436
2014    30      5       0.1638815       43.35437
2014    30      6       0.1937381       50.20309
2014    30      7       0.3512428       81.15146
2014    31      0       0.4104521       91.14434
2014    31      1       0.425751        93.69951
2014    31      2       0.152939        41.72598
2014    31      3       0.1833187       48.46709
2014    31      4       0.1985971       51.39305
2014    31      5       0.1757039       46.36202
2014    31      6       0.1926652       50.20333
2014    31      7       0.2646268       65.00355
2015    1       0       0.4540415       99.31118
2015    1       1       0.4180926       93.53149
2015    1       2       0.3453982       80.75681
2015    1       3       0.344907        80.43057
2015    1       4       0.3502841       81.41798
2015    1       5       0.3444058       80.23448
2015    1       6       0.350688        81.36076
2015    1       7       0.4964193       106.3415
2015    2       0       0.6397952       127.7482
2015    2       1       0.6083908       123.2597
2015    2       2       0.5258395       110.5512
2015    2       3       0.5137112       108.4084
2015    2       4       0.40154         89.98465
2015    2       5       0.3646233       83.49987
2015    2       6       0.4900566       104.3215
2015    2       7       0.5614478       114.5318
2015    3       0       0.4256771       93.73739
2015    3       1       0.3922042       88.1223
2015    3       2       0.362071        82.43492
2015    3       3       0.3510849       80.41943
2015    3       4       0.2895909       69.61596
2015    3       5       0.2374746       59.64573
2015    3       6       0.2465411       61.77168
2015    3       7       0.3285626       77.70708
2015    4       0       0.4019709       90.96535
2015    4       1       0.2678353       65.86242
2015    4       2       0.0874137       26.51381
2015    4       3       0.07423828      23.32278
2015    4       4       0.08040757      25.01304
2015    4       5       0.1374923       38.46994
2015    4       6       0.1997686       52.30309
2015    4       7       0.2728874       67.10933
2015    5       0       0.2678958       66.03186
2015    5       1       0.2290849       58.09168
2015    5       2       0.188503        49.56688
2015    5       3       0.1483401       40.85221
2015    5       4       0.1355601       37.95712
2015    5       5       0.1570708       42.6802
2015    5       6       0.2616903       64.60134
2015    5       7       0.3681994       84.94437
2015    6       0       0.4155516       93.36659
2015    6       1       0.3267667       77.84228
2015    6       2       0.158689        43.57736
2015    6       3       0.09404924      28.1157
2015    6       4       0.1328741       37.07185
2015    6       5       0.1078574       31.45397
2015    6       6       0.1105597       32.27256
2015    6       7       0.1548035       42.3576
2015    7       0       0.1811806       48.04563
2015    7       1       0.1523365       41.5015
2015    7       2       0.1707123       45.31124
2015    7       3       0.1809581       47.71147
2015    7       4       0.2257036       57.05318
2015    7       5       0.2575322       62.98887
2015    7       6       0.4537223       97.36632
2015    7       7       0.3793133       86.48104
2015    8       0       0.3751314       85.55443
2015    8       1       0.2948231       70.62943
2015    8       2       0.2909498       70.1526
2015    8       3       0.3111975       74.04037
2015    8       4       0.4338839       95.62725
2015    8       5       0.4150878       92.3294
2015    8       6       0.2802671       67.58464
2015    8       7       0.3602715       82.58146
2015    9       0       0.3369455       78.3411
2015    9       1       0.2380731       59.44843
2015    9       2       0.2006206       51.71607
2015    9       3       0.2274528       57.33083
2015    9       4       0.1999068       51.69445
2015    9       5       0.1555271       42.15153
2015    9       6       0.1486297       40.69226
2015    9       7       0.2339637       58.99189
2015    10      0       0.2932694       70.46931
2015    10      1       0.29225         70.39488
2015    10      2       0.4815559       104.7049
2015    10      3       0.4393809       96.59168
2015    10      4       0.4575598       99.37391
2015    10      5       0.4715862       101.1465
2015    10      6       0.4923416       104.8304
2015    10      7       0.3625172       82.90603
2015    11      0       0.3644738       83.71321
2015    11      1       0.4344766       95.88927
2015    11      2       0.4965218       106.2688
2015    11      3       0.4211961       93.71173
2015    11      4       0.3966572       88.94843
2015    11      5       0.31888         75.23962
2015    11      6       0.3838588       86.80325
2015    11      7       0.5432648       113.0274
2015    12      0       0.5504079       114.1087
2015    12      1       0.3892621       88.21679
2015    12      2       0.3881229       88.14773
2015    12      3       0.2707048       66.34118
2015    12      4       0.1831934       48.39402
2015    12      5       0.1776506       47.28646
2015    12      6       0.285394        69.18599
2015    12      7       0.4352949       96.46695
2015    13      0       0.3629192       83.97127
2015    13      1       0.3377284       79.70963
2015    13      2       0.3763791       86.61979
2015    13      3       0.3547511       82.51633
2015    13      4       0.3035293       72.51852
2015    13      5       0.2877142       69.20488
2015    13      6       0.4303169       94.87761
2015    13      7       0.4099862       92.36634
2015    14      0       0.4719949       102.908
2015    14      1       0.5179538       110.192
2015    14      2       0.4515822       99.55426
2015    14      3       0.4189434       93.99478
2015    14      4       0.2856576       69.3687
2015    14      5       0.2611979       64.36709
2015    14      6       0.3940804       88.66514
2015    14      7       0.4400936       96.51051
2015    15      0       0.4486593       98.51867
2015    15      1       0.4893742       105.5215
2015    15      2       0.4159983       92.8995
2015    15      3       0.2871342       69.31542
2015    15      4       0.2641602       65.19751
2015    15      5       0.2736515       67.12957
2015    15      6       0.2136031       54.94167
2015    15      7       0.2821608       69.04627
2015    16      0       0.5301436       112.2666
2015    16      1       0.4667125       101.7338
2015    16      2       0.4075729       90.81725
2015    16      3       0.3089007       72.91758
2015    16      4       0.2530077       62.4369
2015    16      5       0.2223983       56.40403
2015    16      6       0.2646493       64.81217
2015    16      7       0.4286599       94.55561
2015    17      0       0.4599457       100.3696
2015    17      1       0.3389709       79.43673
2015    17      2       0.2359653       59.50747
2015    17      3       0.4438833       97.71095
2015    17      4       0.3022919       71.72013
2015    17      5       0.1871824       48.62615
2015    17      6       0.2499709       61.18383
2015    17      7       0.3820185       85.65561
2015    18      0       0.2101736       53.24019
2015    18      1       0.274092        66.40641
2015    18      2       0.1571231       42.36434
2015    18      3       0.04178977      15.16599
2015    18      4       0.04751147      16.50081
2015    18      5       0.06999178      22.01448
2015    18      6       0.1063074       30.62731
2015    18      7       0.1887521       48.74671
2015    19      0       0.2437787       59.69899
2015    19      1       0.1848847       47.82137
2015    19      2       0.2149741       54.14291
2015    19      3       0.1730837       45.60829
2015    19      4       0.05632985      18.86018
2015    19      5       0.04914845      16.88376
2015    19      6       0.07529568      23.31966
2015    19      7       0.1150025       32.84948
2015    20      0       0.1251531       35.19391
2015    20      1       0.1209039       34.21611
2015    20      2       0.1450881       39.85082
2015    20      3       0.1445444       39.83688
2015    20      4       0.1017606       29.86938
2015    20      5       0.07888303      24.37957
2015    20      6       0.06240745      20.30536
2015    20      7       0.141126        38.92922
2015    21      0       0.2504401       61.72636
2015    21      1       0.1851723       48.44451
2015    21      2       0.07893973      24.43339
2015    21      3       0.09425104      28.00398
2015    21      4       0.1062211       30.78518
2015    21      5       0.05831452      19.32941
2015    21      6       0.04884719      16.9587
2015    21      7       0.1500494       40.69057
2015    22      0       0.2787019       67.01215
2015    22      1       0.2225227       56.18012
2015    22      2       0.1323598       37.06706
2015    22      3       0.1358227       37.74739
2015    22      4       0.1531036       41.44962
2015    22      5       0.1579058       42.4445
2015    22      6       0.1651799       43.93251
2015    22      7       0.276441        67.08456
2015    23      0       0.2660208       65.23593
2015    23      1       0.1935277       50.46697
2015    23      2       0.1123644       32.45244
2015    23      3       0.09100749      27.38645
2015    23      4       0.105206        30.51299
2015    23      5       0.1194593       33.70045
2015    23      6       0.1303852       36.21168
2015    23      7       0.2046125       52.47512
2015    24      0       0.2139317       54.34071
2015    24      1       0.161085        43.22178
2015    24      2       0.1546403       41.57724
2015    24      3       0.1522363       40.78981
2015    24      4       0.1412774       38.52149
2015    24      5       0.1451424       39.50404
2015    24      6       0.1631362       43.68149
2015    24      7       0.2381477       59.58395
2015    25      0       0.2544511       62.96288
2015    25      1       0.2115798       54.23485
2015    25      2       0.1745139       46.28117
2015    25      3       0.1730437       45.78841
2015    25      4       0.1524502       41.24042
2015    25      5       0.1423949       38.97434
2015    25      6       0.1835456       48.08812
2015    25      7       0.304655        72.62737
2015    26      0       0.3581886       82.67372
2015    26      1       0.3723002       84.98683
2015    26      2       0.3017205       71.60157
2015    26      3       0.2781401       66.43996
2015    26      4       0.2076713       52.11391
2015    26      5       0.1345597       36.61106
2015    26      6       0.1097943       31.15776
2015    26      7       0.1829736       47.64928
2015    27      0       0.2524971       61.87234
2015    27      1       0.3469546       79.89637
2015    27      2       0.3602906       82.87375
2015    27      3       0.3089189       73.29048
2015    27      4       0.4515891       98.27045
2015    27      5       0.3968839       88.3332
2015    27      6       0.4742419       101.6186
2015    27      7       0.4758614       103.3783
2015    28      0       0.465417        101.7475
2015    28      1       0.3504798       81.82008
2015    28      2       0.176851        47.24751
2015    28      3       0.1310612       36.94444
2015    28      4       0.1289634       36.36269
2015    28      5       0.166417        44.65214
2015    28      6       0.2852025       69.35275
2015    28      7       0.2876907       69.4217
2015    29      0       0.2853164       68.73936
2015    29      1       0.2951451       71.19968
2015    29      2       0.2446476       61.37039
2015    29      3       0.1810966       48.04869
2015    29      4       0.1260373       35.79257
2015    29      5       0.09814536      29.30838
2015    29      6       0.09472903      28.55453
2015    29      7       0.1665635       45.1176
2015    30      0       0.1982231       52.12985
2015    30      1       0.2112272       54.90059
2015    30      2       0.1536328       42.44396
2015    30      3       0.116526        33.92452
2015    30      4       0.1084018       31.87922
2015    30      5       0.1129894       32.84518
2015    30      6       0.1073763       31.57453
2015    30      7       0.1628532       44.21995
2015    31      0       0.2370535       59.86069
2015    31      1       0.2776687       67.82956
2015    31      2       0.1992509       51.8763
2015    31      3       0.2037832       52.46171
2015    31      4       0.2784708       66.76153
2015    31      5       0.28796         68.93154
2015    31      6       0.3692915       83.27745
2015    31      7       0.4664427       99.35782
2016    1       0       0.523232        110.2529
2016    1       1       0.4334231       95.70169
2016    1       2       0.3881527       88.22499
2016    1       3       0.2923026       70.68173
2016    1       4       0.2615492       64.5964
2016    1       5       0.2606994       64.60549
2016    1       6       0.3058439       73.37926
2016    1       7       0.3152029       74.77894
2016    2       0       0.3248924       76.33188
2016    2       1       0.2792108       67.80128
2016    2       2       0.2784959       67.66881
2016    2       3       0.2559172       63.06841
2016    2       4       0.2730497       66.29022
2016    2       5       0.2913232       69.69653
2016    2       6       0.3614201       82.55283
2016    2       7       0.5455273       112.4288
2016    3       0       0.5169798       109.0234
2016    3       1       0.4979852       106.552
2016    3       2       0.5193888       109.8788
2016    3       3       0.449532        98.17051
2016    3       4       0.3640836       83.60933
2016    3       5       0.3142898       74.76383
2016    3       6       0.2584677       64.38287
2016    3       7       0.2708712       67.05497
2016    4       0       0.461044        101.5933
2016    4       1       0.5809586       120.4816
2016    4       2       0.3857314       87.90763
2016    4       3       0.3076695       73.18284
2016    4       4       0.4183792       93.8319
2016    4       5       0.5476392       115.4189
2016    4       6       0.5152667       110.1054
2016    4       7       0.5393045       113.7875
2016    5       0       0.6061146       124.4519
2016    5       1       0.6226193       126.2319
2016    5       2       0.6065893       123.494
2016    5       3       0.4412735       97.6729
2016    5       4       0.4818808       104.0858
2016    5       5       0.6138152       124.4178
2016    5       6       0.5991192       121.7296
2016    5       7       0.6495631       128.696
2016    6       0       0.5983421       122.2627
2016    6       1       0.5655874       117.0528
2016    6       2       0.4090807       92.1121
2016    6       3       0.4347651       96.8971
2016    6       4       0.4322152       96.36916
2016    6       5       0.3927774       89.69401
2016    6       6       0.6404364       127.7672
2016    6       7       0.7855814       145.7594
2016    7       0       0.7238448       138.4839
2016    7       1       0.5941227       120.1773
2016    7       2       0.4520507       98.53842
2016    7       3       0.3819785       86.85101
2016    7       4       0.2841367       69.07901
2016    7       5       0.2311902       58.65926
2016    7       6       0.311005        74.86631
2016    7       7       0.4127358       93.16835
2016    8       0       0.5090819       109.6183
2016    8       1       0.4327393       96.71287
2016    8       2       0.3953814       90.00309
2016    8       3       0.339148        79.58699
2016    8       4       0.3238994       76.65835
2016    8       5       0.3341415       78.34449
2016    8       6       0.4143547       92.14979
2016    8       7       0.4855977       103.8039
2016    9       0       0.3789838       86.46653
2016    9       1       0.2908509       70.33958
2016    9       2       0.1567615       42.97392
2016    9       3       0.1060385       31.3333
2016    9       4       0.08287031      25.72332
2016    9       5       0.07857467      24.65651
2016    9       6       0.1465633       40.84592
2016    9       7       0.2297111       58.89714
2016    10      0       0.3431535       80.93462
2016    10      1       0.4639483       102.0885
2016    10      2       0.3229726       77.10039
2016    10      3       0.1880892       49.9245
2016    10      4       0.1216674       34.82457
2016    10      5       0.1333213       36.54643
2016    10      6       0.1921886       50.12584
2016    10      7       0.317009        75.35448
2016    11      0       0.5338154       112.3687
2016    11      1       0.5456106       114.3335
2016    11      2       0.381539        86.96412
2016    11      3       0.2341574       59.06667
2016    11      4       0.2138051       54.97204
2016    11      5       0.2498845       62.07528
2016    11      6       0.3304996       77.63348
2016    11      7       0.5054476       107.9184
2016    12      0       0.5060937       108.173
2016    12      1       0.4382382       97.32323
2016    12      2       0.4130186       93.10932
2016    12      3       0.3049335       72.94715
2016    12      4       0.1764306       47.06842
2016    12      5       0.2012825       52.13258
2016    12      6       0.1682909       45.51231
2016    12      7       0.2855199       69.25313
2016    13      0       0.4081354       91.4825
2016    13      1       0.4445137       98.39469
2016    13      2       0.365631        84.63837
2016    13      3       0.2016682       52.29606
2016    13      4       0.1329538       36.98151
2016    13      5       0.1659343       43.84187
2016    13      6       0.2346369       58.72642
2016    13      7       0.3369533       78.73941
2016    14      0       0.4983592       106.1001
2016    14      1       0.3735219       85.11489
2016    14      2       0.2628923       64.33781
2016    14      3       0.164978        44.07665
2016    14      4       0.1140814       32.6468
2016    14      5       0.09168471      27.5045
2016    14      6       0.1404129       39.00098
2016    14      7       0.2452752       61.37696
2016    15      0       0.308711        73.60867
2016    15      1       0.291605        70.57695
2016    15      2       0.1663955       44.87231
2016    15      3       0.09521764      28.35217
2016    15      4       0.1453565       39.91362
2016    15      5       0.1882657       49.30323
2016    15      6       0.2171861       55.16257
2016    15      7       0.3225228       75.74073
2016    16      0       0.4568429       99.24849
2016    16      1       0.3569003       82.36228
2016    16      2       0.2736146       66.65484
2016    16      3       0.220476        55.80763
2016    16      4       0.2024025       51.7126
2016    16      5       0.1733951       45.553
2016    16      6       0.1975707       50.70166
2016    16      7       0.3215705       75.71555
2016    17      0       0.3981074       89.57359
2016    17      1       0.3661009       82.84768
2016    17      2       0.2422794       59.32901
2016    17      3       0.2010653       51.34625
2016    17      4       0.1795087       46.98675
2016    17      5       0.1818387       47.43837
2016    17      6       0.2370647       58.72747
2016    17      7       0.3181836       74.22586
2016    18      0       0.2422659       59.8176
2016    18      1       0.1701666       45.05197
2016    18      2       0.1715825       45.5407
2016    18      3       0.1890086       49.26203
2016    18      4       0.1849982       48.4057
2016    18      5       0.159536        42.75299
2016    18      6       0.2962369       70.43839
2016    18      7       0.4478117       97.2424
2016    19      0       0.4023115       89.36246
2016    19      1       0.4356234       95.00255
2016    19      2       0.4293665       94.23925
2016    19      3       0.2297343       57.77751
2016    19      4       0.2086146       53.2144
2016    19      5       0.2053053       52.61115
2016    19      6       0.2281599       57.69364
2016    19      7       0.384568        87.19074
2016    20      0       0.483392        103.5552
2016    20      1       0.2406544       59.45816
2016    20      2       0.2438319       61.0099
2016    20      3       0.1398611       38.77106
2016    20      4       0.1033782       30.46577
2016    20      5       0.08705427      26.56463
2016    20      6       0.1643964       44.59173
2016    20      7       0.2617211       64.67642
2016    21      0       0.2876225       69.84348
2016    21      1       0.1974064       51.35602
2016    21      2       0.1388146       38.32796
2016    21      3       0.1247047       35.00125
2016    21      4       0.1176349       33.49368
2016    21      5       0.1138315       32.73558
2016    21      6       0.1108079       32.09973
2016    21      7       0.1448556       39.99599
2016    22      0       0.2098897       54.10303
2016    22      1       0.2138751       54.83992
2016    22      2       0.1658144       44.48427
2016    22      3       0.1511226       41.15247
2016    22      4       0.1896647       48.94082
2016    22      5       0.2366501       58.19518
2016    22      6       0.23647         58.68749
2016    22      7       0.3878542       87.32244
2016    23      0       0.456154        98.98125
2016    23      1       0.3757975       84.57702
2016    23      2       0.3200118       74.49427
2016    23      3       0.3277817       76.55499
2016    23      4       0.2687769       65.23347
2016    23      5       0.2263225       56.69783
2016    23      6       0.3371863       78.21164
2016    23      7       0.4371231       95.47056
2016    24      0       0.4036001       89.5996
2016    24      1       0.3710255       83.54196
2016    24      2       0.401226        88.96699
2016    24      3       0.2448674       60.2492
2016    24      4       0.2453102       59.88009
2016    24      5       0.2617395       63.38933
2016    24      6       0.3622233       82.5361
2016    24      7       0.456219        97.83743
2016    25      0       0.3318457       76.49307
2016    25      1       0.1664386       43.80357
2016    25      2       0.1239377       34.73095
2016    25      3       0.1192367       33.69192
2016    25      4       0.1152125       32.66636
2016    25      5       0.1250723       34.74638
2016    25      6       0.2076766       52.19935
2016    25      7       0.2994482       70.25711
2016    26      0       0.2579736       62.19365
2016    26      1       0.1661934       43.64309
2016    26      2       0.1193792       33.36077
2016    26      3       0.1352308       36.89343
2016    26      4       0.2969468       69.90098
2016    26      5       0.302556        71.34335
2016    26      6       0.1816342       46.80784
2016    26      7       0.2208097       54.78079
2016    27      0       0.2301255       57.25022
2016    27      1       0.1548116       41.49717
2016    27      2       0.1063719       30.63023
2016    27      3       0.08302314      25.04082
2016    27      4       0.1188778       33.23421
2016    27      5       0.134467        36.83643
2016    27      6       0.1486695       40.13011
2016    27      7       0.2208408       55.56057
2016    28      0       0.2913509       69.37643
2016    28      1       0.3158844       74.06044
2016    28      2       0.2277489       56.87231
2016    28      3       0.2326996       57.57153
2016    28      4       0.2415787       59.30083
2016    28      5       0.2166185       54.48729
2016    28      6       0.2468388       60.47267
2016    28      7       0.2562131       62.89713
2016    29      0       0.2964745       70.89314
2016    29      1       0.3108477       73.65481
2016    29      2       0.2738107       65.60519
2016    29      3       0.3281511       74.26492
2016    29      4       0.2387759       58.48939
2016    29      5       0.2983671       69.87709
2016    29      6       0.3812101       83.88557
2016    29      7       0.406674        88.23507
2016    30      0       0.3184752       73.1294
2016    30      1       0.2061134       52.06876
2016    30      2       0.1933119       49.79053
2016    30      3       0.1883307       49.02032
2016    30      4       0.1729396       45.7546
2016    30      5       0.1645784       43.92434
2016    30      6       0.2334002       58.44614
2016    30      7       0.2834497       67.80468
2016    31      0       0.2980304       69.7724
2016    31      1       0.3000337       70.02226
2016    31      2       0.2131193       53.93893
2016    31      3       0.1899227       49.28543
2016    31      4       0.1456879       39.95735
2016    31      5       0.1235599       35.02915
2016    31      6       0.1587194       42.85261
2016    31      7       0.2630986       64.62262
2017    1       0       0.3522577       80.03446
2017    1       1       0.2114619       53.65754
2017    1       2       0.1494199       40.62716
2017    1       3       0.06517602      20.8633
2017    1       4       0.05750762      18.99045
2017    1       5       0.039479        14.56061
2017    1       6       0.04953305      17.12073
2017    1       7       0.1061478       30.83793
2017    2       0       0.07851587      24.45019
2017    2       1       0.05022665      17.47249
2017    2       2       0.0562401       18.95478
2017    2       3       0.1191749       33.78085
2017    2       4       0.1315057       36.81955
2017    2       5       0.1809082       47.43127
2017    2       6       0.1979571       51.278
2017    2       7       0.3765228       85.6729
2017    3       0       0.420579        93.47719
2017    3       1       0.212335        54.21092
2017    3       2       0.2302051       57.74379
2017    3       3       0.3990083       88.71457
2017    3       4       0.3016263       71.65547
2017    3       5       0.1569395       42.16571
2017    3       6       0.373325        83.63252
2017    3       7       0.3906619       87.94238
2017    4       0       0.3484049       80.70859
2017    4       1       0.1840483       48.35624
2017    4       2       0.1399146       38.8768
2017    4       3       0.248053        61.68934
2017    4       4       0.2003975       51.87802
2017    4       5       0.1819606       47.8484
2017    4       6       0.2722852       66.21095
2017    4       7       0.3998752       89.18594
2017    5       0       0.3870569       86.92845
2017    5       1       0.4107426       91.54225
2017    5       2       0.3168977       74.82641
2017    5       3       0.3398666       78.5284
2017    5       4       0.27559         66.45947
2017    5       5       0.2410795       58.98944
2017    5       6       0.1984809       50.65084
2017    5       7       0.3936744       88.26101
2017    6       0       0.5330161       110.3102
2017    6       1       0.2741066       66.1157
2017    6       2       0.4796817       102.848
2017    6       3       0.2289797       57.66791
2017    6       4       0.1867469       48.67989
2017    6       5       0.1671959       44.1849
2017    6       6       0.2349671       58.37421
2017    6       7       0.506059        106.1086
2017    7       0       0.5435692       111.3636
2017    7       1       0.418345        91.14131
2017    7       2       0.360706        81.80848
2017    7       3       0.2551697       62.49555
2017    7       4       0.2472466       60.85306
2017    7       5       0.3427286       78.39367
2017    7       6       0.4419502       95.17747
2017    7       7       0.4856906       102.175
2017    8       0       0.4660646       100.1339
2017    8       1       0.450653        97.07017
2017    8       2       0.3981854       88.6612
2017    8       3       0.2947731       70.62045
2017    8       4       0.2311328       58.00001
2017    8       5       0.2058305       52.73978
2017    8       6       0.3294419       76.06404
2017    8       7       0.3916198       87.87249
2017    9       0       0.4295728       93.91982
2017    9       1       0.3706206       83.0208
2017    9       2       0.3085753       72.08254
2017    9       3       0.1765048       46.56674
2017    9       4       0.1547872       41.9438
2017    9       5       0.1295125       36.26082
2017    9       6       0.2736843       66.35387
2017    9       7       0.3566146       81.47909
2017    10      0       0.2863443       68.65597
2017    10      1       0.1985331       51.1885
2017    10      2       0.1905393       49.26329
2017    10      3       0.3866443       86.45491
2017    10      4       0.2896257       69.44692
2017    10      5       0.1282139       36.00851
2017    10      6       0.2548992       62.45221
2017    10      7       0.294647        70.62672
2017    11      0       0.2634971       64.23987
2017    11      1       0.1490356       40.44127
2017    11      2       0.1016661       29.77131
2017    11      3       0.281781        67.02359
2017    11      4       0.2925647       69.81698
2017    11      5       0.1520752       40.50749
2017    11      6       0.3221772       75.00956
2017    11      7       0.4543277       96.71182
2017    12      0       0.2499791       60.78137
2017    12      1       0.2805831       66.85226
2017    12      2       0.3274491       75.62922
2017    12      3       0.2675987       64.6953
2017    12      4       0.2151103       54.45445
2017    12      5       0.2047084       52.33247
2017    12      6       0.2147124       54.72336
2017    12      7       0.3579385       81.59592
2017    13      0       0.475242        101.5943
2017    13      1       0.185357        48.18631
2017    13      2       0.1636551       43.33884
2017    13      3       0.1225661       34.48006
2017    13      4       0.1883663       48.65471
2017    13      5       0.2518215       61.6156
2017    13      6       0.2635155       63.81232
2017    13      7       0.3025057       71.68606
2017    14      0       0.2931501       70.19617
2017    14      1       0.2323167       58.4371
2017    14      2       0.1549898       42.00593
2017    14      3       0.1860681       48.66267
2017    14      4       0.2497551       61.96214
2017    14      5       0.2070483       53.12825
2017    14      6       0.2373561       59.19524
2017    14      7       0.4014997       90.21423
2017    15      0       0.5024923       107.3759
2017    15      1       0.5461284       113.6982
2017    15      2       0.3458181       80.09668
2017    15      3       0.179686        47.31095
2017    15      4       0.1111373       31.90144
2017    15      5       0.09908972      29.04315
2017    15      6       0.1075435       31.21297
2017    15      7       0.1771398       46.98274
2017    16      0       0.3177102       74.93199
2017    16      1       0.3878835       87.51011
2017    16      2       0.4377368       95.33537
2017    16      3       0.284333        67.29409
2017    16      4       0.3612334       81.29184
2017    16      5       0.4388963       94.74655
2017    16      6       0.3910078       88.03885
2017    16      7       0.4192871       92.39146
2017    17      0       0.4464083       97.14737
2017    17      1       0.2493056       61.94497
2017    17      2       0.2213638       56.03644
2017    17      3       0.2173654       54.86099
2017    17      4       0.1848632       48.08376
2017    17      5       0.2475343       60.15594
2017    17      6       0.2629732       64.10024
2017    17      7       0.3786339       85.86858
2017    18      0       0.3680096       84.03129
2017    18      1       0.3145521       74.38525
2017    18      2       0.1905586       49.79001
2017    18      3       0.1387496       38.47918
2017    18      4       0.1902406       49.81739
2017    18      5       0.1397131       38.81013
2017    18      6       0.1660343       44.79941
2017    18      7       0.2901574       70.38497
2017    19      0       0.3512939       81.9336
2017    19      1       0.3184483       75.93724
2017    19      2       0.2771616       68.03688
2017    19      3       0.2883872       69.93069
2017    19      4       0.2620934       64.5052
2017    19      5       0.1803821       47.56781
2017    19      6       0.1705617       45.64748
2017    19      7       0.2838916       68.78825
2017    20      0       0.3956089       88.98033
2017    20      1       0.2948253       71.00736
2017    20      2       0.1930477       50.45631
2017    20      3       0.1781405       47.2191
2017    20      4       0.1854265       48.6929
2017    20      5       0.2054317       52.89775
2017    20      6       0.2242785       56.88584
2017    20      7       0.3392463       78.93493
2017    21      0       0.4651323       99.90724
2017    21      1       0.3453898       79.58671
2017    21      2       0.2360231       59.02662
2017    21      3       0.2042066       52.49984
2017    21      4       0.2153375       54.60521
2017    21      5       0.2171849       54.98522
2017    21      6       0.2131584       54.24352
2017    21      7       0.2456457       60.85074
2017    22      0       0.2824599       68.16458
2017    22      1       0.2699233       65.43311
2017    22      2       0.256844        63.32961
2017    22      3       0.2667352       65.35266
2017    22      4       0.2879043       69.44756
2017    22      5       0.2915784       70.0181
2017    22      6       0.2833274       68.14477
2017    22      7       0.3049254       72.41301
2017    23      0       0.2889685       69.07296
2017    23      1       0.2772252       66.75171
2017    23      2       0.3108728       73.00999
2017    23      3       0.265055        64.74222
2017    23      4       0.3079261       73.04401
2017    23      5       0.26906         65.80409
2017    23      6       0.2102289       54.0808
2017    23      7       0.355547        81.76554
2017    24      0       0.3879779       87.40197
2017    24      1       0.3237721       76.04752
2017    24      2       0.2109124       53.68245
2017    24      3       0.2154817       54.31525
2017    24      4       0.1766898       46.05719
2017    24      5       0.1377913       37.64854
2017    24      6       0.241248        59.24301
2017    24      7       0.3690602       83.1113
2017    25      0       0.4277977       93.40484
2017    25      1       0.4271737       93.57227
2017    25      2       0.4085056       90.20618
2017    25      3       0.3639494       82.48915
2017    25      4       0.2098522       53.4974
2017    25      5       0.1582654       42.68929
2017    25      6       0.1300681       36.45464
2017    25      7       0.153922        41.87105
2017    26      0       0.2493372       61.61306
2017    26      1       0.3007793       71.43025
2017    26      2       0.2459314       60.94374
2017    26      3       0.1521891       41.32115
2017    26      4       0.1032448       30.16626
2017    26      5       0.1382963       38.03546
2017    26      6       0.1645234       43.98088
2017    26      7       0.2087522       53.37146
2017    27      0       0.265451        64.95881
2017    27      1       0.2412768       60.14422
2017    27      2       0.1209412       34.40319
2017    27      3       0.1126681       32.48292
2017    27      4       0.1176215       33.50597
2017    27      5       0.1267652       35.53411
2017    27      6       0.145568        39.56675
2017    27      7       0.1677037       44.56316
2017    28      0       0.2624202       64.41673
2017    28      1       0.1720021       45.53282
2017    28      2       0.1474468       40.36382
2017    28      3       0.1241066       35.10412
2017    28      4       0.08959412      27.00999
2017    28      5       0.06192144      20.26081
2017    28      6       0.05953487      19.67802
2017    28      7       0.07649447      23.88696
2017    29      0       0.1077338       31.23055
2017    29      1       0.1245693       35.22097
2017    29      2       0.1112942       32.17696
2017    29      3       0.1238233       34.94694
2017    29      4       0.1424429       39.08756
2017    29      5       0.1268278       35.62393
2017    29      6       0.1139783       32.69625
2017    29      7       0.1821907       47.7659
2017    30      0       0.2284392       57.36072
2017    30      1       0.1818972       47.69666
2017    30      2       0.1622789       43.47975
2017    30      3       0.1673792       44.46832
2017    30      4       0.2009286       51.54397
2017    30      5       0.1515367       40.97487
2017    30      6       0.1563002       41.93942
2017    30      7       0.2851594       68.52143
2017    31      0       0.428963        93.97663
2017    31      1       0.3089746       72.97441
2017    31      2       0.1681269       44.81155
2017    31      3       0.1374027       38.01425
2017    31      4       0.1768872       46.81432
2017    31      5       0.1635303       43.96488
2017    31      6       0.2986129       71.34031
2017    31      7       0.4485082       97.7861
2018    1       0       0.1997978       51.63359
2018    1       1       0.2012669       52.05958
2018    1       2       0.1661081       44.48248
2018    1       3       0.1348713       37.40407
2018    1       4       0.1780848       46.79457
2018    1       5       0.2397035       59.80449
2018    1       6       0.3536113       81.55772
2018    1       7       0.4636475       100.2401
2018    2       0       0.227692        57.15887
2018    2       1       0.2579755       63.53133
2018    2       2       0.2375749       60.05193
2018    2       3       0.2163573       55.76279
2018    2       4       0.2238809       57.18445
2018    2       5       0.197759        51.82364
2018    2       6       0.2404379       60.70799
2018    2       7       0.4178647       94.09729
2018    3       0       0.647431        129.4683
2018    3       1       0.3679898       84.99149
2018    3       2       0.3307031       77.84041
2018    3       3       0.3546116       81.4889
2018    3       4       0.4386633       96.04598
2018    3       5       0.4276925       94.69855
2018    3       6       0.5806062       119.243
2018    3       7       0.5912976       120.5431
2018    4       0       0.2892369       70.07835
2018    4       1       0.1489085       40.98039
2018    4       2       0.09073231      27.61545
2018    4       3       0.1903425       49.81937
2018    4       4       0.1617375       43.85432
2018    4       5       0.1123215       32.52387
2018    4       6       0.1846961       48.70004
2018    4       7       0.3624596       83.2953
2018    5       0       0.5370174       112.1616
2018    5       1       0.4377951       96.42168
2018    5       2       0.2784541       67.69337
2018    5       3       0.1805766       47.72986
2018    5       4       0.1712375       46.07435
2018    5       5       0.2295102       58.10713
2018    5       6       0.3527915       80.60539
2018    5       7       0.4392178       96.94125
2018    6       0       0.4262223       95.41899
2018    6       1       0.5531068       116.4851
2018    6       2       0.2228562       57.39751
2018    6       3       0.1396173       39.31194
2018    6       4       0.1363383       38.28878
2018    6       5       0.2028989       52.78415
2018    6       6       0.3190919       75.84561
2018    6       7       0.4862672       104.7594
2018    7       0       0.3532082       81.93759
2018    7       1       0.2515505       62.85151
2018    7       2       0.2633861       65.40945
2018    7       3       0.3816456       86.60396
2018    7       4       0.1517715       41.2572
2018    7       5       0.1364908       37.90046
2018    7       6       0.2171912       55.19847
2018    7       7       0.3544644       82.34911
2018    8       0       0.3310511       78.23166
2018    8       1       0.2528044       63.22063
2018    8       2       0.2034099       53.05155
2018    8       3       0.1290777       36.45053
2018    8       4       0.1287608       36.43844
2018    8       5       0.1255418       35.4834
2018    8       6       0.1683725       44.87349
2018    8       7       0.2606655       64.3321
2018    9       0       0.2584669       64.32937
2018    9       1       0.287745        69.92798
2018    9       2       0.2980029       71.83149
2018    9       3       0.2605438       64.57915
2018    9       4       0.2498553       62.53361
2018    9       5       0.2829173       69.065
2018    9       6       0.3018208       73.17277
2018    9       7       0.3585718       83.81627
2018    10      0       0.3654788       85.12603
2018    10      1       0.2944683       71.61771
2018    10      2       0.1975301       51.74692
2018    10      3       0.1037997       30.46552
2018    10      4       0.08375433      25.77448
2018    10      5       0.1034925       30.44904
2018    10      6       0.1826971       48.47999
2018    10      7       0.2095086       54.29174
2018    11      0       0.147712        40.12388
2018    11      1       0.05833513      19.38914
2018    11      2       0.06025826      19.85592
2018    11      3       0.06522948      21.09914
2018    11      4       0.0727922       22.91512
2018    11      5       0.07379497      23.14072
2018    11      6       0.06503655      21.05368
2018    11      7       0.07826132      24.47247
2018    12      0       0.0744957       23.5793
2018    12      1       0.05727747      19.26215
2018    12      2       0.05216033      17.98751
2018    12      3       0.04607528      16.42151
2018    12      4       0.04295529      15.62706
2018    12      5       0.04226041      15.4402
2018    12      6       0.04248993      15.50363
2018    12      7       0.0411952       15.18281
2018    13      0       0.04112209      15.16672
2018    13      1       0.04168675      15.27541
2018    13      2       0.0412476       15.15882
2018    13      3       0.04630112      16.39487
2018    13      4       0.06028216      19.85595
2018    13      5       0.0517255       17.66985
2018    13      6       0.06973511      22.26583
2018    13      7       0.1203201       34.49999
2018    14      0       0.1986173       51.08776
2018    14      1       0.1543009       41.68447
2018    14      2       0.1543132       41.96638
2018    14      3       0.1830411       48.33523
2018    14      4       0.2134299       54.61911
2018    14      5       0.2602122       64.1535
2018    14      6       0.3691181       84.98983
2018    14      7       0.5135688       109.6224
2018    15      0       0.5420452       113.8147
2018    15      1       0.4783368       104.6018
2018    15      2       0.4042291       91.84557
2018    15      3       0.3237847       76.94091
2018    15      4       0.3280095       77.4983
2018    15      5       0.2882829       69.59101
2018    15      6       0.3896524       88.06524
2018    15      7       0.5133787       108.4259
2018    16      0       0.3443746       80.23759
2018    16      1       0.2677148       65.74128
2018    16      2       0.2039857       52.38379
2018    16      3       0.1800183       47.12341
2018    16      4       0.1991814       51.18856
2018    16      5       0.2348585       58.48237
2018    16      6       0.2417917       60.14531
2018    16      7       0.3437229       79.70459
2018    17      0       0.4901165       104.9675
2018    17      1       0.4807376       103.3243
2018    17      2       0.4863844       104.1865
2018    17      3       0.4264221       94.57955
2018    17      4       0.4176442       93.67315
2018    17      5       0.3526949       82.22396
2018    17      6       0.3459111       80.34047
2018    17      7       0.5533683       114.0524
2018    18      0       0.5670754       117.0486
2018    18      1       0.4547064       99.89793
2018    18      2       0.4774896       103.3691
2018    18      3       0.2866743       69.27391
2018    18      4       0.2599023       64.07404
2018    18      5       0.2694636       66.14933
2018    18      6       0.3656614       84.05405
2018    18      7       0.4594499       100.9206
2018    19      0       0.2734103       66.58277
2018    19      1       0.1466337       40.20273
2018    19      2       0.1347058       37.47795
2018    19      3       0.1360318       37.61916
2018    19      4       0.1558091       41.90196
2018    19      5       0.2074452       53.07039
2018    19      6       0.2900426       69.7819
2018    19      7       0.3589966       81.9457
2018    20      0       0.2964208       70.85853
2018    20      1       0.116102        33.47788
2018    20      2       0.06930135      22.20469
2018    20      3       0.05522878      18.69815
2018    20      4       0.05076144      17.50584
2018    20      5       0.05485437      18.52506
2018    20      6       0.06517378      21.07137
2018    20      7       0.1166988       33.44536
2018    21      0       0.219728        55.85483
2018    21      1       0.1636359       44.06636
2018    21      2       0.165777        44.49231
2018    21      3       0.2043506       52.82059
2018    21      4       0.2581409       63.84527
2018    21      5       0.3689529       83.51174
2018    21      6       0.3684621       83.17641
2018    21      7       0.4300353       93.76881
2018    22      0       0.3089558       72.71026
2018    22      1       0.3866435       86.71623
2018    22      2       0.3959092       88.46254
2018    22      3       0.3472913       80.20307
2018    22      4       0.3009191       71.76854
2018    22      5       0.2626245       64.23208
2018    22      6       0.4282378       94.98843
2018    22      7       0.4784122       103.0536
2018    23      0       0.550508        113.6356
2018    23      1       0.41871         93.27645
2018    23      2       0.323376        76.17849
2018    23      3       0.1815382       47.62142
2018    23      4       0.1546574       41.81332
2018    23      5       0.1835582       48.24983
2018    23      6       0.1398771       38.60161
2018    23      7       0.2039216       52.67502
2018    24      0       0.1838157       48.40614
2018    24      1       0.1517267       41.29887
2018    24      2       0.1218259       34.66459
2018    24      3       0.09730906      29.01073
2018    24      4       0.06644911      21.5034
2018    24      5       0.04961087      17.24603
2018    24      6       0.08174267      25.18519
2018    24      7       0.2043522       52.5896
2018    25      0       0.3552971       81.65272
2018    25      1       0.3507942       81.32236
2018    25      2       0.3398672       79.40997
2018    25      3       0.3762064       85.967
2018    25      4       0.3719548       84.96733
2018    25      5       0.3729905       85.12406
2018    25      6       0.4345913       95.6926
2018    25      7       0.464169        100.4004
2018    26      0       0.402566        89.38329
2018    26      1       0.2809903       67.71132
2018    26      2       0.3033121       71.57153
2018    26      3       0.2670938       64.80901
2018    26      4       0.2063281       52.88366
2018    26      5       0.1621449       43.55089
2018    26      6       0.2358184       59.08605
2018    26      7       0.3543154       82.13559
2018    27      0       0.2491289       61.57898
2018    27      1       0.1556363       41.62565
2018    27      2       0.1393307       38.00696
2018    27      3       0.09015369      26.90727
2018    27      4       0.07861028      24.20806
2018    27      5       0.07202681      22.64634
2018    27      6       0.09046586      27.24681
2018    27      7       0.1234063       35.13949
2018    28      0       0.1352924       37.77982
2018    28      1       0.136365        37.86755
2018    28      2       0.1238278       34.8783
2018    28      3       0.1065446       30.98622
2018    28      4       0.1335944       37.01986
2018    28      5       0.1224258       34.34532
2018    28      6       0.06689823      21.35533
2018    28      7       0.1180153       33.40018
2018    29      0       0.2149475       54.27193
2018    29      1       0.1326514       36.80071
2018    29      2       0.09090543      27.20633
2018    29      3       0.0832792       25.36869
2018    29      4       0.05622449      18.7716
2018    29      5       0.05962721      19.59258
2018    29      6       0.09132718      27.41289
2018    29      7       0.20208         51.88432
2018    30      0       0.2047102       52.50606
2018    30      1       0.1189025       33.89245
2018    30      2       0.1264341       35.13293
2018    30      3       0.173008        45.64475
2018    30      4       0.1661122       44.09821
2018    30      5       0.1399024       38.18932
2018    30      6       0.1227316       34.56051
2018    30      7       0.160742        42.95656
2018    31      0       0.2429615       59.9417
2018    31      1       0.2848543       68.02871
2018    31      2       0.2235505       55.77069
2018    31      3       0.1827996       47.50748
2018    31      4       0.1322886       36.59231
2018    31      5       0.1366356       37.35864
2018    31      6       0.232494        57.79867
2018    31      7       0.3867327       87.09055
