####################################################################################################
# Month: 02Feb                                                                                     #
# Station: ALI                                                                                     #
# Frequency: 345 GHz                                                                               #
# Columns are: year    day     tau     Tb (K)                                                      #
####################################################################################################
2009    1       0.15446625      40.90081
2009    2       0.15906505      41.8589775
2009    3       0.18682128      47.7460125
2009    4       0.10645843      30.87880125
2009    5       0.18189729      46.41262
2009    6       0.17319369      44.47668125
2009    7       0.12114904      33.8058525
2009    8       0.11951076      33.78958
2009    9       0.24532641      58.72449
2009    10      0.28716361      66.91193
2009    11      0.17226941      44.4505975
2009    12      0.22068029      54.61052375
2009    13      0.25276451      60.7790375
2009    14      0.18149419      46.3874125
2009    15      0.08736791      26.6660025
2009    16      0.09042452      27.21252125
2009    17      0.1648032       42.99714625
2009    18      0.12297559      34.169935
2009    19      0.11385949      32.50414
2009    20      0.16547152      43.14689125
2009    21      0.1186956       33.0704075
2009    22      0.1581389       41.34600875
2009    23      0.21436606      53.00640375
2009    24      0.18643646      47.21766
2009    25      0.15731619      41.2671325
2009    26      0.13672191      37.0993675
2009    27      0.12523628      34.47220875
2009    28      0.08921225      26.6379375
2010    1       0.14403636      38.463985
2010    2       0.11136829      31.62787375
2010    3       0.1202079       33.5898025
2010    4       0.1390726       37.6864025
2010    5       0.21775299      53.86115
2010    6       0.27282378      64.93523875
2010    7       0.30207759      70.081565
2010    8       0.34774812      78.09239
2010    9       0.19847678      49.51974125
2010    10      0.1389118       37.39487625
2010    11      0.21434422      52.9217
2010    12      0.17158701      44.31254625
2010    13      0.14396206      38.70312625
2010    14      0.13965991      37.640205
2010    15      0.12748569      35.03541125
2010    16      0.11147319      31.69176125
2010    17      0.09733901      28.43345375
2010    18      0.15559433      41.0152325
2010    19      0.14912688      40.07528375
2010    20      0.1790427       46.33275375
2010    21      0.17435162      45.54670875
2010    22      0.20801765      52.2090975
2010    23      0.21233996      52.86864
2010    24      0.20978729      52.19619125
2010    25      0.1799005       46.60329875
2010    26      0.2072755       52.16413125
2010    27      0.2081296       52.09244875
2010    28      0.26681455      63.50535625
2011    1       0.13417348      36.70173625
2011    2       0.12218672      34.61664375
2011    3       0.2425968       59.44157
2011    4       0.30879239      71.4462125
2011    5       0.24311367      58.62164125
2011    6       0.29282709      68.11151625
2011    7       0.30686335      70.61944125
2011    8       0.10292666      30.14747875
2011    9       0.11069095      31.75685625
2011    10      0.09689488      28.6552625
2011    11      0.15876006      42.0851175
2011    12      0.24316032      59.38505875
2011    13      0.31153499      71.45120625
2011    14      0.14904888      40.01094375
2011    15      0.1710139       44.30621875
2011    16      0.19072169      48.0872825
2011    17      0.13649189      36.93627375
2011    18      0.13089116      35.90136125
2011    19      0.16361789      42.75222375
2011    20      0.12893492      35.341215
2011    21      0.13030105      35.9975675
2011    22      0.1766751       45.6582975
2011    23      0.18924431      48.00026875
2011    24      0.14801981      39.26526375
2011    25      0.13704572      36.9327775
2011    26      0.12705186      34.733095
2011    27      0.0984905       28.68682375
2011    28      0.14985334      39.7671075
2012    1       0.08347465      25.50569375
2012    2       0.1279366       35.4248625
2012    3       0.19565672      49.38811125
2012    4       0.22225442      54.50424125
2012    5       0.15844569      41.7970525
2012    6       0.13499984      36.986985
2012    7       0.14678924      39.3035775
2012    8       0.15440315      40.6191775
2012    9       0.08894955      26.81177375
2012    10      0.11742874      32.94117
2012    11      0.11998967      33.24816125
2012    12      0.17182578      44.15442875
2012    13      0.19194311      48.306055
2012    14      0.13564389      36.9454875
2012    15      0.11643146      32.64122375
2012    16      0.11162927      31.43976125
2012    17      0.11962828      33.23712875
2012    18      0.24038004      58.30183375
2012    19      0.22424466      55.2377225
2012    20      0.2355514       57.17096875
2012    21      0.20641885      51.5097625
2012    22      0.19115881      48.58484375
2012    23      0.16485824      43.07837125
2012    24      0.14191343      38.23824625
2012    25      0.1608227       41.9770225
2012    26      0.15008068      40.06808625
2012    27      0.22749542      55.90339
2012    28      0.18237109      46.349665
2012    29      0.12578751      34.744855
2013    1       0.13534777      36.94137625
2013    2       0.21215755      52.87692875
2013    3       0.17447486      45.0928575
2013    4       0.28010777      65.82022125
2013    5       0.27636941      64.94952125
2013    6       0.14416395      38.57577875
2013    7       0.06931597      22.22207625
2013    8       0.06071954      20.29808375
2013    9       0.12610246      34.87184875
2013    10      0.1352408       36.8416925
2013    11      0.12027605      33.59937875
2013    12      0.15552102      41.01884
2013    13      0.1349495       36.65116875
2013    14      0.1647796       42.9849925
2013    15      0.21723545      53.35608875
2013    16      0.21548399      53.10726125
2013    17      0.12966014      35.43010125
2013    18      0.1178326       33.244385
2013    19      0.12208716      34.107145
2013    20      0.14486624      38.85925
2013    21      0.19707064      49.2003075
2013    22      0.22187665      54.41782
2013    23      0.24507907      59.14665875
2013    24      0.19459962      49.53188625
2013    25      0.20528598      51.5636325
2013    26      0.18878726      48.1494925
2013    27      0.19869029      49.63707
2013    28      0.13426831      36.5902575
2014    1       0.16309146      42.917475
2014    2       0.18267631      46.91168125
2014    3       0.24000246      57.980765
2014    4       0.20354042      50.82403375
2014    5       0.15978442      41.78105625
2014    6       0.19712498      49.34871375
2014    7       0.23146391      56.0354675
2014    8       0.10986681      31.45969875
2014    9       0.09944087      29.19759
2014    10      0.1330948       36.19081125
2014    11      0.12325345      33.98025375
2014    12      0.12153554      33.792545
2014    13      0.12994884      35.7023375
2014    14      0.19155676      48.18231
2014    15      0.16512729      42.64289625
2014    16      0.09654469      28.18310375
2014    17      0.09200368      27.4113825
2014    18      0.10266064      30.0061525
2014    19      0.18120081      46.3403175
2014    20      0.13254505      36.28338
2014    21      0.13467459      36.61495125
2014    22      0.1609596       42.0471375
2014    23      0.12662012      35.1486475
2014    24      0.1497026       39.93069
2014    25      0.15121844      40.09383625
2014    26      0.15274781      40.25902625
2014    27      0.13378524      36.43393375
2014    28      0.13091921      35.8079925
2015    1       0.18498912      47.0539625
2015    2       0.19775874      49.60354875
2015    3       0.22424811      54.66515625
2015    4       0.11766721      33.31498875
2015    5       0.10262959      30.12693125
2015    6       0.10981229      31.3877725
2015    7       0.17061258      44.1993925
2015    8       0.17477606      44.8775275
2015    9       0.09032325      27.1719825
2015    10      0.0776397       24.5003825
2015    11      0.1141371       32.31430625
2015    12      0.1072724       30.96447125
2015    13      0.2051494       51.07798625
2015    14      0.20574354      51.199555
2015    15      0.14747739      39.6768275
2015    16      0.23462782      57.3368225
2015    17      0.18965059      48.1944775
2015    18      0.19254696      48.5306075
2015    19      0.23390029      56.3124175
2015    20      0.20862092      51.9483325
2015    21      0.18247808      47.1456625
2015    22      0.21314911      53.27865375
2015    23      0.24253092      59.292365
2015    24      0.26805881      64.06536875
2015    25      0.31255879      71.32972625
2015    26      0.24195139      58.33236125
2015    27      0.18166781      46.3225725
2015    28      0.19008791      47.91356125
2016    1       0.09469547      28.26736875
2016    2       0.11224948      32.05335875
2016    3       0.12225233      34.33038875
2016    4       0.17565701      45.826245
2016    5       0.20314595      51.63210875
2016    6       0.17581679      45.9731725
2016    7       0.19067475      48.5792675
2016    8       0.13605105      37.44943375
2016    9       0.17646116      45.634775
2016    10      0.18077659      46.3809825
2016    11      0.173517        44.37163875
2016    12      0.13608592      36.92690125
2016    13      0.1461934       39.055135
2016    14      0.13737027      37.43184375
2016    15      0.14962144      39.7569025
2016    16      0.13190278      36.1041125
2016    17      0.12614126      35.11405875
2016    18      0.12907348      36.0194775
2016    19      0.2463701       59.2043875
2016    20      0.21978136      54.34578125
2016    21      0.18431009      47.1150125
2016    22      0.17558645      45.146355
2016    23      0.15917218      41.67442
2016    24      0.08993666      27.11873625
2016    25      0.12233272      34.4271225
2016    26      0.08922196      27.4365
2016    27      0.07734449      24.6799075
2016    28      0.09752212      29.1279275
2016    29      0.15659205      41.57444625
2017    1       0.16221934      42.6607525
2017    2       0.21678212      53.86024375
2017    3       0.27685765      65.90934375
2017    4       0.25897986      61.8963575
2017    5       0.3267595       74.2929475
2017    6       0.15340539      40.64294625
2017    7       0.15544072      41.017325
2017    8       0.2439712       58.572615
2017    9       0.11997846      33.520945
2017    10      0.09922932      29.29661125
2017    11      0.12266201      34.42931875
2017    12      0.13069611      36.1285275
2017    13      0.11839905      33.38189375
2017    14      0.15417959      41.01063375
2017    15      0.24073909      58.85019875
2017    16      0.27374025      65.1779225
2017    17      0.26418334      63.1855675
2017    18      0.34207462      78.20304375
2017    19      0.31640116      72.5086
2017    20      0.24463636      58.73848
2017    21      0.22617095      55.24319625
2017    22      0.13763184      37.5485875
2017    23      0.12382419      34.41361625
2017    24      0.13642718      37.2269675
2017    25      0.20398126      50.86295125
2017    26      0.12080443      33.821475
2017    27      0.09046019      27.4179625
2017    28      0.24544935      59.1523825
2018    1       0.11474355      33.10627875
2018    2       0.12877808      35.9156275
2018    3       0.11503801      32.86163375
2018    4       0.11873883      32.94348
2018    5       0.38327434      83.6917575
2018    6       0.17355272      44.33015875
2018    7       0.13105927      36.19525125
2018    8       0.10705785      31.06938
2018    9       0.13252251      36.31412375
2018    10      0.13264872      36.3785475
2018    11      0.20384265      50.662135
2018    12      0.28776681      66.75291875
2018    13      0.1344384       36.47398125
2018    14      0.14502338      39.3456325
2018    15      0.30423166      69.93614125
2018    16      0.16631551      43.3836375
2018    17      0.20084836      50.2158225
2018    18      0.12306418      34.65202375
2018    19      0.08274894      25.66275375
2018    20      0.17508029      45.57281
2018    21      0.23299852      56.9444175
2018    22      0.17879028      45.93016125
2018    23      0.19535436      49.23914
2018    24      0.30914007      71.06555375
2018    25      0.19626164      49.47989375
2018    26      0.17883851      47.0579575
2018    27      0.24765259      59.96563125
2018    28      0.21098499      52.7464
