####################################################################################################
# Month: 12Dec                                                                                     #
# Station: HAN                                                                                     #
# Frequency: 345 GHz                                                                               #
# Columns are: year    day     segment         tau     Tb (K)                                      #
####################################################################################################
2009    1       0       0.3070033       72.66022
2009    1       1       0.2895411       69.32066
2009    1       2       0.24119         59.83
2009    1       3       0.2499206       61.55507
2009    1       4       0.2814448       67.65954
2009    1       5       0.2446367       61.02888
2009    1       6       0.1859472       49.30766
2009    1       7       0.1502525       41.63765
2009    2       0       0.1322234       37.49455
2009    2       1       0.129491        36.79819
2009    2       2       0.1299849       36.65701
2009    2       3       0.1460722       40.08579
2009    2       4       0.1651255       44.17661
2009    2       5       0.1622051       43.66377
2009    2       6       0.1706183       45.33035
2009    2       7       0.1975065       50.7474
2009    3       0       0.2251037       56.02776
2009    3       1       0.193265        49.68103
2009    3       2       0.1473947       40.43328
2009    3       3       0.1420783       39.42328
2009    3       4       0.1540064       42.11096
2009    3       5       0.1627466       43.66623
2009    3       6       0.2277806       56.58954
2009    3       7       0.268509        64.85252
2009    4       0       0.3079166       71.97771
2009    4       1       0.3821636       84.81224
2009    4       2       0.4540331       96.96285
2009    4       3       0.395962        87.89314
2009    4       4       0.3367359       77.76688
2009    4       5       0.3321946       77.03044
2009    4       6       0.3488178       80.08979
2009    4       7       0.2730799       66.22679
2009    5       0       0.1764311       46.82942
2009    5       1       0.1405586       39.00477
2009    5       2       0.1496292       41.04947
2009    5       3       0.1341556       37.8025
2009    5       4       0.1666008       44.7915
2009    5       5       0.1378692       38.49444
2009    5       6       0.101836        30.5471
2009    5       7       0.08284626      26.11059
2009    6       0       0.0795368       25.29617
2009    6       1       0.08888123      27.33176
2009    6       2       0.1011345       30.07507
2009    6       3       0.1129399       32.79335
2009    6       4       0.1304394       36.73188
2009    6       5       0.1000921       29.98191
2009    6       6       0.1030421       30.40286
2009    6       7       0.1112238       32.11586
2009    7       0       0.1150369       32.95448
2009    7       1       0.1098728       31.95284
2009    7       2       0.1066824       31.41765
2009    7       3       0.11845         34.02476
2009    7       4       0.1421259       39.19703
2009    7       5       0.1394044       38.54928
2009    7       6       0.1253434       35.46471
2009    7       7       0.1340349       37.38386
2009    8       0       0.1436797       39.50053
2009    8       1       0.1460421       39.70659
2009    8       2       0.1518187       41.13807
2009    8       3       0.1581107       42.56949
2009    8       4       0.174252        45.95221
2009    8       5       0.2045123       51.64242
2009    8       6       0.2452052       59.74106
2009    8       7       0.264682        63.86309
2009    9       0       0.3872423       85.80089
2009    9       1       0.4536807       97.08811
2009    9       2       0.5179461       107.0008
2009    9       3       0.5891699       117.3443
2009    9       4       0.525825        107.7925
2009    9       5       0.5318714       109.105
2009    9       6       0.5734809       115.3266
2009    9       7       0.5563266       112.6947
2009    10      0       0.5285259       108.4443
2009    10      1       0.443335        95.64163
2009    10      2       0.4731999       99.7334
2009    10      3       0.3698096       83.1904
2009    10      4       0.3560468       81.19207
2009    10      5       0.3924375       87.03338
2009    10      6       0.4595106       97.48012
2009    10      7       0.4432747       94.70566
2009    11      0       0.3958893       87.21599
2009    11      1       0.2846578       67.57144
2009    11      2       0.2051282       52.05042
2009    11      3       0.2506561       60.78282
2009    11      4       0.3196465       73.45236
2009    11      5       0.3536092       79.43781
2009    11      6       0.2771115       65.77418
2009    11      7       0.2840826       67.20629
2009    12      0       0.2952784       69.35622
2009    12      1       0.3387429       76.99184
2009    12      2       0.391684        86.02128
2009    12      3       0.4543203       96.4568
2009    12      4       0.4367497       93.82478
2009    12      5       0.4256356       91.77468
2009    12      6       0.4319827       92.99408
2009    12      7       0.3833128       84.72337
2009    13      0       0.3741695       83.01172
2009    13      1       0.3120795       72.06103
2009    13      2       0.2836593       66.98234
2009    13      3       0.2616287       62.95932
2009    13      4       0.2506408       60.90611
2009    13      5       0.2158014       54.40543
2009    13      6       0.139404        38.56342
2009    13      7       0.08503916      26.3376
2009    14      0       0.0868921       26.74317
2009    14      1       0.08322494      25.90011
2009    14      2       0.1226233       34.73782
2009    14      3       0.1770733       46.08721
2009    14      4       0.2592945       62.44442
2009    14      5       0.3483477       78.56379
2009    14      6       0.4545813       95.9997
2009    14      7       0.4846296       100.5888
2009    15      0       0.4460643       95.12803
2009    15      1       0.4164421       90.35272
2009    15      2       0.3721539       83.13256
2009    15      3       0.3220209       74.28431
2009    15      4       0.2948527       69.60223
2009    15      5       0.2571085       62.48013
2009    15      6       0.2298262       57.17298
2009    15      7       0.1651818       44.04064
2009    16      0       0.1094796       32.02195
2009    16      1       0.09781825      29.33021
2009    16      2       0.1433539       39.39363
2009    16      3       0.1370185       37.72196
2009    16      4       0.1612855       42.84054
2009    16      5       0.1962899       50.10476
2009    16      6       0.1855487       48.19465
2009    16      7       0.1365739       37.71183
2009    17      0       0.1324073       36.73156
2009    17      1       0.1466033       39.83899
2009    17      2       0.1737707       45.52722
2009    17      3       0.1717852       45.09858
2009    17      4       0.1914944       49.23289
2009    17      5       0.1956022       50.28627
2009    17      6       0.1739238       45.67431
2009    17      7       0.1427899       38.90101
2009    18      0       0.1330157       36.72807
2009    18      1       0.1318219       36.63865
2009    18      2       0.1581276       42.13989
2009    18      3       0.1766944       45.79457
2009    18      4       0.1934102       49.23263
2009    18      5       0.1877342       48.41168
2009    18      6       0.1708704       45.29317
2009    18      7       0.093739        28.46076
2009    19      0       0.07740242      24.45122
2009    19      1       0.1365372       37.89735
2009    19      2       0.1295917       36.27981
2009    19      3       0.143093        39.13605
2009    19      4       0.1735973       45.38914
2009    19      5       0.1868022       48.10811
2009    19      6       0.2142958       53.63901
2009    19      7       0.2641899       63.38978
2009    20      0       0.2458572       60.04238
2009    20      1       0.2498028       60.66051
2009    20      2       0.3405751       77.0641
2009    20      3       0.2800275       66.37054
2009    20      4       0.2523296       61.00576
2009    20      5       0.2653029       63.2447
2009    20      6       0.2530941       61.0157
2009    20      7       0.2011767       51.06606
2009    21      0       0.1654723       43.69143
2009    21      1       0.1398007       37.99265
2009    21      2       0.1913348       48.67934
2009    21      3       0.2233045       55.26627
2009    21      4       0.2513456       60.67039
2009    21      5       0.255621        61.53128
2009    21      6       0.2400815       58.44994
2009    21      7       0.218943        54.327
2009    22      0       0.2000175       50.58141
2009    22      1       0.1819817       47.20924
2009    22      2       0.1671132       44.34535
2009    22      3       0.1641994       43.60282
2009    22      4       0.1647715       43.70735
2009    22      5       0.1583298       42.54833
2009    22      6       0.1596466       42.85514
2009    22      7       0.1610065       43.03845
2009    23      0       0.1354831       37.45993
2009    23      1       0.1139129       32.60286
2009    23      2       0.1414952       38.44788
2009    23      3       0.1439961       38.93134
2009    23      4       0.1441449       39.02767
2009    23      5       0.14575         39.49871
2009    23      6       0.1458991       39.5084
2009    23      7       0.1437998       39.01512
2009    24      0       0.1443089       39.07493
2009    24      1       0.1384374       37.83865
2009    24      2       0.1326159       36.65973
2009    24      3       0.1174693       33.50409
2009    24      4       0.09916453      29.66296
2009    24      5       0.1008858       29.99688
2009    24      6       0.09666859      28.66515
2009    24      7       0.1173221       33.31504
2009    25      0       0.1299303       36.06547
2009    25      1       0.1359335       37.47294
2009    25      2       0.1421005       38.87305
2009    25      3       0.1563564       41.96689
2009    25      4       0.1668269       44.18467
2009    25      5       0.1748295       45.84309
2009    25      6       0.1821167       47.21284
2009    25      7       0.2243849       55.65415
2009    26      0       0.2618775       62.97315
2009    26      1       0.276499        65.65278
2009    26      2       0.2723044       64.66415
2009    26      3       0.2888417       67.80352
2009    26      4       0.2910835       68.58142
2009    26      5       0.2741183       65.83921
2009    26      6       0.2663262       64.1433
2009    26      7       0.2295091       56.84494
2009    27      0       0.1985063       50.68511
2009    27      1       0.1772388       46.18031
2009    27      2       0.1918734       48.93422
2009    27      3       0.2175186       54.0256
2009    27      4       0.2613581       62.56956
2009    27      5       0.2657993       63.49163
2009    27      6       0.2318819       56.9391
2009    27      7       0.2157506       53.57703
2009    28      0       0.2229399       54.98622
2009    28      1       0.2071606       52.16094
2009    28      2       0.1778317       46.43987
2009    28      3       0.1663347       44.14539
2009    28      4       0.1902683       49.04471
2009    28      5       0.2228636       55.58868
2009    28      6       0.1925709       49.56289
2009    28      7       0.1693616       44.48506
2009    29      0       0.1805888       46.76153
2009    29      1       0.2258147       56.16631
2009    29      2       0.2321092       57.55532
2009    29      3       0.2390329       58.97056
2009    29      4       0.2790318       66.40253
2009    29      5       0.323698        74.29273
2009    29      6       0.3575841       80.0003
2009    29      7       0.340135        76.8896
2009    30      0       0.3078311       71.18495
2009    30      1       0.2900211       68.08793
2009    30      2       0.2719053       64.3919
2009    30      3       0.2453662       59.453
2009    30      4       0.2583631       62.01258
2009    30      5       0.2105704       53.01561
2009    30      6       0.1675217       44.40926
2009    30      7       0.1489361       40.50982
2009    31      0       0.09957687      29.71334
2009    31      1       0.06970599      22.95555
2009    31      2       0.08420923      26.39653
2009    31      3       0.07307438      23.77632
2009    31      4       0.07531061      24.2387
2009    31      5       0.07999015      25.30781
2009    31      6       0.08748265      26.99405
2009    31      7       0.09710482      29.16995
2010    1       0       0.09580647      29.36367
2010    1       1       0.07385584      24.10654
2010    1       2       0.1047158       31.25717
2010    1       3       0.1234405       35.40882
2010    1       4       0.1384617       38.69582
2010    1       5       0.1406181       39.2973
2010    1       6       0.1249445       35.80207
2010    1       7       0.1012936       30.38577
2010    2       0       0.0975384       29.38494
2010    2       1       0.1018375       30.2614
2010    2       2       0.1198628       34.30646
2010    2       3       0.1239675       35.23866
2010    2       4       0.1197906       34.44992
2010    2       5       0.1105788       32.52305
2010    2       6       0.103435        30.96288
2010    2       7       0.1000606       30.26049
2010    3       0       0.09514908      29.12822
2010    3       1       0.09137418      28.28951
2010    3       2       0.09714042      29.55701
2010    3       3       0.1109228       32.73187
2010    3       4       0.1186635       34.5154
2010    3       5       0.1387094       38.87645
2010    3       6       0.1529313       41.8983
2010    3       7       0.1543248       42.09808
2010    4       0       0.1645534       44.16925
2010    4       1       0.2073687       52.86328
2010    4       2       0.2299994       57.09441
2010    4       3       0.243981        59.95925
2010    4       4       0.2345914       58.4535
2010    4       5       0.2444613       60.81672
2010    4       6       0.2438577       60.44695
2010    4       7       0.2351439       58.82303
2010    5       0       0.2000759       51.75035
2010    5       1       0.1359418       38.21104
2010    5       2       0.1534759       41.96579
2010    5       3       0.1672255       44.81932
2010    5       4       0.1975666       51.1916
2010    5       5       0.2193334       55.76955
2010    5       6       0.1864441       49.00691
2010    5       7       0.1521731       41.58356
2010    6       0       0.1482818       40.72695
2010    6       1       0.1761399       46.93074
2010    6       2       0.1490083       41.29735
2010    6       3       0.163312        44.13479
2010    6       4       0.1674687       45.10018
2010    6       5       0.1587395       43.63713
2010    6       6       0.1354071       38.66654
2010    6       7       0.135359        38.63372
2010    7       0       0.1404567       39.67259
2010    7       1       0.1362556       38.69261
2010    7       2       0.1166393       34.37356
2010    7       3       0.1288025       36.91902
2010    7       4       0.1357197       38.46153
2010    7       5       0.1227513       35.83275
2010    7       6       0.07578548      24.71814
2010    7       7       0.07898719      25.41971
2010    8       0       0.08343672      26.42219
2010    8       1       0.08760555      27.3988
2010    8       2       0.1158777       33.89962
2010    8       3       0.1471972       40.86848
2010    8       4       0.1620702       44.0243
2010    8       5       0.1383552       38.89311
2010    8       6       0.1183753       34.45789
2010    8       7       0.1068952       31.87129
2010    9       0       0.1236173       35.59755
2010    9       1       0.1766214       46.81988
2010    9       2       0.1846577       48.34543
2010    9       3       0.2098242       53.58079
2010    9       4       0.2391691       59.26013
2010    9       5       0.2644879       63.93354
2010    9       6       0.2439232       59.9799
2010    9       7       0.2389784       59.02213
2010    10      0       0.2426621       59.75642
2010    10      1       0.2240792       56.11573
2010    10      2       0.2196562       55.24774
2010    10      3       0.2153768       54.54622
2010    10      4       0.2187623       55.20048
2010    10      5       0.2075305       53.0425
2010    10      6       0.2005889       51.63724
2010    10      7       0.1866565       48.82523
2010    11      0       0.1753232       46.48521
2010    11      1       0.1626009       43.79333
2010    11      2       0.1559056       42.36854
2010    11      3       0.1561252       42.44167
2010    11      4       0.1574708       42.68657
2010    11      5       0.1179645       34.24458
2010    11      6       0.09768025      29.5671
2010    11      7       0.09051479      27.88256
2010    12      0       0.08157483      25.73928
2010    12      1       0.07682257      24.56983
2010    12      2       0.09556107      28.94513
2010    12      3       0.1304892       36.63606
2010    12      4       0.1845808       47.99956
2010    12      5       0.2359928       58.12928
2010    12      6       0.3109891       72.07754
2010    12      7       0.3738388       82.96927
2010    13      0       0.3481399       78.5975
2010    13      1       0.3215233       73.84016
2010    13      2       0.3402887       77.08439
2010    13      3       0.3297142       75.26796
2010    13      4       0.3719068       82.57842
2010    13      5       0.3878145       85.28839
2010    13      6       0.3087104       71.55335
2010    13      7       0.2227483       55.35748
2010    14      0       0.1977143       50.3794
2010    14      1       0.1780142       46.47891
2010    14      2       0.1642386       43.74321
2010    14      3       0.1458823       40.09047
2010    14      4       0.1251988       35.67623
2010    14      5       0.1008019       30.29025
2010    14      6       0.08289394      26.09392
2010    14      7       0.08105654      25.47905
2010    15      0       0.09529033      28.59497
2010    15      1       0.1089146       31.6123
2010    15      2       0.1456696       39.8444
2010    15      3       0.1830237       48.07153
2010    15      4       0.2062449       52.9113
2010    15      5       0.1949923       50.6581
2010    15      6       0.1918107       49.85457
2010    15      7       0.2036879       52.17973
2010    16      0       0.2090039       53.16285
2010    16      1       0.1812696       47.51644
2010    16      2       0.1779559       46.66162
2010    16      3       0.1924158       49.47778
2010    16      4       0.1980625       50.56741
2010    16      5       0.2170084       54.74842
2010    16      6       0.1655919       43.9269
2010    16      7       0.1182511       33.54965
2010    17      0       0.1139239       32.56022
2010    17      1       0.1167442       33.22024
2010    17      2       0.1545863       41.15577
2010    17      3       0.1903082       48.49629
2010    17      4       0.2300001       56.29544
2010    17      5       0.2304884       56.29435
2010    17      6       0.1999098       50.18961
2010    17      7       0.1861996       47.38728
2010    18      0       0.1847845       47.12901
2010    18      1       0.1839801       46.97576
2010    18      2       0.1752472       45.25488
2010    18      3       0.1827065       46.77323
2010    18      4       0.1957655       49.33102
2010    18      5       0.1908481       48.31799
2010    18      6       0.1667444       43.44572
2010    18      7       0.1441463       38.83472
2010    19      0       0.1171884       33.17381
2010    19      1       0.09676321      28.81067
2010    19      2       0.09850501      29.24883
2010    19      3       0.1438322       39.03972
2010    19      4       0.1894345       48.61605
2010    19      5       0.2072767       52.28569
2010    19      6       0.2377676       58.38569
2010    19      7       0.2411323       59.21933
2010    20      0       0.237948        58.68125
2010    20      1       0.2055202       52.6144
2010    20      2       0.1735971       46.381
2010    20      3       0.1537416       41.87236
2010    20      4       0.1280538       36.34019
2010    20      5       0.1117169       32.75913
2010    20      6       0.1012661       30.24307
2010    20      7       0.09844885      29.39392
2010    21      0       0.1158935       33.21846
2010    21      1       0.1272394       35.75942
2010    21      2       0.140276        38.6538
2010    21      3       0.1810581       47.18399
2010    21      4       0.2197395       54.90643
2010    21      5       0.2310955       57.1417
2010    21      6       0.2175628       54.46834
2010    21      7       0.2139734       53.65905
2010    22      0       0.2095469       52.58498
2010    22      1       0.1839422       47.5507
2010    22      2       0.1885983       48.65776
2010    22      3       0.1889018       48.74965
2010    22      4       0.2252384       55.81318
2010    22      5       0.2223768       55.25272
2010    22      6       0.1972321       50.11378
2010    22      7       0.2168168       53.74593
2010    23      0       0.2158421       53.492
2010    23      1       0.2083153       52.08833
2010    23      2       0.1999279       50.57055
2010    23      3       0.2196517       54.4599
2010    23      4       0.2433579       58.97008
2010    23      5       0.2387611       58.11368
2010    23      6       0.2156371       53.57539
2010    23      7       0.1883402       48.11212
2010    24      0       0.1609123       42.55802
2010    24      1       0.1404154       38.41177
2010    24      2       0.142042        38.84569
2010    24      3       0.1496839       40.55214
2010    24      4       0.162153        43.16564
2010    24      5       0.1649807       43.79506
2010    24      6       0.1411064       38.77198
2010    24      7       0.1094322       31.85626
2010    25      0       0.09218405      27.95243
2010    25      1       0.0821578       25.57708
2010    25      2       0.107849        31.3983
2010    25      3       0.1166086       33.3977
2010    25      4       0.1573095       41.9444
2010    25      5       0.1867393       47.91233
2010    25      6       0.2060491       51.84752
2010    25      7       0.172476        44.95306
2010    26      0       0.1617744       42.83113
2010    26      1       0.2342929       57.20698
2010    26      2       0.2671901       63.499
2010    26      3       0.257341        61.77992
2010    26      4       0.2446381       59.4747
2010    26      5       0.2282657       56.44319
2010    26      6       0.1894066       48.76807
2010    26      7       0.1584578       42.47033
2010    27      0       0.1457158       39.86196
2010    27      1       0.1454222       39.82915
2010    27      2       0.161523        43.18699
2010    27      3       0.1734833       45.76224
2010    27      4       0.1811872       47.41071
2010    27      5       0.1821577       47.54867
2010    27      6       0.1440803       39.53271
2010    27      7       0.1467714       40.04941
2010    28      0       0.1788186       46.73031
2010    28      1       0.1867311       48.37198
2010    28      2       0.207759        52.50289
2010    28      3       0.2338276       57.70951
2010    28      4       0.2419381       59.26121
2010    28      5       0.2185824       54.75539
2010    28      6       0.2173453       54.13216
2010    28      7       0.2401089       58.63074
2010    29      0       0.2977054       69.63179
2010    29      1       0.299939        70.3734
2010    29      2       0.3965461       87.30044
2010    29      3       0.3679083       82.59383
2010    29      4       0.3873341       86.31045
2010    29      5       0.4184145       90.71662
2010    29      6       0.4484724       95.23384
2010    29      7       0.4154092       90.15166
2010    30      0       0.5189896       105.5419
2010    30      1       0.5306278       107.7228
2010    30      2       0.514511        105.4871
2010    30      3       0.4990143       102.8221
2010    30      4       0.4979128       102.7719
2010    30      5       0.4661563       97.74434
2010    30      6       0.5338941       108.0567
2010    30      7       0.4242261       91.19427
2010    31      0       0.3395491       76.53377
2010    31      1       0.3215129       73.75766
2010    31      2       0.3091861       71.28007
2010    31      3       0.3990574       86.92928
2010    31      4       0.3226237       73.85213
2010    31      5       0.2359138       57.82962
2010    31      6       0.2046545       51.56261
2010    31      7       0.226788        55.89319
2011    1       0       0.2045247       52.93843
2011    1       1       0.194915        51.11482
2011    1       2       0.2365271       59.49416
2011    1       3       0.3498407       80.9025
2011    1       4       0.4581552       99.64696
2011    1       5       0.4490098       98.70531
2011    1       6       0.2999129       73.26439
2011    1       7       0.2083604       54.69846
2011    2       0       0.2092144       54.82353
2011    2       1       0.1386275       39.73928
2011    2       2       0.1510552       42.45062
2011    2       3       0.1444534       40.90229
2011    2       4       0.1538634       43.03247
2011    2       5       0.1286768       37.33215
2011    2       6       0.1840988       49.24442
2011    2       7       0.1822227       48.72008
2011    3       0       0.151996        42.11199
2011    3       1       0.1139526       33.65581
2011    3       2       0.1165663       34.35719
2011    3       3       0.1169561       34.47262
2011    3       4       0.1359095       38.80102
2011    3       5       0.132546        37.88863
2011    3       6       0.1072919       31.97447
2011    3       7       0.09382995      28.78578
2011    4       0       0.09199686      28.36725
2011    4       1       0.0868092       27.24372
2011    4       2       0.1020724       30.7788
2011    4       3       0.1388636       39.13006
2011    4       4       0.1661676       44.96457
2011    4       5       0.1730879       46.31964
2011    4       6       0.1780131       47.38521
2011    4       7       0.1942845       50.50793
2011    5       0       0.1879999       49.08813
2011    5       1       0.2055655       52.62503
2011    5       2       0.230544        57.72915
2011    5       3       0.2766128       66.62652
2011    5       4       0.2817819       67.44518
2011    5       5       0.2579302       62.62675
2011    5       6       0.2814567       66.98265
2011    5       7       0.2774279       66.36106
2011    6       0       0.2486473       61.1211
2011    6       1       0.2182732       55.37254
2011    6       2       0.1799034       47.52434
2011    6       3       0.1750463       46.48391
2011    6       4       0.1991158       51.49346
2011    6       5       0.1895091       49.54449
2011    6       6       0.08643008      26.95978
2011    6       7       0.07586114      24.41645
2011    7       0       0.08242551      25.9509
2011    7       1       0.1364604       38.12968
2011    7       2       0.2057676       52.67703
2011    7       3       0.2565229       62.84233
2011    7       4       0.304295        71.88336
2011    7       5       0.2695709       65.41013
2011    7       6       0.1439961       39.90454
2011    7       7       0.1024826       30.69052
2011    8       0       0.1069904       31.57555
2011    8       1       0.1577579       42.85335
2011    8       2       0.1745392       46.21038
2011    8       3       0.2223279       56.0259
2011    8       4       0.2825727       67.83877
2011    8       5       0.2607946       63.49756
2011    8       6       0.2460342       60.45034
2011    8       7       0.2909301       68.78282
2011    9       0       0.3331241       76.13364
2011    9       1       0.3544131       79.93065
2011    9       2       0.3687485       82.41576
2011    9       3       0.3489199       79.29778
2011    9       4       0.3346852       76.94903
2011    9       5       0.2760913       66.51561
2011    9       6       0.2053054       52.75268
2011    9       7       0.153433        41.97622
2011    10      0       0.1495426       41.04863
2011    10      1       0.126211        35.95222
2011    10      2       0.1267813       36.06311
2011    10      3       0.09919695      29.95044
2011    10      4       0.08937231      27.76769
2011    10      5       0.09356364      28.82183
2011    10      6       0.08868858      27.64001
2011    10      7       0.0579703       20.37554
2011    11      0       0.05212817      18.92578
2011    11      1       0.04973472      18.32978
2011    11      2       0.06816872      22.87069
2011    11      3       0.0755646       24.67831
2011    11      4       0.0951336       29.31844
2011    11      5       0.087479        27.45786
2011    11      6       0.05294415      19.04794
2011    11      7       0.04731988      17.65444
2011    12      0       0.04674183      17.44936
2011    12      1       0.04817191      17.71311
2011    12      2       0.06823591      22.64957
2011    12      3       0.1154635       33.56877
2011    12      4       0.1539312       41.94625
2011    12      5       0.1616612       43.48188
2011    12      6       0.1660413       44.26844
2011    12      7       0.1493162       40.70763
2011    13      0       0.122534        34.94323
2011    13      1       0.09383682      28.56166
2011    13      2       0.09183529      28.15711
2011    13      3       0.1019873       30.45052
2011    13      4       0.1152692       33.48369
2011    13      5       0.09140809      27.93724
2011    13      6       0.08851865      27.15784
2011    13      7       0.1046324       30.73506
2011    14      0       0.1148712       32.96598
2011    14      1       0.1195945       33.9251
2011    14      2       0.128243        35.94272
2011    14      3       0.1458593       39.8915
2011    14      4       0.1736654       45.6736
2011    14      5       0.1857126       48.07577
2011    14      6       0.1766856       46.06464
2011    14      7       0.1833943       47.25005
2011    15      0       0.1978374       50.40179
2011    15      1       0.2214549       55.11088
2011    15      2       0.222689        55.23177
2011    15      3       0.2032698       51.64039
2011    15      4       0.1949117       50.04665
2011    15      5       0.1935578       49.78877
2011    15      6       0.1397949       38.48328
2011    15      7       0.1086283       31.52655
2011    16      0       0.115744        32.91158
2011    16      1       0.1172382       33.34219
2011    16      2       0.1250298       35.28626
2011    16      3       0.1283259       36.14161
2011    16      4       0.1388316       38.44434
2011    16      5       0.1264728       35.57325
2011    16      6       0.1325427       36.70989
2011    16      7       0.1427069       38.85295
2011    17      0       0.1535932       41.27033
2011    17      1       0.1787051       46.73012
2011    17      2       0.1884631       48.80067
2011    17      3       0.19805         50.79654
2011    17      4       0.2217461       55.65171
2011    17      5       0.2303454       57.40796
2011    17      6       0.2388847       58.89866
2011    17      7       0.2504288       61.15489
2011    18      0       0.2358257       58.32397
2011    18      1       0.2148196       54.23382
2011    18      2       0.1997858       51.19395
2011    18      3       0.1855038       48.32532
2011    18      4       0.2025426       51.81014
2011    18      5       0.2135587       53.88147
2011    18      6       0.1439063       39.46177
2011    18      7       0.1345526       37.53386
2011    19      0       0.1152022       33.22377
2011    19      1       0.1154902       33.08419
2011    19      2       0.1395867       38.41359
2011    19      3       0.1797595       46.65337
2011    19      4       0.2340359       57.50713
2011    19      5       0.2228372       55.51185
2011    19      6       0.2173034       54.28778
2011    19      7       0.250302        60.51792
2011    20      0       0.2498578       60.4864
2011    20      1       0.2385177       58.29453
2011    20      2       0.220796        55.02456
2011    20      3       0.2209502       55.31695
2011    20      4       0.2301584       57.18045
2011    20      5       0.2313284       57.3149
2011    20      6       0.227541        56.50652
2011    20      7       0.1887925       48.66307
2011    21      0       0.1563819       41.98559
2011    21      1       0.09247413      28.20394
2011    21      2       0.1003093       30.09126
2011    21      3       0.1033994       30.81014
2011    21      4       0.1226529       35.1047
2011    21      5       0.09032266      27.77416
2011    21      6       0.06640361      22.17755
2011    21      7       0.06129272      20.969
2011    22      0       0.06294467      21.36104
2011    22      1       0.06131134      21.06019
2011    22      2       0.0692347       22.9627
2011    22      3       0.08944973      27.68759
2011    22      4       0.1054732       31.29116
2011    22      5       0.0849203       26.48208
2011    22      6       0.08600606      26.73291
2011    22      7       0.0849218       26.51373
2011    23      0       0.07726247      24.72935
2011    23      1       0.07612233      24.36019
2011    23      2       0.1010994       29.94849
2011    23      3       0.112228        32.63521
2011    23      4       0.1239918       35.2564
2011    23      5       0.1170111       33.57715
2011    23      6       0.1131245       32.59011
2011    23      7       0.1107874       32.0435
2011    24      0       0.1076441       31.09014
2011    24      1       0.1387857       37.65676
2011    24      2       0.195793        49.56665
2011    24      3       0.2742108       64.89002
2011    24      4       0.3264737       74.39683
2011    24      5       0.3156028       72.47284
2011    24      6       0.2846871       67.3123
2011    24      7       0.2613904       63.09065
2011    25      0       0.2415211       59.29519
2011    25      1       0.1924893       49.59085
2011    25      2       0.1851982       48.1285
2011    25      3       0.1974896       50.67412
2011    25      4       0.2224227       55.56109
2011    25      5       0.2353136       58.05557
2011    25      6       0.2169659       54.4899
2011    25      7       0.2020664       51.49461
2011    26      0       0.1771795       46.36349
2011    26      1       0.1459109       39.87277
2011    26      2       0.1674128       44.29556
2011    26      3       0.1810903       47.13814
2011    26      4       0.202978        51.55737
2011    26      5       0.2216687       55.25068
2011    26      6       0.1948617       49.85081
2011    26      7       0.1633785       43.36103
2011    27      0       0.1524943       41.05353
2011    27      1       0.154072        41.33004
2011    27      2       0.1788622       46.50065
2011    27      3       0.1803505       47.14969
2011    27      4       0.1911097       49.55369
2011    27      5       0.2223195       55.82689
2011    27      6       0.1888281       49.04457
2011    27      7       0.1881372       48.8454
2011    28      0       0.1540982       41.90937
2011    28      1       0.08755409      27.2952
2011    28      2       0.1355028       37.94429
2011    28      3       0.135634        37.99203
2011    28      4       0.173484        46.13641
2011    28      5       0.1578053       42.70447
2011    28      6       0.1224309       35.0518
2011    28      7       0.1249154       35.5545
2011    29      0       0.1252245       35.60809
2011    29      1       0.1132847       32.98343
2011    29      2       0.128447        36.35999
2011    29      3       0.1306562       36.86657
2011    29      4       0.1489048       40.83512
2011    29      5       0.1464073       40.26981
2011    29      6       0.1027682       30.7206
2011    29      7       0.08049202      25.64094
2011    30      0       0.06577936      22.21214
2011    30      1       0.05256169      19.02209
2011    30      2       0.08821103      27.50589
2011    30      3       0.09522942      29.14353
2011    30      4       0.1230207       35.47094
2011    30      5       0.1175804       34.18316
2011    30      6       0.08619994      27.01642
2011    30      7       0.09242882      28.39907
2011    31      0       0.1129607       32.97577
2011    31      1       0.122684        35.16984
2011    31      2       0.136287        38.21515
2011    31      3       0.1680674       45.11844
2011    31      4       0.1968354       51.04019
2011    31      5       0.1942589       50.2453
2011    31      6       0.2291804       57.11768
2011    31      7       0.2001657       51.39901
2012    1       0       0.1416596       39.25575
2012    1       1       0.1354251       37.92114
2012    1       2       0.119301        34.33436
2012    1       3       0.1193341       34.32601
2012    1       4       0.1128646       32.98454
2012    1       5       0.1082404       31.93365
2012    1       6       0.1317638       37.10959
2012    1       7       0.1487362       40.59585
2012    2       0       0.1437838       39.28372
2012    2       1       0.1383479       38.00216
2012    2       2       0.2439964       59.66506
2012    2       3       0.3465841       78.61207
2012    2       4       0.3732257       83.55298
2012    2       5       0.3586309       81.23162
2012    2       6       0.3557777       80.70804
2012    2       7       0.3541032       80.58006
2012    3       0       0.3411682       78.33252
2012    3       1       0.3027364       71.4345
2012    3       2       0.2764415       66.37759
2012    3       3       0.2514346       61.78487
2012    3       4       0.2501891       61.7965
2012    3       5       0.2353834       59.12565
2012    3       6       0.2156282       55.24745
2012    3       7       0.2095562       54.00748
2012    4       0       0.2092018       53.8803
2012    4       1       0.2007073       52.16929
2012    4       2       0.1615148       43.71729
2012    4       3       0.1631996       44.1889
2012    4       4       0.1841782       48.79272
2012    4       5       0.1956036       51.19606
2012    4       6       0.2092354       53.97861
2012    4       7       0.2705938       65.7736
2012    5       0       0.3129478       73.31173
2012    5       1       0.3360405       77.18059
2012    5       2       0.3759881       84.21219
2012    5       3       0.3980831       88.39508
2012    5       4       0.3650315       82.83265
2012    5       5       0.334688        77.71235
2012    5       6       0.3327157       77.3619
2012    5       7       0.2763917       67.15335
2012    6       0       0.2547236       62.96468
2012    6       1       0.2508379       61.95328
2012    6       2       0.2324065       57.98167
2012    6       3       0.2616193       63.64166
2012    6       4       0.2979432       70.79283
2012    6       5       0.2896222       69.50065
2012    6       6       0.258616        63.49756
2012    6       7       0.2497105       61.53659
2012    7       0       0.2490529       61.20759
2012    7       1       0.2604546       63.35341
2012    7       2       0.2993957       70.32653
2012    7       3       0.4269993       92.2171
2012    7       4       0.5105895       105.414
2012    7       5       0.4163836       91.41018
2012    7       6       0.3555307       81.14618
2012    7       7       0.4041483       88.91312
2012    8       0       0.4217748       91.7221
2012    8       1       0.3519418       79.8963
2012    8       2       0.2951907       69.88341
2012    8       3       0.272514        65.75561
2012    8       4       0.2753877       66.20446
2012    8       5       0.2656284       64.45971
2012    8       6       0.2944927       70.013
2012    8       7       0.2453523       60.61644
2012    9       0       0.18273         48.21994
2012    9       1       0.1251801       35.82012
2012    9       2       0.1377837       38.41684
2012    9       3       0.1123996       32.71125
2012    9       4       0.1293766       36.44092
2012    9       5       0.1587087       42.87955
2012    9       6       0.1920566       49.86135
2012    9       7       0.1831104       47.75286
2012    10      0       0.1645842       43.54148
2012    10      1       0.1474356       39.88178
2012    10      2       0.1890373       48.44545
2012    10      3       0.2173266       54.26988
2012    10      4       0.2725411       64.98198
2012    10      5       0.2954144       69.08103
2012    10      6       0.32948         75.16793
2012    10      7       0.293379        68.64684
2012    11      0       0.3303603       74.97693
2012    11      1       0.3745625       82.42572
2012    11      2       0.3575978       79.8349
2012    11      3       0.4395646       93.73079
2012    11      4       0.4624965       97.50735
2012    11      5       0.365896        81.6371
2012    11      6       0.2298151       56.52936
2012    11      7       0.2186602       54.27611
2012    12      0       0.2315579       56.75931
2012    12      1       0.2786647       65.79439
2012    12      2       0.1814335       47.08224
2012    12      3       0.1740281       45.55345
2012    12      4       0.2410036       58.67281
2012    12      5       0.3099806       71.43011
2012    12      6       0.3414731       77.10591
2012    12      7       0.3352347       76.14038
2012    13      0       0.3308244       75.50283
2012    13      1       0.2747554       65.59206
2012    13      2       0.2562027       61.87391
2012    13      3       0.3445171       77.7259
2012    13      4       0.3458203       78.29689
2012    13      5       0.3946572       86.61992
2012    13      6       0.4682452       98.19874
2012    13      7       0.4592519       96.7354
2012    14      0       0.4390593       93.82942
2012    14      1       0.3736175       83.01346
2012    14      2       0.2954495       69.38691
2012    14      3       0.3175189       73.35468
2012    14      4       0.3456722       78.29963
2012    14      5       0.3632526       81.37958
2012    14      6       0.3758876       83.54358
2012    14      7       0.4262113       91.32098
2012    15      0       0.420247        90.38983
2012    15      1       0.4117064       89.20607
2012    15      2       0.3930654       85.74143
2012    15      3       0.4017633       87.19949
2012    15      4       0.3705156       82.17208
2012    15      5       0.4010067       87.21889
2012    15      6       0.3669411       81.41225
2012    15      7       0.439516        93.4545
2012    16      0       0.3212934       73.60371
2012    16      1       0.318275        73.38491
2012    16      2       0.2844469       66.7443
2012    16      3       0.3408967       76.91862
2012    16      4       0.3932637       86.12201
2012    16      5       0.3920625       86.12832
2012    16      6       0.3697468       82.65438
2012    16      7       0.2167234       54.47557
2012    17      0       0.1455407       39.76152
2012    17      1       0.1580312       42.36263
2012    17      2       0.1809779       47.16069
2012    17      3       0.2259051       56.63883
2012    17      4       0.3105199       72.36539
2012    17      5       0.3582499       80.72133
2012    17      6       0.4160948       90.51202
2012    17      7       0.436606        93.79354
2012    18      0       0.486244        101.3179
2012    18      1       0.4697609       99.30882
2012    18      2       0.3524039       80.29548
2012    18      3       0.2592818       63.57206
2012    18      4       0.2654311       64.65373
2012    18      5       0.2303667       57.74808
2012    18      6       0.1165134       33.77509
2012    18      7       0.08018078      25.25251
2012    19      0       0.07283753      23.52274
2012    19      1       0.0687705       22.483
2012    19      2       0.07458932      23.98519
2012    19      3       0.1015641       30.12585
2012    19      4       0.123176        34.89254
2012    19      5       0.1248664       35.36127
2012    19      6       0.1188635       34.02874
2012    19      7       0.109354        31.9347
2012    20      0       0.1159741       33.35793
2012    20      1       0.1173788       33.69748
2012    20      2       0.1232204       34.99905
2012    20      3       0.138833        38.40514
2012    20      4       0.1375503       38.26195
2012    20      5       0.1008184       30.18581
2012    20      6       0.07495781      24.19797
2012    20      7       0.07315943      23.73723
2012    21      0       0.07840316      24.92889
2012    21      1       0.08148145      25.60921
2012    21      2       0.09426307      28.54835
2012    21      3       0.1102115       32.11163
2012    21      4       0.1170322       33.67078
2012    21      5       0.1105454       32.37039
2012    21      6       0.1077202       31.70999
2012    21      7       0.09314824      28.52227
2012    22      0       0.1132817       33.13393
2012    22      1       0.1105936       32.59597
2012    22      2       0.09813471      29.77618
2012    22      3       0.09298165      28.6689
2012    22      4       0.0973598       29.63454
2012    22      5       0.103134        30.93847
2012    22      6       0.1066812       31.77983
2012    22      7       0.1181324       34.38032
2012    23      0       0.1243614       35.78014
2012    23      1       0.1191763       34.73539
2012    23      2       0.09651098      29.51921
2012    23      3       0.1223785       35.08967
2012    23      4       0.1397974       38.8922
2012    23      5       0.1217796       34.81986
2012    23      6       0.1060826       31.01491
2012    23      7       0.1239672       34.85384
2012    24      0       0.1827208       47.08754
2012    24      1       0.2252644       55.6749
2012    24      2       0.2563883       61.65657
2012    24      3       0.2784989       65.82429
2012    24      4       0.2901001       68.00479
2012    24      5       0.3047677       70.48774
2012    24      6       0.274907        64.95116
2012    24      7       0.2400398       58.25959
2012    25      0       0.2039373       51.38938
2012    25      1       0.1409333       38.70572
2012    25      2       0.1291483       36.23827
2012    25      3       0.1304109       36.47274
2012    25      4       0.1320364       37.0055
2012    25      5       0.1206175       34.63749
2012    25      6       0.1093631       32.01691
2012    25      7       0.1186323       34.00979
2012    26      0       0.1296338       36.46252
2012    26      1       0.1465089       40.06122
2012    26      2       0.1834427       47.83746
2012    26      3       0.242455        59.93073
2012    26      4       0.3089572       72.19863
2012    26      5       0.3204728       74.618
2012    26      6       0.3913218       86.6783
2012    26      7       0.4796405       100.684
2012    27      0       0.5543149       111.5568
2012    27      1       0.5098304       105.8832
2012    27      2       0.5730971       114.876
2012    27      3       0.5138143       106.5068
2012    27      4       0.5265007       107.8195
2012    27      5       0.4462056       95.74844
2012    27      6       0.3872566       86.06525
2012    27      7       0.3693493       82.78491
2012    28      0       0.3486838       78.97402
2012    28      1       0.379389        83.90753
2012    28      2       0.341459        77.43802
2012    28      3       0.3228558       74.17785
2012    28      4       0.3163277       73.05225
2012    28      5       0.3014319       70.30692
2012    28      6       0.2532969       61.40135
2012    28      7       0.227831        56.64392
2012    29      0       0.2265818       56.46107
2012    29      1       0.2138866       54.03914
2012    29      2       0.224177        56.45019
2012    29      3       0.2533975       62.38861
2012    29      4       0.2463527       61.07134
2012    29      5       0.1692641       45.41477
2012    29      6       0.1309917       37.2127
2012    29      7       0.1416348       39.50602
2012    30      0       0.1340942       37.88528
2012    30      1       0.09136048      28.40794
2012    30      2       0.1050073       31.61237
2012    30      3       0.1264822       36.39873
2012    30      4       0.1608664       43.7032
2012    30      5       0.2315695       58.24641
2012    30      6       0.169292        45.40031
2012    30      7       0.1206794       34.86204
2012    31      0       0.07755661      25.05084
2012    31      1       0.05424959      19.45719
2012    31      2       0.09263891      28.53657
2012    31      3       0.09946746      30.12333
2012    31      4       0.1081816       31.80084
2012    31      5       0.1295395       36.31212
2012    31      6       0.1197106       34.44161
2012    31      7       0.1672885       44.65365
2013    1       0       0.1038539       31.04303
2013    1       1       0.112062        32.74392
2013    1       2       0.1337869       37.5088
2013    1       3       0.1739921       46.18061
2013    1       4       0.1980738       51.29847
2013    1       5       0.2083924       53.80402
2013    1       6       0.1540668       42.25674
2013    1       7       0.1623926       43.69019
2013    2       0       0.2208839       55.10085
2013    2       1       0.1900393       49.26084
2013    2       2       0.1578249       42.37914
2013    2       3       0.2030061       51.80349
2013    2       4       0.215343        54.42152
2013    2       5       0.1918904       49.92457
2013    2       6       0.1315452       36.97204
2013    2       7       0.1202206       34.40788
2013    3       0       0.1318145       37.03948
2013    3       1       0.1583244       42.79111
2013    3       2       0.1765107       46.26212
2013    3       3       0.1943121       49.80965
2013    3       4       0.1966693       50.34239
2013    3       5       0.1946957       50.12266
2013    3       6       0.1936835       50.1753
2013    3       7       0.1766289       46.76464
2013    4       0       0.1325774       37.37188
2013    4       1       0.1231348       35.37603
2013    4       2       0.1380594       38.36857
2013    4       3       0.1614851       43.21837
2013    4       4       0.1925844       49.68954
2013    4       5       0.1956098       50.44944
2013    4       6       0.1808629       47.38285
2013    4       7       0.1617811       43.48544
2013    5       0       0.1489724       40.9814
2013    5       1       0.1376888       38.69675
2013    5       2       0.1415827       39.28617
2013    5       3       0.1785589       47.00483
2013    5       4       0.1980909       51.30765
2013    5       5       0.2134404       54.52922
2013    5       6       0.2392182       59.84756
2013    5       7       0.2774716       67.27237
2013    6       0       0.3277966       75.94613
2013    6       1       0.4034303       88.55764
2013    6       2       0.4663248       98.93321
2013    6       3       0.4477126       96.05832
2013    6       4       0.4416197       95.0158
2013    6       5       0.3856971       86.12998
2013    6       6       0.2753931       66.88878
2013    6       7       0.1464065       40.35658
2013    7       0       0.1442396       39.54536
2013    7       1       0.1602145       42.77857
2013    7       2       0.2401615       59.15753
2013    7       3       0.345758        78.6833
2013    7       4       0.4187026       91.69257
2013    7       5       0.4427267       95.58915
2013    7       6       0.4288261       93.46276
2013    7       7       0.3808627       85.09217
2013    8       0       0.3664442       82.61815
2013    8       1       0.3353181       77.36094
2013    8       2       0.3311704       76.42139
2013    8       3       0.3514865       79.42144
2013    8       4       0.3834457       84.87764
2013    8       5       0.3965838       86.93339
2013    8       6       0.2677599       64.56841
2013    8       7       0.2126624       53.8873
2013    9       0       0.1652494       43.87761
2013    9       1       0.1463808       39.77666
2013    9       2       0.2219434       55.45736
2013    9       3       0.2813088       66.8339
2013    9       4       0.3208205       73.77028
2013    9       5       0.289404        68.44663
2013    9       6       0.2235989       56.14486
2013    9       7       0.1924605       50.02907
2013    10      0       0.1422093       39.39329
2013    10      1       0.1246179       35.20172
2013    10      2       0.2248675       56.13625
2013    10      3       0.2421529       59.70422
2013    10      4       0.2508833       61.49458
2013    10      5       0.2471025       60.97125
2013    10      6       0.2181792       55.36631
2013    10      7       0.1908819       49.81171
2013    11      0       0.1634677       43.9644
2013    11      1       0.1644248       44.05991
2013    11      2       0.200606        51.36413
2013    11      3       0.1994801       51.04578
2013    11      4       0.2377734       58.606
2013    11      5       0.2870258       68.15933
2013    11      6       0.3081255       71.95352
2013    11      7       0.2754553       65.76452
2013    12      0       0.221593        55.63587
2013    12      1       0.2136422       54.23412
2013    12      2       0.1519218       41.31283
2013    12      3       0.1302793       36.79855
2013    12      4       0.1123806       32.80316
2013    12      5       0.1133667       32.89749
2013    12      6       0.1223038       34.88261
2013    12      7       0.1272804       35.98795
2013    13      0       0.1276305       36.04598
2013    13      1       0.140697        38.98517
2013    13      2       0.1285344       36.20152
2013    13      3       0.126932        35.8183
2013    13      4       0.1190479       34.10351
2013    13      5       0.1154974       33.21759
2013    13      6       0.1240286       34.95256
2013    13      7       0.1381288       37.95414
2013    14      0       0.1638503       43.4398
2013    14      1       0.1600039       42.70842
2013    14      2       0.1527182       41.29653
2013    14      3       0.1568647       42.26411
2013    14      4       0.1618879       43.35899
2013    14      5       0.1815288       47.23912
2013    14      6       0.2353007       57.85547
2013    14      7       0.2736477       65.61751
2013    15      0       0.2724894       65.92402
2013    15      1       0.2427818       60.57827
2013    15      2       0.2560671       63.32108
2013    15      3       0.2704775       66.0869
2013    15      4       0.2707565       66.50733
2013    15      5       0.26008         64.52726
2013    15      6       0.2154679       55.7781
2013    15      7       0.2216853       57.07249
2013    16      0       0.1969877       51.93778
2013    16      1       0.1630419       44.5879
2013    16      2       0.1629862       44.5888
2013    16      3       0.1798436       48.11338
2013    16      4       0.2026583       52.8853
2013    16      5       0.1927704       50.57576
2013    16      6       0.2399862       59.9878
2013    16      7       0.3013208       71.51437
2013    17      0       0.3341443       77.41174
2013    17      1       0.2990168       71.23183
2013    17      2       0.3223204       76.16359
2013    17      3       0.2382505       60.26542
2013    17      4       0.2914815       70.59522
2013    17      5       0.196206        51.29993
2013    17      6       0.1502502       41.43512
2013    17      7       0.1267018       36.31563
2013    18      0       0.110968        32.64838
2013    18      1       0.1031962       30.811
2013    18      2       0.1280433       36.37728
2013    18      3       0.140924        39.22673
2013    18      4       0.1689783       45.23059
2013    18      5       0.213561        54.39306
2013    18      6       0.1870127       48.86993
2013    18      7       0.08987194      27.83722
2013    19      0       0.06422449      21.7727
2013    19      1       0.07917655      25.24946
2013    19      2       0.1425188       39.18247
2013    19      3       0.2029214       51.34567
2013    19      4       0.2234378       55.23316
2013    19      5       0.231849        56.79292
2013    19      6       0.2116016       52.8374
2013    19      7       0.2062473       51.88549
2013    20      0       0.1821663       47.22484
2013    20      1       0.1582245       42.54896
2013    20      2       0.1409818       39.08637
2013    20      3       0.1213351       34.7722
2013    20      4       0.1623282       43.61136
2013    20      5       0.2517592       61.44599
2013    20      6       0.2550474       61.86299
2013    20      7       0.2021571       51.41122
2013    21      0       0.2387699       58.38006
2013    21      1       0.2793191       65.8034
2013    21      2       0.2595597       62.09561
2013    21      3       0.313287        71.85773
2013    21      4       0.3158054       72.37617
2013    21      5       0.3030669       70.31678
2013    21      6       0.2911636       68.05253
2013    21      7       0.2738623       64.88567
2013    22      0       0.2893211       67.76458
2013    22      1       0.3317059       75.36558
2013    22      2       0.3709336       82.21078
2013    22      3       0.3479617       78.4508
2013    22      4       0.3137108       72.51117
2013    22      5       0.2810031       66.63666
2013    22      6       0.265359        63.52031
2013    22      7       0.2571563       61.83875
2013    23      0       0.2662906       63.60734
2013    23      1       0.2718875       64.72429
2013    23      2       0.2306714       57.10278
2013    23      3       0.2714716       65.03053
2013    23      4       0.3059281       71.51948
2013    23      5       0.2877673       68.3456
2013    23      6       0.2708157       65.05636
2013    23      7       0.2162142       54.44505
2013    24      0       0.1883447       48.60938
2013    24      1       0.1648707       43.83817
2013    24      2       0.1801242       47.24048
2013    24      3       0.2097372       53.19758
2013    24      4       0.2577855       62.51143
2013    24      5       0.2744628       65.67521
2013    24      6       0.27621         65.94747
2013    24      7       0.2583774       62.45629
2013    25      0       0.2300773       56.99104
2013    25      1       0.2110328       53.2965
2013    25      2       0.1962044       50.52711
2013    25      3       0.1983993       51.16219
2013    25      4       0.239453        59.60271
2013    25      5       0.2564174       62.50357
2013    25      6       0.2233477       55.87191
2013    25      7       0.1991812       51.05488
2013    26      0       0.1527799       41.56926
2013    26      1       0.1238611       35.44871
2013    26      2       0.1303497       37.00224
2013    26      3       0.1272336       36.3229
2013    26      4       0.1693686       45.40221
2013    26      5       0.1357571       38.07879
2013    26      6       0.08156816      25.85874
2013    26      7       0.07564106      24.41826
2013    27      0       0.07205365      23.55681
2013    27      1       0.06511703      21.91795
2013    27      2       0.09948056      29.84318
2013    27      3       0.1552721       41.78899
2013    27      4       0.1967195       50.17314
2013    27      5       0.1782058       46.36762
2013    27      6       0.1641137       43.56358
2013    27      7       0.1637321       43.19974
2013    28      0       0.162803        42.95137
2013    28      1       0.1488123       39.98136
2013    28      2       0.1447632       39.25495
2013    28      3       0.1555874       41.68502
2013    28      4       0.1747166       45.63462
2013    28      5       0.1603108       42.73148
2013    28      6       0.1191705       33.9662
2013    28      7       0.09485076      28.59118
2013    29      0       0.08789559      26.97653
2013    29      1       0.1054856       30.64803
2013    29      2       0.1306963       36.35571
2013    29      3       0.1447532       39.36826
2013    29      4       0.173303        45.2107
2013    29      5       0.1664819       43.93776
2013    29      6       0.1334513       36.91509
2013    29      7       0.1028409       30.29459
2013    30      0       0.08967344      27.38264
2013    30      1       0.08935645      27.17092
2013    30      2       0.0868812       26.69787
2013    30      3       0.1210715       34.42535
2013    30      4       0.1398495       38.51345
2013    30      5       0.1472994       39.82656
2013    30      6       0.3542674       78.65639
2013    30      7       0.4063235       87.98691
2013    31      0       0.5184532       105.9617
2013    31      1       0.3682147       82.33813
2013    31      2       0.2796349       66.36551
2013    31      3       0.2693575       64.28035
2013    31      4       0.2445135       59.48147
2013    31      5       0.1977699       50.49259
2013    31      6       0.1646117       43.61209
2013    31      7       0.2294496       56.33752
2014    1       0       0.08097755      25.66937
2014    1       1       0.1172858       34.24255
2014    1       2       0.1051357       31.37003
2014    1       3       0.10512         31.29517
2014    1       4       0.1348302       37.80624
2014    1       5       0.1465998       40.21597
2014    1       6       0.1661455       44.26674
2014    1       7       0.1959112       50.2369
2014    2       0       0.2082154       52.75513
2014    2       1       0.1987039       50.87098
2014    2       2       0.1713428       45.40634
2014    2       3       0.1765183       46.70512
2014    2       4       0.1737153       46.47058
2014    2       5       0.1479373       41.02651
2014    2       6       0.1493055       41.20334
2014    2       7       0.164871        44.45189
2014    3       0       0.1999395       51.62701
2014    3       1       0.2018314       52.26128
2014    3       2       0.1889937       49.69174
2014    3       3       0.2025607       52.62816
2014    3       4       0.2081376       53.93956
2014    3       5       0.1509143       41.90929
2014    3       6       0.1139463       33.58613
2014    3       7       0.08950426      27.77684
2014    4       0       0.09583411      29.22549
2014    4       1       0.1237473       35.80226
2014    4       2       0.1072357       31.8541
2014    4       3       0.1301152       36.97629
2014    4       4       0.1590678       43.4636
2014    4       5       0.1265669       36.4092
2014    4       6       0.1135188       33.22488
2014    4       7       0.143098        39.43668
2014    5       0       0.1824778       47.60519
2014    5       1       0.2166645       54.35489
2014    5       2       0.2234253       56.06484
2014    5       3       0.2144385       54.71648
2014    5       4       0.2156801       55.17574
2014    5       5       0.1553701       42.57338
2014    5       6       0.1405754       39.31415
2014    5       7       0.1393243       39.04039
2014    6       0       0.1434919       39.94232
2014    6       1       0.145494        40.33081
2014    6       2       0.1421719       39.67472
2014    6       3       0.1419839       39.75879
2014    6       4       0.1488887       41.38381
2014    6       5       0.1034687       31.09455
2014    6       6       0.106576        31.82366
2014    6       7       0.09392372      28.36897
2014    7       0       0.1216551       34.24729
2014    7       1       0.08447063      26.14327
2014    7       2       0.1465386       40.12245
2014    7       3       0.1633816       43.63716
2014    7       4       0.1998464       51.50047
2014    7       5       0.1738806       45.68133
2014    7       6       0.1900685       48.75688
2014    7       7       0.1871782       48.68538
2014    8       0       0.1927368       49.87387
2014    8       1       0.211357        53.65353
2014    8       2       0.2003357       51.419
2014    8       3       0.1949868       50.38664
2014    8       4       0.2144871       54.32739
2014    8       5       0.2167456       54.84496
2014    8       6       0.2423815       59.61712
2014    8       7       0.2325812       57.59858
2014    9       0       0.2168827       54.48203
2014    9       1       0.2117388       53.45676
2014    9       2       0.1714991       45.35068
2014    9       3       0.165871        44.32952
2014    9       4       0.2014599       51.69045
2014    9       5       0.2287719       56.9286
2014    9       6       0.2197372       54.82234
2014    9       7       0.211552        53.12967
2014    10      0       0.1846099       47.71933
2014    10      1       0.1722793       45.27055
2014    10      2       0.1399776       38.42287
2014    10      3       0.1366061       37.73251
2014    10      4       0.15341         41.33808
2014    10      5       0.1609789       42.88435
2014    10      6       0.1590495       42.59641
2014    10      7       0.1501123       40.77547
2014    11      0       0.1032792       30.64709
2014    11      1       0.07936384      25.11852
2014    11      2       0.1299443       36.05125
2014    11      3       0.1651279       43.55519
2014    11      4       0.1903806       48.88922
2014    11      5       0.1961011       49.94095
2014    11      6       0.2049255       51.26758
2014    11      7       0.226833        55.56995
2014    12      0       0.2006997       50.60765
2014    12      1       0.1839251       47.19696
2014    12      2       0.1860333       47.66226
2014    12      3       0.1771663       46.26386
2014    12      4       0.2029063       51.36294
2014    12      5       0.2121171       53.02483
2014    12      6       0.2107967       52.68363
2014    12      7       0.2459676       59.73903
2014    13      0       0.280242        66.33117
2014    13      1       0.2920004       68.3316
2014    13      2       0.3577444       79.8798
2014    13      3       0.3783048       83.75264
2014    13      4       0.3918173       86.33887
2014    13      5       0.2817652       67.05852
2014    13      6       0.3053915       70.9927
2014    13      7       0.3202999       73.20749
2014    14      0       0.2635696       63.15774
2014    14      1       0.2417474       58.86304
2014    14      2       0.2404409       58.47457
2014    14      3       0.2997952       69.41636
2014    14      4       0.4204501       90.13536
2014    14      5       0.4971942       102.6113
2014    14      6       0.4563292       96.23792
2014    14      7       0.4591056       96.79784
2014    15      0       0.4602522       96.93137
2014    15      1       0.4317746       92.34622
2014    15      2       0.3229989       73.68244
2014    15      3       0.3217548       73.46356
2014    15      4       0.3378192       76.35538
2014    15      5       0.3480958       78.26784
2014    15      6       0.3799539       83.57459
2014    15      7       0.3927415       85.59451
2014    16      0       0.3317007       75.24013
2014    16      1       0.221745        54.95142
2014    16      2       0.1877147       48.22212
2014    16      3       0.1512963       40.78398
2014    16      4       0.09984704      29.71767
2014    16      5       0.08213523      25.72053
2014    16      6       0.08811866      27.08979
2014    16      7       0.1072127       31.463
2014    17      0       0.1079672       31.55801
2014    17      1       0.1035495       30.64374
2014    17      2       0.1073046       31.53735
2014    17      3       0.1167297       33.66309
2014    17      4       0.1219675       34.8769
2014    17      5       0.122869        35.13405
2014    17      6       0.1320506       37.10416
2014    17      7       0.1439798       39.70305
2014    18      0       0.1467285       40.35618
2014    18      1       0.1462367       40.26679
2014    18      2       0.1610052       43.32201
2014    18      3       0.1752011       46.35716
2014    18      4       0.1952971       50.47063
2014    18      5       0.1842207       48.17727
2014    18      6       0.1811092       47.54283
2014    18      7       0.1864713       48.56381
2014    19      0       0.2028646       51.54098
2014    19      1       0.2103919       52.79685
2014    19      2       0.2027551       51.50744
2014    19      3       0.1825419       47.9411
2014    19      4       0.175282        46.50787
2014    19      5       0.1283521       36.49685
2014    19      6       0.1158086       33.55971
2014    19      7       0.1225082       34.84802
2014    20      0       0.1236022       35.23587
2014    20      1       0.1304103       36.52923
2014    20      2       0.1499316       40.30488
2014    20      3       0.2146839       53.61619
2014    20      4       0.2212309       55.28624
2014    20      5       0.216535        54.59352
2014    20      6       0.2286416       56.34808
2014    20      7       0.262568        62.80493
2014    21      0       0.284787        67.02276
2014    21      1       0.2860588       67.51466
2014    21      2       0.3064471       71.01612
2014    21      3       0.3834157       84.19234
2014    21      4       0.3199286       73.6159
2014    21      5       0.2375609       58.46868
2014    21      6       0.2403947       58.90493
2014    21      7       0.3141561       72.50048
2014    22      0       0.2797383       66.31906
2014    22      1       0.2963958       69.23416
2014    22      2       0.3886772       85.35646
2014    22      3       0.3802695       84.24028
2014    22      4       0.4196408       90.71838
2014    22      5       0.4066577       88.56335
2014    22      6       0.4036128       88.05757
2014    22      7       0.358649        80.53735
2014    23      0       0.3058788       71.03648
2014    23      1       0.2957426       69.20125
2014    23      2       0.2957242       69.12986
2014    23      3       0.2725492       64.89668
2014    23      4       0.2607993       62.53393
2014    23      5       0.2209638       54.93361
2014    23      6       0.2020878       51.28176
2014    23      7       0.1723631       45.45164
2014    24      0       0.1212846       34.73717
2014    24      1       0.1216373       34.75319
2014    24      2       0.1310708       36.60955
2014    24      3       0.2065274       52.38226
2014    24      4       0.2144343       53.95674
2014    24      5       0.1629204       43.49158
2014    24      6       0.1465823       40.29252
2014    24      7       0.1293866       36.62807
2014    25      0       0.1212445       34.77927
2014    25      1       0.1209507       34.68586
2014    25      2       0.1549973       42.09761
2014    25      3       0.1836274       48.50883
2014    25      4       0.219395        55.81006
2014    25      5       0.2252725       56.61637
2014    25      6       0.2027993       52.1062
2014    25      7       0.180639        47.56088
2014    26      0       0.1627259       43.7252
2014    26      1       0.1465187       40.22819
2014    26      2       0.1396407       38.73427
2014    26      3       0.1238954       35.40615
2014    26      4       0.1346204       37.65503
2014    26      5       0.1273192       36.01891
2014    26      6       0.1099936       32.2623
2014    26      7       0.1088533       31.90965
2014    27      0       0.07476699      24.12634
2014    27      1       0.07170889      23.49218
2014    27      2       0.07274004      23.80694
2014    27      3       0.07590438      24.58291
2014    27      4       0.07180387      23.63437
2014    27      5       0.06512867      22.06426
2014    27      6       0.06702253      22.56506
2014    27      7       0.06799476      22.8088
2014    28      0       0.07080407      23.44998
2014    28      1       0.06931312      23.04962
2014    28      2       0.08224218      25.95456
2014    28      3       0.1117531       32.37323
2014    28      4       0.1458899       39.76143
2014    28      5       0.1545735       41.54296
2014    28      6       0.1347022       37.01337
2014    28      7       0.1380309       37.7107
2014    29      0       0.1455788       39.26936
2014    29      1       0.1628185       42.93677
2014    29      2       0.1904989       48.78332
2014    29      3       0.2258429       55.86111
2014    29      4       0.2537324       61.37259
2014    29      5       0.2300466       56.9972
2014    29      6       0.2116801       53.41768
2014    29      7       0.2099973       53.01078
2014    30      0       0.2100416       52.84349
2014    30      1       0.1953157       49.97558
2014    30      2       0.2188611       54.48549
2014    30      3       0.2485999       60.35097
2014    30      4       0.2981663       69.70593
2014    30      5       0.2619496       62.97405
2014    30      6       0.2210808       55.02323
2014    30      7       0.2100377       52.79267
2014    31      0       0.1997408       50.76985
2014    31      1       0.1762506       45.99865
2014    31      2       0.1736579       45.30195
2014    31      3       0.1923755       49.10427
2014    31      4       0.2216791       55.04909
2014    31      5       0.24788         60.18105
2014    31      6       0.2286334       56.31249
2014    31      7       0.2088378       52.47547
2015    1       0       0.2398875       59.36943
2015    1       1       0.243363        60.09658
2015    1       2       0.2495615       61.31487
2015    1       3       0.2656406       64.4997
2015    1       4       0.2912941       69.38248
2015    1       5       0.292065        69.61626
2015    1       6       0.2668518       65.02287
2015    1       7       0.2453322       61.02587
2015    2       0       0.2028059       52.63349
2015    2       1       0.1963766       51.42015
2015    2       2       0.1885978       49.65018
2015    2       3       0.1822513       48.27395
2015    2       4       0.2227939       56.25636
2015    2       5       0.2396367       59.64951
2015    2       6       0.224125        56.86879
2015    2       7       0.1823731       48.14042
2015    3       0       0.2248427       57.00562
2015    3       1       0.2377773       59.66478
2015    3       2       0.217809        55.60042
2015    3       3       0.2407564       60.16467
2015    3       4       0.2654221       64.82796
2015    3       5       0.2575033       63.60817
2015    3       6       0.2629416       64.61253
2015    3       7       0.2839584       68.66207
2015    4       0       0.2865576       69.02106
2015    4       1       0.3165579       74.39576
2015    4       2       0.357765        81.89066
2015    4       3       0.3730759       84.76706
2015    4       4       0.3591098       82.18194
2015    4       5       0.3621267       82.40991
2015    4       6       0.3512507       80.34407
2015    4       7       0.358532        81.52102
2015    5       0       0.3624316       82.26487
2015    5       1       0.3667334       83.14062
2015    5       2       0.346121        80.04781
2015    5       3       0.354276        81.96154
2015    5       4       0.353594        82.26186
2015    5       5       0.2928831       70.6384
2015    5       6       0.3020246       72.1361
2015    5       7       0.368719        83.93489
2015    6       0       0.3959084       88.68208
2015    6       1       0.366506        83.93785
2015    6       2       0.4758131       100.697
2015    6       3       0.4256751       93.06766
2015    6       4       0.374408        84.7494
2015    6       5       0.2867637       69.472
2015    6       6       0.2258866       57.75998
2015    6       7       0.2350448       59.50857
2015    7       0       0.2746629       66.98176
2015    7       1       0.3054088       72.51411
2015    7       2       0.2835922       68.24836
2015    7       3       0.2649843       64.83274
2015    7       4       0.2771863       67.25396
2015    7       5       0.2823491       68.35845
2015    7       6       0.3089322       72.9654
2015    7       7       0.3518066       80.62066
2015    8       0       0.3655949       82.92326
2015    8       1       0.3565428       81.23008
2015    8       2       0.3640889       82.2523
2015    8       3       0.3475514       79.53908
2015    8       4       0.3698577       83.50065
2015    8       5       0.3718001       84.25654
2015    8       6       0.364816        82.87862
2015    8       7       0.2597149       62.69044
2015    9       0       0.2497278       60.69463
2015    9       1       0.2430583       59.40112
2015    9       2       0.3399612       77.12847
2015    9       3       0.3473637       78.71435
2015    9       4       0.3881076       86.05979
2015    9       5       0.3853246       85.71205
2015    9       6       0.3395033       77.74189
2015    9       7       0.2829512       67.67012
2015    10      0       0.2695311       65.168
2015    10      1       0.2782369       66.76938
2015    10      2       0.2512828       62.08799
2015    10      3       0.2754197       66.70098
2015    10      4       0.3659073       82.63771
2015    10      5       0.4319824       93.33287
2015    10      6       0.4552691       96.71641
2015    10      7       0.4353352       93.52791
2015    11      0       0.3575111       80.22744
2015    11      1       0.3290306       75.00762
2015    11      2       0.4221259       91.13306
2015    11      3       0.4084475       89.07093
2015    11      4       0.3758099       83.71102
2015    11      5       0.3784538       83.88817
2015    11      6       0.3341171       75.97959
2015    11      7       0.2972687       69.34728
2015    12      0       0.2475442       60.24696
2015    12      1       0.223102        55.61119
2015    12      2       0.2031933       51.92193
2015    12      3       0.2026294       52.07055
2015    12      4       0.2179226       55.24681
2015    12      5       0.1324637       37.42099
2015    12      6       0.07792208      24.9868
2015    12      7       0.07961669      25.37531
2015    13      0       0.07628254      24.59622
2015    13      1       0.07852502      25.08579
2015    13      2       0.1554671       42.22513
2015    13      3       0.2893618       68.26205
2015    13      4       0.290858        68.41933
2015    13      5       0.2397711       59.06046
2015    13      6       0.2089389       53.20619
2015    13      7       0.1719638       45.62847
2015    14      0       0.1431101       39.47279
2015    14      1       0.1079504       31.82113
2015    14      2       0.1386073       38.56362
2015    14      3       0.1732406       46.00766
2015    14      4       0.1885734       49.03165
2015    14      5       0.1844247       48.09509
2015    14      6       0.1738362       45.90383
2015    14      7       0.1219287       35.0109
2015    15      0       0.09417911      28.83229
2015    15      1       0.09867794      29.81901
2015    15      2       0.08518775      26.78882
2015    15      3       0.1355404       38.12212
2015    15      4       0.1462292       40.43803
2015    15      5       0.09302405      28.48748
2015    15      6       0.08666768      26.96135
2015    15      7       0.1016954       30.38127
2015    16      0       0.1240867       35.21352
2015    16      1       0.1454277       39.95726
2015    16      2       0.1533801       41.89581
2015    16      3       0.1891498       49.53155
2015    16      4       0.2183333       55.40989
2015    16      5       0.1831384       48.04953
2015    16      6       0.1944659       50.06789
2015    16      7       0.2136465       53.47155
2015    17      0       0.2439771       58.99047
2015    17      1       0.2431928       58.70751
2015    17      2       0.2161991       53.48567
2015    17      3       0.2185077       53.88442
2015    17      4       0.2378877       57.78882
2015    17      5       0.2311182       56.51568
2015    17      6       0.1769368       45.75163
2015    17      7       0.1443536       39.19764
2015    18      0       0.1372001       37.82717
2015    18      1       0.110673        32.08439
2015    18      2       0.1008129       29.96945
2015    18      3       0.1547466       41.76397
2015    18      4       0.1855471       47.99985
2015    18      5       0.1593029       42.35193
2015    18      6       0.1522085       40.93769
2015    18      7       0.1657036       43.93317
2015    19      0       0.1558927       41.96388
2015    19      1       0.1268787       35.77139
2015    19      2       0.1307039       36.6588
2015    19      3       0.1729227       45.52578
2015    19      4       0.2168341       54.4886
2015    19      5       0.1990331       50.70247
2015    19      6       0.1760676       45.8643
2015    19      7       0.1754459       45.57976
2015    20      0       0.2212014       54.40393
2015    20      1       0.2369378       57.4055
2015    20      2       0.1967777       49.96997
2015    20      3       0.2050285       51.80886
2015    20      4       0.2147164       53.76986
2015    20      5       0.1931881       49.47045
2015    20      6       0.1675529       44.34485
2015    20      7       0.1418983       39.05371
2015    21      0       0.1249505       35.37307
2015    21      1       0.1104002       32.17059
2015    21      2       0.1091317       31.98115
2015    21      3       0.1443297       39.80048
2015    21      4       0.2395088       59.04929
2015    21      5       0.2780113       65.61756
2015    21      6       0.2084044       52.18071
2015    21      7       0.1663419       43.68407
2015    22      0       0.2182549       53.8705
2015    22      1       0.2580462       61.67255
2015    22      2       0.2140595       53.47659
2015    22      3       0.2328528       57.1328
2015    22      4       0.2876496       67.30886
2015    22      5       0.2838403       66.63202
2015    22      6       0.2309027       56.47085
2015    22      7       0.1994849       50.24103
2015    23      0       0.1634584       42.99615
2015    23      1       0.1523661       40.74362
2015    23      2       0.1835258       47.02867
2015    23      3       0.2229639       54.77643
2015    23      4       0.2350697       56.95416
2015    23      5       0.2214603       54.31858
2015    23      6       0.2168632       53.38878
2015    23      7       0.2159061       53.16789
2015    24      0       0.2303017       56.01375
2015    24      1       0.2255141       55.11339
2015    24      2       0.2076448       51.6912
2015    24      3       0.1774802       45.80516
2015    24      4       0.1340871       37.2523
2015    24      5       0.1088341       31.91009
2015    24      6       0.06679336      22.24574
2015    24      7       0.08525966      26.23658
2015    25      0       0.1144852       32.66443
2015    25      1       0.1771586       46.02837
2015    25      2       0.2823995       67.15174
2015    25      3       0.3827379       85.84421
2015    25      4       0.4137718       90.49886
2015    25      5       0.4181671       91.44595
2015    25      6       0.3909056       86.9066
2015    25      7       0.3516973       79.84161
2015    26      0       0.386017        85.84561
2015    26      1       0.4151919       90.95846
2015    26      2       0.4857789       102.545
2015    26      3       0.6362004       124.8465
2015    26      4       0.717693        135.2332
2015    26      5       0.6923246       132.0669
2015    26      6       0.6704277       129.2045
2015    26      7       0.6082487       121.1224
2015    27      0       0.51303         106.597
2015    27      1       0.49011         102.8565
2015    27      2       0.5145287       106.5807
2015    27      3       0.6071843       119.9172
2015    27      4       0.4169008       91.74504
2015    27      5       0.317969        74.50697
2015    27      6       0.2639029       64.40014
2015    27      7       0.244117        60.63678
2015    28      0       0.2010056       52.03043
2015    28      1       0.1653628       44.6854
2015    28      2       0.1266611       36.32941
2015    28      3       0.137315        38.69167
2015    28      4       0.1213149       35.16548
2015    28      5       0.1220945       35.2091
2015    28      6       0.1175659       34.15188
2015    28      7       0.1232835       35.19165
2015    29      0       0.1162333       33.64922
2015    29      1       0.09891826      29.95998
2015    29      2       0.09890179      29.99113
2015    29      3       0.1506794       41.50212
2015    29      4       0.1739693       46.53053
2015    29      5       0.1533487       41.9903
2015    29      6       0.1118965       32.75418
2015    29      7       0.1375318       38.2924
2015    30      0       0.1670899       44.5719
2015    30      1       0.1645624       43.95141
2015    30      2       0.186676        48.32524
2015    30      3       0.2028233       51.43025
2015    30      4       0.1940336       49.6923
2015    30      5       0.166813        44.14628
2015    30      6       0.1618393       43.28272
2015    30      7       0.1519487       41.19062
2015    31      0       0.1035825       30.72999
2015    31      1       0.0998798       29.96587
2015    31      2       0.09501296      28.84121
2015    31      3       0.1277723       36.07284
2015    31      4       0.1169406       33.74923
2015    31      5       0.1152437       33.35547
2015    31      6       0.120671        34.47441
2015    31      7       0.1475098       39.9606
2016    1       0       0.3517506       80.25951
2016    1       1       0.2954382       70.33662
2016    1       2       0.2239668       56.54269
2016    1       3       0.2143504       54.57202
2016    1       4       0.2776727       66.85269
2016    1       5       0.2909888       69.33381
2016    1       6       0.2522499       61.81754
2016    1       7       0.1843468       48.58427
2016    2       0       0.1448173       40.25839
2016    2       1       0.1257041       36.07875
2016    2       2       0.1141917       33.36348
2016    2       3       0.1107691       32.66114
2016    2       4       0.1137201       33.38547
2016    2       5       0.1141289       33.49801
2016    2       6       0.1349922       37.81665
2016    2       7       0.1741017       46.16617
2016    3       0       0.15285         41.91696
2016    3       1       0.1738716       46.14198
2016    3       2       0.2060305       52.90743
2016    3       3       0.1830233       48.77188
2016    3       4       0.2202678       56.24901
2016    3       5       0.2634373       64.90021
2016    3       6       0.2804678       68.50373
2016    3       7       0.2911668       70.36399
2016    4       0       0.3214098       75.72136
2016    4       1       0.364625        83.61073
2016    4       2       0.4148073       92.76892
2016    4       3       0.4302523       95.56665
2016    4       4       0.3858723       88.43491
2016    4       5       0.3530251       82.61287
2016    4       6       0.3250333       77.41213
2016    4       7       0.3234344       76.82294
2016    5       0       0.3155107       75.34816
2016    5       1       0.3131904       74.74889
2016    5       2       0.2219666       57.22855
2016    5       3       0.1790293       48.10998
2016    5       4       0.1701031       46.24453
2016    5       5       0.173633        46.82697
2016    5       6       0.182702        48.81366
2016    5       7       0.1839284       49.00555
2016    6       0       0.2285035       57.56178
2016    6       1       0.2320586       58.20804
2016    6       2       0.2306461       58.10554
2016    6       3       0.2177393       55.95195
2016    6       4       0.2556911       62.98719
2016    6       5       0.2569866       63.45293
2016    6       6       0.2244601       57.5654
2016    6       7       0.2717153       66.12376
2016    7       0       0.2955783       70.5066
2016    7       1       0.2572976       63.52264
2016    7       2       0.2170637       55.81294
2016    7       3       0.1851786       49.28096
2016    7       4       0.1691527       46.20812
2016    7       5       0.1528464       42.81919
2016    7       6       0.1348052       38.77864
2016    7       7       0.1448113       41.07348
2016    8       0       0.1255727       36.58841
2016    8       1       0.1189929       35.01558
2016    8       2       0.1077859       32.12358
2016    8       3       0.1324792       37.46695
2016    8       4       0.1619606       44.05221
2016    8       5       0.1508423       41.67483
2016    8       6       0.1500184       41.52157
2016    8       7       0.1613468       44.00115
2016    9       0       0.1657757       44.93106
2016    9       1       0.1599033       43.68864
2016    9       2       0.1820599       48.71235
2016    9       3       0.2011433       52.73888
2016    9       4       0.2209696       56.95098
2016    9       5       0.1690171       46.20101
2016    9       6       0.1572734       43.81889
2016    9       7       0.1700309       46.54777
2016    10      0       0.1755094       47.48083
2016    10      1       0.1638317       44.87182
2016    10      2       0.1328808       37.72285
2016    10      3       0.1616102       44.13549
2016    10      4       0.2300075       58.22872
2016    10      5       0.1976091       51.44693
2016    10      6       0.2752682       66.57944
2016    10      7       0.3686686       83.17942
2016    11      0       0.3673704       82.9807
2016    11      1       0.2312397       57.97938
2016    11      2       0.1573347       43.0535
2016    11      3       0.1442568       40.18725
2016    11      4       0.1488438       41.28465
2016    11      5       0.1305285       37.42615
2016    11      6       0.1265802       36.56544
2016    11      7       0.1262221       36.46765
2016    12      0       0.1258641       36.1785
2016    12      1       0.1323852       37.40501
2016    12      2       0.1333677       37.60098
2016    12      3       0.1583295       43.22889
2016    12      4       0.1857025       49.17344
2016    12      5       0.138077        39.0592
2016    12      6       0.1108109       33.07433
2016    12      7       0.05911347      20.75912
2016    13      0       0.04905174      18.24171
2016    13      1       0.09700581      29.82106
2016    13      2       0.06659083      22.53944
2016    13      3       0.09955131      30.3228
2016    13      4       0.1252827       36.14404
2016    13      5       0.1360748       38.72457
2016    13      6       0.1412679       39.81255
2016    13      7       0.1396812       39.4297
2016    14      0       0.1332302       37.97992
2016    14      1       0.1255416       36.2944
2016    14      2       0.08829302      27.88031
2016    14      3       0.0784979       25.46623
2016    14      4       0.08219827      26.29806
2016    14      5       0.07856932      25.45389
2016    14      6       0.09438439      28.87209
2016    14      7       0.1085786       31.98083
2016    15      0       0.1381863       38.46799
2016    15      1       0.1899454       49.14542
2016    15      2       0.2998189       69.91421
2016    15      3       0.3584983       81.3989
2016    15      4       0.3283872       76.67212
2016    15      5       0.2182379       55.8355
2016    15      6       0.1661507       44.86169
2016    15      7       0.1654119       44.52109
2016    16      0       0.1823688       47.94245
2016    16      1       0.2065656       52.69123
2016    16      2       0.2427429       59.82335
2016    16      3       0.3842151       85.93101
2016    16      4       0.4715443       100.7312
2016    16      5       0.4510534       97.53883
2016    16      6       0.3488483       80.56076
2016    16      7       0.2221238       56.8023
2016    17      0       0.1696579       45.92597
2016    17      1       0.1427038       40.00288
2016    17      2       0.1164196       34.17707
2016    17      3       0.1237705       35.91049
2016    17      4       0.1261554       36.43593
2016    17      5       0.1395815       38.94563
2016    17      6       0.1624262       43.55089
2016    17      7       0.1673048       44.4647
2016    18      0       0.2037895       51.58437
2016    18      1       0.2323525       57.4473
2016    18      2       0.2446124       60.4531
2016    18      3       0.2047997       53.0699
2016    18      4       0.2004074       52.05548
2016    18      5       0.1925371       50.40107
2016    18      6       0.172214        46.21749
2016    18      7       0.1612856       43.77981
2016    19      0       0.1776066       46.86093
2016    19      1       0.2003921       51.26586
2016    19      2       0.1821718       47.67326
2016    19      3       0.1585642       43.06483
2016    19      4       0.1724389       45.95369
2016    19      5       0.1632667       44.04844
2016    19      6       0.1416048       39.43373
2016    19      7       0.130411        37.00787
2016    20      0       0.1291025       36.60529
2016    20      1       0.1215312       34.94076
2016    20      2       0.1127608       33.01452
2016    20      3       0.1209815       34.98546
2016    20      4       0.119012        34.70234
2016    20      5       0.1220521       35.30216
2016    20      6       0.1259987       36.06499
2016    20      7       0.1356097       38.07271
2016    21      0       0.1627681       43.65161
2016    21      1       0.169726        45.26187
2016    21      2       0.168429        45.18442
2016    21      3       0.1634373       44.07827
2016    21      4       0.1475743       41.08091
2016    21      5       0.1534639       42.29289
2016    21      6       0.173742        46.32625
2016    21      7       0.1932362       50.2165
2016    22      0       0.217138        54.78194
2016    22      1       0.2191574       54.94432
2016    22      2       0.2096006       53.33227
2016    22      3       0.2200164       55.55583
2016    22      4       0.2857397       68.21748
2016    22      5       0.3142283       73.43921
2016    22      6       0.3078557       72.11214
2016    22      7       0.2889483       68.65548
2016    23      0       0.2686767       64.88613
2016    23      1       0.2609238       63.39496
2016    23      2       0.2652582       64.27813
2016    23      3       0.31525         73.47532
2016    23      4       0.3279135       75.64562
2016    23      5       0.2997687       70.78428
2016    23      6       0.3088242       71.83454
2016    23      7       0.298404        69.92326
2016    24      0       0.2843458       67.2925
2016    24      1       0.2754632       65.52042
2016    24      2       0.222618        55.74623
2016    24      3       0.2228256       55.83714
2016    24      4       0.2663075       63.74404
2016    24      5       0.2517205       60.83854
2016    24      6       0.2588374       62.00295
2016    24      7       0.2620912       62.58236
2016    25      0       0.2646337       62.98701
2016    25      1       0.2600891       62.07959
2016    25      2       0.2311603       56.49924
2016    25      3       0.2219012       54.73514
2016    25      4       0.2251967       55.79699
2016    25      5       0.1943643       49.76099
2016    25      6       0.1382652       38.18713
2016    25      7       0.1097381       32.11898
2016    26      0       0.09913995      29.7555
2016    26      1       0.1026503       30.51476
2016    26      2       0.119264        34.15699
2016    26      3       0.1632573       43.58546
2016    26      4       0.2090658       53.08957
2016    26      5       0.236628        58.7328
2016    26      6       0.2484132       61.20003
2016    26      7       0.239938        59.92995
2016    27      0       0.2502425       62.00977
2016    27      1       0.2490751       61.98723
2016    27      2       0.3023727       71.93267
2016    27      3       0.4376136       95.10864
2016    27      4       0.4013562       89.65268
2016    27      5       0.3964448       88.80978
2016    27      6       0.3941035       88.32191
2016    27      7       0.3847711       86.34589
2016    28      0       0.369064        83.69603
2016    28      1       0.357383        81.63581
2016    28      2       0.3711737       84.3058
2016    28      3       0.3111781       73.37121
2016    28      4       0.289076        69.29421
2016    28      5       0.3088488       73.37329
2016    28      6       0.2608126       64.04176
2016    28      7       0.246877        61.13057
2016    29      0       0.2672421       64.70218
2016    29      1       0.301666        70.95552
2016    29      2       0.2839332       68.19283
2016    29      3       0.2511945       62.05488
2016    29      4       0.2442139       60.8278
2016    29      5       0.2661105       65.13437
2016    29      6       0.2703976       65.95216
2016    29      7       0.2877016       69.10657
2016    30      0       0.2771391       67.08519
2016    30      1       0.2423845       60.46799
2016    30      2       0.1935706       50.68768
2016    30      3       0.1908211       49.82402
2016    30      4       0.1975135       50.80694
2016    30      5       0.2261054       56.56342
2016    30      6       0.2718689       65.65066
2016    30      7       0.2388152       59.343
2016    31      0       0.2333268       58.19104
2016    31      1       0.2546249       62.05978
2016    31      2       0.202886        51.41903
2016    31      3       0.2025828       51.22346
2016    31      4       0.2565268       61.82056
2016    31      5       0.322129        74.38009
2016    31      6       0.3280629       75.54332
2016    31      7       0.239795        58.6711
2017    1       0       0.124334        35.67961
2017    1       1       0.1189078       34.29882
2017    1       2       0.1278858       36.04869
2017    1       3       0.1861981       48.40211
2017    1       4       0.2254369       56.34021
2017    1       5       0.2440565       60.02106
2017    1       6       0.2416545       59.51612
2017    1       7       0.2366911       58.56972
2017    2       0       0.2485426       60.73512
2017    2       1       0.2642022       63.55477
2017    2       2       0.3088196       71.90572
2017    2       3       0.3175092       73.81119
2017    2       4       0.2981726       70.58963
2017    2       5       0.2840519       68.1137
2017    2       6       0.2625677       64.01826
2017    2       7       0.239506        59.46968
2017    3       0       0.2149252       54.5557
2017    3       1       0.1883172       49.2863
2017    3       2       0.1892869       49.64923
2017    3       3       0.1945937       50.86897
2017    3       4       0.1852569       48.96357
2017    3       5       0.1599645       43.50745
2017    3       6       0.1403043       39.16702
2017    3       7       0.138746        38.81013
2017    4       0       0.138881        38.82116
2017    4       1       0.1291469       36.74141
2017    4       2       0.1352323       38.1067
2017    4       3       0.169912        45.5668
2017    4       4       0.1775954       47.2932
2017    4       5       0.1635589       44.28888
2017    4       6       0.1748883       46.6062
2017    4       7       0.2076105       53.14444
2017    5       0       0.2448626       60.34269
2017    5       1       0.2341357       58.48888
2017    5       2       0.2280972       57.56847
2017    5       3       0.2206754       56.38448
2017    5       4       0.2315599       58.3845
2017    5       5       0.1677919       45.37153
2017    5       6       0.1846615       48.8657
2017    5       7       0.232013        58.46478
2017    6       0       0.2944018       70.52806
2017    6       1       0.308182        73.15436
2017    6       2       0.3211082       75.29549
2017    6       3       0.3318716       77.37792
2017    6       4       0.3451334       79.9421
2017    6       5       0.2787531       67.87681
2017    6       6       0.2691637       65.90179
2017    6       7       0.271278        66.02299
2017    7       0       0.2972825       70.72797
2017    7       1       0.2771538       67.20956
2017    7       2       0.2299265       58.21337
2017    7       3       0.1909852       50.20423
2017    7       4       0.1791828       47.76498
2017    7       5       0.1540084       42.4696
2017    7       6       0.1225096       35.64429
2017    7       7       0.07591974      24.9506
2017    8       0       0.07167066      24.00755
2017    8       1       0.08735369      27.54387
2017    8       2       0.08301115      26.36384
2017    8       3       0.08835221      27.67507
2017    8       4       0.09208704      28.61035
2017    8       5       0.0995567       30.34142
2017    8       6       0.1066918       31.85574
2017    8       7       0.1039124       31.20232
2017    9       0       0.09405506      28.93658
2017    9       1       0.1096913       32.65252
2017    9       2       0.13305         37.81601
2017    9       3       0.1640017       44.59996
2017    9       4       0.1920768       50.59215
2017    9       5       0.2150673       55.02522
2017    9       6       0.2558152       62.88176
2017    9       7       0.2532333       62.22087
2017    10      0       0.18251         48.10466
2017    10      1       0.1566586       42.51062
2017    10      2       0.1350514       37.74526
2017    10      3       0.1525804       41.5848
2017    10      4       0.1850949       48.55989
2017    10      5       0.1825131       48.04261
2017    10      6       0.2190949       55.53192
2017    10      7       0.2558536       62.75449
2017    11      0       0.3025881       71.5007
2017    11      1       0.3261809       75.76032
2017    11      2       0.3470671       80.0148
2017    11      3       0.3809103       86.2865
2017    11      4       0.4819879       102.7614
2017    11      5       0.5586289       113.6013
2017    11      6       0.4925287       102.7827
2017    11      7       0.7356036       135.6094
2017    12      0       0.6465907       124.3419
2017    12      1       0.6251441       121.3709
2017    12      2       0.4358203       93.67597
2017    12      3       0.3956191       86.89187
2017    12      4       0.3057024       71.23231
2017    12      5       0.300231        70.60822
2017    12      6       0.2364712       58.59053
2017    12      7       0.2882374       67.89148
2017    13      0       0.4562033       95.90666
2017    13      1       0.4113355       88.88541
2017    13      2       0.3790665       83.53396
2017    13      3       0.3721991       82.26523
2017    13      4       0.3296903       74.95048
2017    13      5       0.2989785       69.52773
2017    13      6       0.2593873       61.82017
2017    13      7       0.2889155       67.10682
2017    14      0       0.3281297       74.10667
2017    14      1       0.243331        58.71183
2017    14      2       0.2373427       57.53746
2017    14      3       0.2734255       64.32883
2017    14      4       0.279038        65.47796
2017    14      5       0.2932254       68.17388
2017    14      6       0.2482789       59.8826
2017    14      7       0.2245721       55.42754
2017    15      0       0.2168352       54.04987
2017    15      1       0.1959376       50.17636
2017    15      2       0.2190393       54.97977
2017    15      3       0.2608979       62.73255
2017    15      4       0.2624293       63.28295
2017    15      5       0.2222325       55.6307
2017    15      6       0.1990525       51.02141
2017    15      7       0.1910755       49.34909
2017    16      0       0.184779        47.93535
2017    16      1       0.1538892       41.54966
2017    16      2       0.1370365       37.99639
2017    16      3       0.1892778       48.86626
2017    16      4       0.2048229       52.03895
2017    16      5       0.1770943       46.52843
2017    16      6       0.1537005       41.81118
2017    16      7       0.1475268       40.49495
2017    17      0       0.1400541       38.76028
2017    17      1       0.1513396       41.06648
2017    17      2       0.1702251       45.05473
2017    17      3       0.2231785       55.81619
2017    17      4       0.2547814       61.85908
2017    17      5       0.2382838       58.81292
2017    17      6       0.2260881       56.47122
2017    17      7       0.2133632       53.9431
2017    18      0       0.1989182       51.06949
2017    18      1       0.1952431       50.20958
2017    18      2       0.2165908       54.36858
2017    18      3       0.257803        62.42081
2017    18      4       0.2639542       63.70107
2017    18      5       0.250695        61.2075
2017    18      6       0.238042        58.81689
2017    18      7       0.2305481       57.47984
2017    19      0       0.2304021       57.47445
2017    19      1       0.2498701       61.47069
2017    19      2       0.230571        57.68862
2017    19      3       0.2672667       64.83431
2017    19      4       0.2886396       68.98632
2017    19      5       0.271755        65.80456
2017    19      6       0.2668699       64.96113
2017    19      7       0.2979825       70.59299
2017    20      0       0.2973876       70.29416
2017    20      1       0.256378        62.72186
2017    20      2       0.3074088       71.98065
2017    20      3       0.3411269       77.83765
2017    20      4       0.4563546       96.89517
2017    20      5       0.502745        104.2342
2017    20      6       0.3847768       85.97802
2017    20      7       0.3505265       79.88713
2017    21      0       0.3794317       84.34869
2017    21      1       0.3906037       86.31235
2017    21      2       0.3665129       82.26994
2017    21      3       0.2982858       70.13563
2017    21      4       0.2347042       58.27836
2017    21      5       0.2076363       53.03308
2017    21      6       0.1701583       45.39722
2017    21      7       0.1504101       41.30875
2017    22      0       0.1452389       40.26566
2017    22      1       0.1142706       33.45327
2017    22      2       0.08956464      27.80959
2017    22      3       0.1111826       32.8073
2017    22      4       0.1246877       35.90415
2017    22      5       0.1124835       33.23657
2017    22      6       0.1116061       32.92059
2017    22      7       0.1225518       35.0486
2017    23      0       0.129443        36.34962
2017    23      1       0.1363263       37.6707
2017    23      2       0.150791        40.99871
2017    23      3       0.2241336       55.82559
2017    23      4       0.2625145       63.23384
2017    23      5       0.2144993       53.83852
2017    23      6       0.2119832       53.12806
2017    23      7       0.2493319       60.43319
2017    24      0       0.2792541       66.16528
2017    24      1       0.283664        67.046
2017    24      2       0.2777985       65.95633
2017    24      3       0.3377525       76.1702
2017    24      4       0.3221766       73.85346
2017    24      5       0.3265785       74.6767
2017    24      6       0.3385363       76.73976
2017    24      7       0.3285122       74.94881
2017    25      0       0.2749048       65.57346
2017    25      1       0.2230397       55.92128
2017    25      2       0.1740661       46.12545
2017    25      3       0.1939435       50.27646
2017    25      4       0.1948862       50.55484
2017    25      5       0.2198844       55.56516
2017    25      6       0.2863765       68.17702
2017    25      7       0.2977923       70.53511
2017    26      0       0.3025848       71.54136
2017    26      1       0.3517986       79.98124
2017    26      2       0.4200193       91.608
2017    26      3       0.5090896       106.1814
2017    26      4       0.4966037       104.413
2017    26      5       0.4890351       102.6192
2017    26      6       0.5094888       105.7708
2017    26      7       0.4881867       102.6359
2017    27      0       0.4937805       103.3224
2017    27      1       0.4802568       100.9936
2017    27      2       0.4518483       96.69128
2017    27      3       0.4816352       101.2901
2017    27      4       0.4313087       93.38323
2017    27      5       0.3767438       84.44488
2017    27      6       0.3118088       73.14524
2017    27      7       0.2819675       67.4983
2017    28      0       0.2597294       63.29998
2017    28      1       0.2532515       61.95928
2017    28      2       0.2396177       59.12074
2017    28      3       0.2956604       69.42096
2017    28      4       0.2746696       65.52571
2017    28      5       0.2399794       58.85753
2017    28      6       0.1819346       47.67314
2017    28      7       0.1907306       49.47113
2017    29      0       0.2156279       54.28997
2017    29      1       0.2186952       54.8083
2017    29      2       0.2142427       54.0498
2017    29      3       0.259165        62.84041
2017    29      4       0.265728        64.13295
2017    29      5       0.2584845       62.77963
2017    29      6       0.2309147       57.65642
2017    29      7       0.2185557       55.38462
2017    30      0       0.2211877       55.76673
2017    30      1       0.2083343       53.02736
2017    30      2       0.1931362       50.06846
2017    30      3       0.229821        57.21652
2017    30      4       0.2494482       60.87623
2017    30      5       0.2340672       57.96482
2017    30      6       0.2306652       57.27634
2017    30      7       0.2292748       56.98784
2017    31      0       0.2239531       55.99671
2017    31      1       0.2330726       57.65526
2017    31      2       0.1992242       50.94005
2017    31      3       0.2257122       55.6128
2017    31      4       0.2277586       56.02851
2017    31      5       0.222724        55.06682
2017    31      6       0.2366743       57.62148
2017    31      7       0.2446547       59.02901
2018    1       0       0.1384496       38.74007
2018    1       1       0.1741759       45.99813
2018    1       2       0.218119        55.34309
2018    1       3       0.2975344       71.02796
2018    1       4       0.2922278       69.63179
2018    1       5       0.2671523       64.77078
2018    1       6       0.2500479       61.43135
2018    1       7       0.2591991       63.19349
2018    2       0       0.2387981       59.36526
2018    2       1       0.2178055       55.14582
2018    2       2       0.232972        58.08943
2018    2       3       0.2538614       62.21422
2018    2       4       0.2434576       60.33839
2018    2       5       0.2021997       52.20452
2018    2       6       0.1659837       44.76236
2018    2       7       0.1617509       43.88924
2018    3       0       0.1668161       45.05253
2018    3       1       0.151414        41.54279
2018    3       2       0.1262827       36.20411
2018    3       3       0.1538454       42.05627
2018    3       4       0.2064736       53.13178
2018    3       5       0.2090143       53.92962
2018    3       6       0.2245583       57.11169
2018    3       7       0.2340578       58.78632
2018    4       0       0.1919304       50.46809
2018    4       1       0.1556553       42.67817
2018    4       2       0.1707395       45.97964
2018    4       3       0.1950152       50.89091
2018    4       4       0.2260934       57.2117
2018    4       5       0.21831         55.4587
2018    4       6       0.2153343       54.79231
2018    4       7       0.2116815       54.10525
2018    5       0       0.2068522       52.85349
2018    5       1       0.2016803       51.47407
2018    5       2       0.2092952       52.75587
2018    5       3       0.2550319       61.79089
2018    5       4       0.2764061       66.18732
2018    5       5       0.2678872       64.506
2018    5       6       0.2581612       62.50632
2018    5       7       0.2512791       61.34012
2018    6       0       0.2390099       58.95615
2018    6       1       0.2277572       56.71169
2018    6       2       0.2219688       55.21801
2018    6       3       0.2433444       58.92372
2018    6       4       0.232165        56.81265
2018    6       5       0.2159569       53.80281
2018    6       6       0.2337262       57.81831
2018    6       7       0.1631956       43.87333
2018    7       0       0.1383552       38.59034
2018    7       1       0.1643739       43.90536
2018    7       2       0.1697627       44.79646
2018    7       3       0.2191333       55.07193
2018    7       4       0.2693576       64.80716
2018    7       5       0.2786029       66.44088
2018    7       6       0.2880984       68.35536
2018    7       7       0.2876796       68.33115
2018    8       0       0.2849347       67.78159
2018    8       1       0.2864762       67.97171
2018    8       2       0.3194499       73.76116
2018    8       3       0.381452        84.50316
2018    8       4       0.3603684       81.12156
2018    8       5       0.3125133       72.76663
2018    8       6       0.2693051       64.93064
2018    8       7       0.267405        64.65795
2018    9       0       0.2421889       59.75079
2018    9       1       0.2002206       51.30187
2018    9       2       0.1967529       50.63488
2018    9       3       0.2661086       64.14559
2018    9       4       0.3060642       71.61169
2018    9       5       0.284897        67.63527
2018    9       6       0.2683429       64.24121
2018    9       7       0.2832906       66.72987
2018    10      0       0.2711115       64.34644
2018    10      1       0.2474211       59.894
2018    10      2       0.2943598       68.47653
2018    10      3       0.3068578       70.81137
2018    10      4       0.2994313       69.61291
2018    10      5       0.3106701       71.754
2018    10      6       0.3371979       76.35495
2018    10      7       0.2959843       68.92867
2018    11      0       0.2486336       60.09947
2018    11      1       0.2491619       59.79569
2018    11      2       0.2746382       64.55852
2018    11      3       0.3863234       84.11703
2018    11      4       0.4302053       91.56998
2018    11      5       0.4144452       88.87649
2018    11      6       0.3064164       70.53519
2018    11      7       0.2754898       64.8056
2018    12      0       0.2569116       61.25534
2018    12      1       0.3075362       70.59407
2018    12      2       0.2887563       67.28156
2018    12      3       0.3457397       77.37818
2018    12      4       0.4124775       88.7919
2018    12      5       0.362068        80.39837
2018    12      6       0.2481893       59.88872
2018    12      7       0.2647831       62.79632
2018    13      0       0.3212502       73.05401
2018    13      1       0.2596617       61.99967
2018    13      2       0.3372904       75.87639
2018    13      3       0.3053694       70.3127
2018    13      4       0.2585368       61.91807
2018    13      5       0.2435452       58.95643
2018    13      6       0.2449954       59.15719
2018    13      7       0.2732884       64.41456
2018    14      0       0.2963745       68.55561
2018    14      1       0.2756324       65.02873
2018    14      2       0.2164247       53.75716
2018    14      3       0.2031028       51.24786
2018    14      4       0.1797958       46.67515
2018    14      5       0.1605897       42.72055
2018    14      6       0.137717        38.03481
2018    14      7       0.127445        35.8819
2018    15      0       0.1156035       33.37088
2018    15      1       0.1078787       31.7194
2018    15      2       0.1019556       30.48636
2018    15      3       0.1106038       32.47538
2018    15      4       0.10984         32.33077
2018    15      5       0.1010272       30.36801
2018    15      6       0.09367449      28.68702
2018    15      7       0.09221812      28.34062
2018    16      0       0.09095643      28.04629
2018    16      1       0.08946851      27.71898
2018    16      2       0.08869411      27.6061
2018    16      3       0.1191922       34.57012
2018    16      4       0.1256832       36.07883
2018    16      5       0.1180998       34.44294
2018    16      6       0.1063915       31.82171
2018    16      7       0.1027909       30.97354
2018    17      0       0.1018413       30.72704
2018    17      1       0.1032839       30.97239
2018    17      2       0.09649621      29.44086
2018    17      3       0.1240327       35.59208
2018    17      4       0.1400599       39.01505
2018    17      5       0.1327667       37.51241
2018    17      6       0.1255427       35.90256
2018    17      7       0.1298476       36.74375
2018    18      0       0.1717986       45.19514
2018    18      1       0.174311        45.93613
2018    18      2       0.1709741       45.57282
2018    18      3       0.1886346       49.52043
2018    18      4       0.2274941       57.28079
2018    18      5       0.2201779       56.08982
2018    18      6       0.2598602       63.53775
2018    18      7       0.3181194       74.16402
2018    19      0       0.367475        82.66618
2018    19      1       0.3619623       81.72691
2018    19      2       0.3619166       82.65557
2018    19      3       0.3840302       86.76654
2018    19      4       0.2993895       71.85654
2018    19      5       0.2098404       54.45972
2018    19      6       0.1463107       40.88747
2018    19      7       0.1137787       33.53454
2018    20      0       0.1014353       30.62109
2018    20      1       0.07724614      24.87395
2018    20      2       0.09432868      28.93188
2018    20      3       0.1783053       47.16223
2018    20      4       0.1775939       46.84961
2018    20      5       0.1453358       39.98072
2018    20      6       0.1141966       33.171
2018    20      7       0.1127546       32.81881
2018    21      0       0.142243        39.20751
2018    21      1       0.1182374       34.03487
2018    21      2       0.1069578       31.70265
2018    21      3       0.1454124       40.04669
2018    21      4       0.1664648       44.93267
2018    21      5       0.1510686       41.70907
2018    21      6       0.1404118       39.32569
2018    21      7       0.1302605       36.97135
2018    22      0       0.1127237       32.95946
2018    22      1       0.09866083      29.65605
2018    22      2       0.1022774       30.53295
2018    22      3       0.1329581       37.4611
2018    22      4       0.1535889       41.91108
2018    22      5       0.1434544       39.75204
2018    22      6       0.1417449       39.35168
2018    22      7       0.148792        40.52637
2018    23      0       0.1512646       40.82181
2018    23      1       0.1446594       39.36988
2018    23      2       0.1314783       36.53789
2018    23      3       0.1782481       46.73591
2018    23      4       0.1988142       50.93505
2018    23      5       0.1536319       41.59031
2018    23      6       0.126803        35.77052
2018    23      7       0.1306636       36.51932
2018    24      0       0.1305925       36.46953
2018    24      1       0.1112302       32.24218
2018    24      2       0.1237375       35.0096
2018    24      3       0.1538794       41.55462
2018    24      4       0.1688046       44.73321
2018    24      5       0.1597238       42.79423
2018    24      6       0.1473499       40.09501
2018    24      7       0.1703326       44.79462
2018    25      0       0.165754        43.75345
2018    25      1       0.09699562      29.10484
2018    25      2       0.09792016      29.35837
2018    25      3       0.1137887       33.16457
2018    25      4       0.1408319       39.21574
2018    25      5       0.1120909       32.82377
2018    25      6       0.06643033      22.2292
2018    25      7       0.06191398      21.12605
2018    26      0       0.06766784      22.46376
2018    26      1       0.06889272      22.72866
2018    26      2       0.1049396       30.92303
2018    26      3       0.1514039       40.82118
2018    26      4       0.2053603       51.38099
2018    26      5       0.2192804       53.91575
2018    26      6       0.231127        56.0823
2018    26      7       0.2149557       52.92137
2018    27      0       0.2144452       52.85343
2018    27      1       0.1960135       49.18066
2018    27      2       0.1631067       42.37109
2018    27      3       0.1648694       42.84597
2018    27      4       0.1718954       44.28081
2018    27      5       0.1635879       42.64532
2018    27      6       0.1341256       36.68611
2018    27      7       0.1085385       31.39379
2018    28      0       0.08530975      26.27841
2018    28      1       0.0642597       21.46957
2018    28      2       0.08704207      26.70429
2018    28      3       0.1191842       33.87295
2018    28      4       0.1399961       38.4332
2018    28      5       0.1235656       34.87569
2018    28      6       0.1306717       36.47387
2018    28      7       0.1295064       36.30716
2018    29      0       0.1206836       34.45434
2018    29      1       0.1077038       31.59972
2018    29      2       0.1043664       30.7867
2018    29      3       0.1309749       36.67962
2018    29      4       0.1499067       40.84921
2018    29      5       0.1949766       49.78869
2018    29      6       0.2123408       53.3118
2018    29      7       0.2165541       54.31392
2018    30      0       0.2166742       54.54503
2018    30      1       0.229835        57.15718
2018    30      2       0.2455223       60.16262
2018    30      3       0.3120923       72.28385
2018    30      4       0.3323329       76.0407
2018    30      5       0.3010569       70.66651
2018    30      6       0.3279139       75.27049
2018    30      7       0.3265634       74.81527
2018    31      0       0.2746674       65.72065
2018    31      1       0.2370013       58.56736
2018    31      2       0.1700193       45.09585
2018    31      3       0.1510263       41.06669
2018    31      4       0.1646581       44.0715
2018    31      5       0.1555854       42.15452
2018    31      6       0.1430653       39.53937
2018    31      7       0.1596424       42.73953
