####################################################################################################
# Month: 03Mar                                                                                     #
# Station: ATCA                                                                                    #
# Frequency: 230 GHz                                                                               #
# Columns are: year    day     tau     Tb (K)                                                      #
####################################################################################################
2009    1       1.18280238      197.3198125
2009    2       2.11533712      250.4794375
2009    3       2.7212965       270.2378125
2009    4       1.58226109      200.481825
2009    5       0.90470502      170.065975
2009    6       0.83734815      162.9607
2009    7       0.78132629      153.8117125
2009    8       1.58174612      224.0172625
2009    9       1.69509962      232.6911875
2009    10      1.832503        238.66465
2009    11      1.70314475      233.1371375
2009    12      1.96657312      242.5753
2009    13      1.8738495       241.0532625
2009    14      1.82894588      240.17575
2009    15      1.45372988      214.850525
2009    16      0.78266122      154.4406625
2009    17      0.89519012      167.2973125
2009    18      1.57205862      224.8345375
2009    19      1.91256438      243.4244
2009    20      1.89600375      242.304825
2009    21      1.29431121      205.4963625
2009    22      1.23596434      196.5270125
2009    23      1.39614688      213.8140125
2009    24      1.4791175       221.429225
2009    25      1.382129        215.33385
2009    26      1.642855        230.55035
2009    27      1.35499446      207.1027875
2009    28      0.901853        168.830875
2009    29      1.23696291      198.72015
2009    30      2.06760725      243.8499125
2009    31      2.86906425      267.7580375
2010    1       2.6087115       262.429625
2010    2       2.25060538      252.8021125
2010    3       1.95573838      245.4824875
2010    4       2.39080812      259.066375
2010    5       3.25852662      275.057925
2010    6       2.66319012      262.599325
2010    7       2.42613875      260.3546625
2010    8       1.75539206      227.349175
2010    9       1.22852108      201.7675125
2010    10      1.478557        218.7641875
2010    11      1.4522215       216.658225
2010    12      1.21765288      199.80775
2010    13      1.40511125      214.45735
2010    14      1.45355638      217.6148125
2010    15      1.464534        218.6080125
2010    16      1.01037086      181.1671
2010    17      1.17012788      195.090525
2010    18      1.28292985      201.7241875
2010    19      1.34404925      212.75205
2010    20      1.29508496      207.9858875
2010    21      1.35535825      214.67495
2010    22      1.51524112      223.85585
2010    23      1.12220516      187.11495
2010    24      1.5159875       221.2234
2010    25      1.5995705       228.821725
2010    26      1.74802113      237.3002875
2010    27      2.00839188      246.43815
2010    28      2.40096862      259.5358875
2010    29      2.43770975      260.6877125
2010    30      2.78080625      265.9608
2010    31      2.074144        246.62145
2011    1       2.27548362      260.3833
2011    2       2.99938488      272.6350875
2011    3       3.21868138      274.955925
2011    4       2.0894          242.2414375
2011    5       1.52618775      220.6647125
2011    6       1.17167915      196.0108625
2011    7       1.31464212      209.46955
2011    8       1.59823412      228.426825
2011    9       1.90587275      242.750925
2011    10      2.10150538      250.6062875
2011    11      2.55061238      262.5996
2011    12      2.34527688      258.092175
2011    13      1.9808065       245.759225
2011    14      2.1938155       255.0617875
2011    15      2.11456838      252.8337625
2011    16      2.68066062      267.5913375
2011    17      3.31733012      276.1124125
2011    18      2.7544465       266.79685
2011    19      2.5681775       259.657075
2011    20      2.31839738      259.131625
2011    21      2.780458        271.4729
2011    22      1.94926625      245.898025
2011    23      1.55713838      223.8365125
2011    24      1.3944695       213.8169
2011    25      1.32882638      209.1276375
2011    26      1.411705        214.845825
2011    27      1.41950288      216.6920625
2011    28      1.40776962      214.3370375
2011    29      1.90736263      240.2861
2011    30      1.61000412      227.98045
2011    31      1.70885562      232.7398375
2012    1       3.09970888      275.8647375
2012    2       3.56630362      278.9214
2012    3       2.55322438      265.8586125
2012    4       2.40211738      262.6269375
2012    5       3.22116925      274.7331125
2012    6       1.78505688      233.741975
2012    7       1.36202975      209.14375
2012    8       1.24102525      201.327975
2012    9       1.27039875      204.5531875
2012    10      1.23017454      198.9133625
2012    11      1.54335838      224.2448625
2012    12      1.88414212      242.381075
2012    13      1.87655375      240.71935
2012    14      1.90622275      240.847
2012    15      2.24588988      253.997
2012    16      2.49603312      263.3943625
2012    17      2.44169837      260.333225
2012    18      1.32365762      208.1520375
2012    19      1.57909062      226.677475
2012    20      1.753479        237.5490875
2012    21      2.102334        251.123
2012    22      2.47840025      262.65665
2012    23      1.06538346      184.7610375
2012    24      0.91357992      167.541425
2012    25      1.3228905       207.9508
2012    26      1.66494912      230.246775
2012    27      1.72094825      232.4259875
2012    28      1.89638975      240.3690875
2012    29      1.73684938      232.12
2012    30      1.37228225      212.194675
2012    31      1.18460625      198.4831875
2013    1       2.88868288      268.0256625
2013    2       2.73140488      265.4543125
2013    3       2.7355905       265.081375
2013    4       2.14716562      251.8683
2013    5       1.68779738      233.12585
2013    6       1.60345025      229.4646125
2013    7       1.44377075      219.6406375
2013    8       1.61661962      230.8434625
2013    9       1.83202738      241.6202625
2013    10      1.90899425      244.4465125
2013    11      1.68965012      233.2393
2013    12      1.443802        219.1340625
2013    13      1.35700088      213.7936
2013    14      1.8329975       240.2427875
2013    15      1.79258838      240.1573125
2013    16      1.38654162      211.6175125
2013    17      1.01548331      179.65985
2013    18      1.35023425      209.290375
2013    19      1.36114437      210.6247875
2013    20      1.35599525      210.212525
2013    21      2.10099825      248.7527125
2013    22      2.84993125      269.8929625
2013    23      2.72368762      268.2247375
2013    24      1.5837039       212.57125
2013    25      1.24353156      193.46565
2013    26      1.87072225      243.1585875
2013    27      1.91169175      244.381675
2013    28      2.11876312      251.0976375
2013    29      1.08113649      185.0211625
2013    30      1.10941634      188.9962875
2013    31      1.56221388      216.298425
2014    1       2.26927475      256.1630375
2014    2       2.077807        251.2939875
2014    3       2.0630025       249.2332625
2014    4       1.9133345       242.4651125
2014    5       2.06264025      249.3864375
2014    6       2.141645        252.2891625
2014    7       1.85950038      240.51995
2014    8       1.78073725      236.11865
2014    9       1.49536625      221.4324875
2014    10      1.52879875      222.0829125
2014    11      1.35987925      210.8492125
2014    12      1.55758563      223.921
2014    13      1.7500225       235.8455
2014    14      2.06981912      247.678575
2014    15      1.68032212      232.7419125
2014    16      1.64079238      222.6680875
2014    17      0.94107088      175.228425
2014    18      1.47676225      216.41765
2014    19      2.2920405       254.0663
2014    20      2.24829275      252.3163875
2014    21      2.07543138      247.9590125
2014    22      1.7609          236.3499875
2014    23      2.1138915       248.97555
2014    24      2.51919688      260.0249375
2014    25      2.68271313      262.5894875
2014    26      2.58991437      261.5981875
2014    27      2.700671        263.921
2014    28      2.20119112      251.2625375
2014    29      2.10130212      250.43905
2014    30      2.04368288      249.4911
2014    31      2.00519037      247.2129875
2015    1       2.75227812      269.49745
2015    2       1.8837615       245.2287
2015    3       2.05365288      252.2073375
2015    4       1.69477688      231.8083375
2015    5       0.82508316      157.6935
2015    6       0.71926904      147.4851
2015    7       0.92824359      167.3136875
2015    8       1.61481488      225.992225
2015    9       1.57002012      215.0911875
2015    10      2.75759338      267.3966125
2015    11      2.26720037      255.776925
2015    12      2.05191062      249.0670625
2015    13      1.7783465       235.540375
2015    14      1.11429268      191.25355
2015    15      1.28168875      205.566875
2015    16      1.38315525      210.813125
2015    17      2.501877        262.0831
2015    18      1.59659312      223.06945
2015    19      0.96209545      180.3719
2015    20      1.683586        232.369725
2015    21      2.325759        259.1916875
2015    22      2.1617035       249.9256125
2015    23      1.86642875      243.2521375
2015    24      2.06806325      246.384525
2015    25      0.8273536       158.2331625
2015    26      0.78045389      153.8617125
2015    27      0.54323195      120.02765
2015    28      0.67349299      139.7774625
2015    29      1.39951087      211.6231875
2015    30      2.17594288      248.962225
2015    31      2.20534062      251.129475
2016    1       1.7627555       236.188325
2016    2       1.88580075      241.348425
2016    3       1.997314        247.4701875
2016    4       1.80509362      239.745975
2016    5       1.55812575      226.928425
2016    6       1.46180162      218.8438875
2016    7       1.67187088      232.6640625
2016    8       1.78032388      234.2873625
2016    9       2.261318        256.76855
2016    10      2.45723175      261.528275
2016    11      2.44521638      261.6847
2016    12      1.98562088      247.4166
2016    13      1.995507        246.5296
2016    14      2.65421838      267.3419125
2016    15      2.5745075       263.5292
2016    16      2.39287875      258.31035
2016    17      2.19937963      254.3760125
2016    18      2.07036865      227.8912625
2016    19      0.90476168      168.0044
2016    20      1.22681612      198.1125375
2016    21      1.41532312      214.2538125
2016    22      1.2530985       201.0730875
2016    23      0.9623541       175.95995
2016    24      1.52046238      219.5499125
2016    25      1.76404888      233.16185
2016    26      1.13167779      193.4392875
2016    27      0.91664998      166.54065
2016    28      1.9131165       242.948075
2016    29      2.144802        249.6433625
2016    30      1.46309275      216.6689125
2016    31      0.80986672      157.184475
2017    1       2.37967225      259.265375
2017    2       2.164624        254.5809875
2017    3       2.51867437      264.1800125
2017    4       3.16712738      273.77615
2017    5       2.4477695       261.4028
2017    6       1.24665996      201.76625
2017    7       1.3047375       206.971125
2017    8       1.40231658      209.8571375
2017    9       1.28065563      205.277775
2017    10      0.98035838      178.60325
2017    11      1.05853414      187.543175
2017    12      1.66260309      216.439775
2017    13      2.76496575      267.7500375
2017    14      2.471855        260.7201125
2017    15      2.54960863      263.9339625
2017    16      2.46963538      262.2463375
2017    17      2.58932937      263.18225
2017    18      3.062036        271.5980625
2017    19      2.50865662      263.5199875
2017    20      3.322574        277.0223625
2017    21      3.78843888      281.0722125
2017    22      2.9625485       270.2640875
2017    23      2.49707537      264.97125
2017    24      2.40057687      262.4910625
2017    25      2.66668525      269.0716
2017    26      3.00126462      274.535025
2017    27      2.53016512      267.2618375
2017    28      2.38188812      263.51565
2017    29      3.07583212      272.5503875
2017    30      2.32406275      244.7154875
2017    31      1.34378988      213.3452875
2018    1       1.74661662      235.9929125
2018    2       2.09259812      242.558375
2018    3       3.22671225      277.699675
2018    4       2.67922975      265.051975
2018    5       2.76885988      267.315475
2018    6       2.39264262      256.8778875
2018    7       1.769807        234.4200125
2018    8       1.4898705       220.9225625
2018    9       1.40425888      215.7367
2018    10      1.26611075      206.057825
2018    11      1.35070125      210.5123
2018    12      1.30021528      201.80575
2018    13      1.59998875      227.5661
2018    14      1.42447637      216.6036625
2018    15      1.49422025      223.9021875
2018    16      1.51412888      225.3538875
2018    17      1.51204112      225.3471625
2018    18      1.41798088      219.781725
2018    19      1.67483775      233.5744125
2018    20      1.78954475      238.6481625
2018    21      2.02509912      246.99115
2018    22      2.2358775       253.0656875
2018    23      2.11145762      250.2579625
2018    24      1.95787725      245.5298625
2018    25      2.00471838      245.196875
2018    26      1.53805909      210.5898375
2018    27      1.38267164      206.1928125
2018    28      1.60444662      228.593975
2018    29      1.592437        221.16995
2018    30      1.7164875       232.585975
2018    31      1.14191711      191.84255
