####################################################################################################
# Month: 09Sep                                                                                     #
# Station: GLTS                                                                                    #
# Frequency: 345 GHz                                                                               #
# Columns are: year    day     tau     Tb (K)                                                      #
####################################################################################################
2009    1       0.44007556      93.7456525
2009    2       0.29003124      68.4869075
2009    3       0.30117175      70.37150125
2009    4       0.30731934      71.15804875
2009    5       0.29081389      67.96293625
2009    6       0.2993196       69.4584525
2009    7       0.27537307      65.28315
2009    8       0.30053869      69.88445
2009    9       0.3281624       73.9787725
2009    10      0.44762604      91.1217475
2009    11      0.61049526      119.925675
2009    12      0.47789502      99.178695
2009    13      0.4517318       94.61977875
2009    14      0.57130955      113.44952125
2009    15      0.50253741      103.61918125
2009    16      0.46779231      96.887355
2009    17      0.62828844      121.7265125
2009    18      0.54600415      109.3154575
2009    19      0.38265297      83.2193575
2009    20      0.23531178      56.5160975
2009    21      0.16947698      43.5925225
2009    22      0.18672839      46.95196875
2009    23      0.18487052      46.4873
2009    24      0.16164305      41.627875
2009    25      0.19151559      47.60212125
2009    26      0.22122712      53.71414875
2009    27      0.26708901      62.74849625
2009    28      0.24663552      58.9838675
2009    29      0.22367955      54.2073725
2009    30      0.2261241       54.79379125
2010    1       0.69969199      130.968415
2010    2       1.08419875      173.8140875
2010    3       1.159673        180.62795
2010    4       1.12321312      178.4139125
2010    5       0.95551915      160.692675
2010    6       0.50222142      102.95871375
2010    7       0.27375293      64.90517875
2010    8       0.22317656      54.8796425
2010    9       0.46604909      96.9127475
2010    10      0.51132915      104.04353125
2010    11      0.52607591      107.1722375
2010    12      0.45754396      96.4485725
2010    13      0.45502412      96.08698125
2010    14      0.43245838      92.40314375
2010    15      0.40762031      88.88676375
2010    16      0.42503882      92.778795
2010    17      0.43903793      93.76624125
2010    18      0.42251181      90.4541675
2010    19      0.35359615      79.15034625
2010    20      0.20382598      51.4335575
2010    21      0.29950106      68.140025
2010    22      0.52754956      107.10066375
2010    23      0.75269939      136.7962875
2010    24      0.56230938      112.6630475
2010    25      0.43565172      93.57788375
2010    26      0.49185962      101.99783375
2010    27      0.6512541       123.24168875
2010    28      0.36078429      80.282665
2010    29      0.60428422      118.479275
2010    30      0.36952435      82.1411025
2011    1       0.42724854      91.0255625
2011    2       0.25889551      62.3330275
2011    3       0.28560065      67.24912875
2011    4       0.52475751      106.39165
2011    5       0.59066476      116.2206125
2011    6       0.41976959      89.73476625
2011    7       0.22782158      56.116715
2011    8       0.24114302      58.77929375
2011    9       0.50397236      103.24186125
2011    10      0.51793479      105.8743625
2011    11      0.4570412       97.0044175
2011    12      0.29198238      68.9096925
2011    13      0.46584616      97.77209125
2011    14      0.414664        89.30928125
2011    15      0.29627409      68.284605
2011    16      0.20480776      51.88292125
2011    17      0.45908344      95.98387125
2011    18      0.53976712      108.43986125
2011    19      0.5785211       114.030975
2011    20      0.47422922      98.57640375
2011    21      0.48691219      100.322065
2011    22      0.30768815      70.61301
2011    23      0.31913824      72.59704625
2011    24      0.30423519      70.3316575
2011    25      0.27654188      65.54762
2011    26      0.37618939      83.5729675
2011    27      0.35296284      79.0826975
2011    28      0.30141396      70.0647675
2011    29      0.28938288      67.85657625
2011    30      0.23372619      57.48769875
2012    1       0.34817991      78.81444375
2012    2       0.2738766       65.38402125
2012    3       0.16344939      43.8661025
2012    4       0.2512429       61.05514
2012    5       0.30697783      70.5153675
2012    6       0.26579191      62.68545875
2012    7       0.24103326      57.82385
2012    8       0.20342232      50.37670125
2012    9       0.18096556      46.3055525
2012    10      0.20397004      51.6183625
2012    11      0.57778781      111.1919975
2012    12      0.61078327      119.4714875
2012    13      0.54196456      109.2370375
2012    14      0.34980656      78.73997375
2012    15      0.40471999      87.62792375
2012    16      0.35949501      79.70401625
2012    17      0.28145493      66.0144525
2012    18      0.25675523      61.7911125
2012    19      0.35707301      79.50388375
2012    20      0.78224309      138.36516375
2012    21      0.92267794      155.91775
2012    22      0.4760666       98.41588625
2012    23      0.38038972      83.0154825
2012    24      0.22982738      56.07041375
2012    25      0.5313109       105.579285
2012    26      0.22877847      55.8774325
2012    27      0.27205146      63.72582125
2012    28      0.36678781      80.638255
2012    29      0.29823701      68.43122625
2012    30      0.18308389      46.4060375
2013    1       0.61985977      120.807025
2013    2       0.47046764      97.84881875
2013    3       0.39175764      85.7344
2013    4       0.44306798      92.57067625
2013    5       0.6656217       126.2484625
2013    6       0.89883904      155.0885625
2013    7       0.59297855      115.26089375
2013    8       0.47250385      96.8417475
2013    9       0.44527486      93.8807075
2013    10      0.65928572      119.344315
2013    11      0.48271352      99.33720875
2013    12      0.39357311      85.1283425
2013    13      0.30635948      69.76551125
2013    14      0.3102101       70.59333875
2013    15      0.27945334      65.0337125
2013    16      0.21707351      53.77869125
2013    17      0.49357034      102.3217825
2013    18      0.36470715      80.10617625
2013    19      0.5204449       105.912975
2013    20      0.44589038      94.30223875
2013    21      0.46168425      96.15330875
2013    22      0.36574188      80.9569875
2013    23      0.31495763      72.15306125
2013    24      0.6001252       116.40854125
2013    25      0.30970531      70.45957875
2013    26      0.3008186       68.7824675
2013    27      0.23092085      55.609265
2013    28      0.35759336      78.72711
2013    29      0.36982825      81.0979975
2013    30      0.31308939      71.19261
2014    1       0.87866382      152.5359
2014    2       0.74127648      136.4614375
2014    3       0.59861694      117.752225
2014    4       0.43862498      92.26102125
2014    5       0.69796008      128.7703875
2014    6       0.50727388      104.05963875
2014    7       0.40083328      87.1073525
2014    8       0.51161704      104.32747625
2014    9       0.5784183       114.6428
2014    10      0.48551005      100.52259375
2014    11      0.44804339      94.75044875
2014    12      0.32152465      72.1435275
2014    13      0.35525664      76.69758125
2014    14      0.58852599      115.79225
2014    15      0.34394726      76.63606125
2014    16      0.22537038      54.600595
2014    17      0.38827595      84.7171275
2014    18      0.2964213       69.44002625
2014    19      0.40056764      86.5957725
2014    20      0.42346632      89.51348
2014    21      0.69164288      129.30855
2014    22      0.4311498       91.112235
2014    23      0.29518221      68.2302075
2014    24      0.51560974      103.6388175
2014    25      0.39726985      85.62430125
2014    26      0.31102175      70.7751375
2014    27      0.28247557      65.49099125
2014    28      0.2658341       62.35754
2014    29      0.23738598      57.2007625
2014    30      0.34653077      77.02042
2015    1       0.49042071      101.01677
2015    2       0.40824942      88.434015
2015    3       0.29888356      69.18361625
2015    4       0.59968758      111.252955
2015    5       0.71410444      132.79165
2015    6       0.52732522      106.57758375
2015    7       0.72217918      133.7263125
2015    8       0.4631521       95.83623875
2015    9       0.54012306      107.83616
2015    10      0.61477635      119.532275
2015    11      0.46584356      97.6005925
2015    12      0.30675731      70.74417625
2015    13      0.21928175      54.07466375
2015    14      0.23499022      56.85551
2015    15      0.22751908      56.76861625
2015    16      0.3436007       78.44221875
2015    17      0.22768786      56.26662125
2015    18      0.40622244      87.70234875
2015    19      0.41093165      87.18928125
2015    20      0.6537849       125.285475
2015    21      0.54136121      108.73628125
2015    22      0.49537144      101.47788125
2015    23      0.40753302      87.712545
2015    24      0.41098786      88.76363375
2015    25      0.42670256      91.45178875
2015    26      0.41032374      88.68034
2015    27      0.53504335      107.2874825
2015    28      0.28182834      65.3184925
2015    29      0.29811869      68.4845975
2015    30      0.29982498      68.362525
2016    1       0.47058331      97.47074625
2016    2       0.2003733       49.993975
2016    3       0.17486302      45.3414125
2016    4       0.27429026      64.62695
2016    5       0.3625751       79.91697625
2016    6       0.53564936      107.76883
2016    7       0.40195348      87.32945375
2016    8       0.38771678      84.443315
2016    9       0.39137202      84.0688075
2016    10      0.41119168      87.8964475
2016    11      0.40085919      86.8280475
2016    12      0.39682539      86.072085
2016    13      0.31233991      72.2331075
2016    14      0.50325425      103.2987075
2016    15      0.49553355      102.50055625
2016    16      0.41925868      90.34951125
2016    17      0.39521632      85.706135
2016    18      0.30180724      69.36027
2016    19      0.26611949      62.82136625
2016    20      0.26407946      62.41575125
2016    21      0.24386758      59.13348875
2016    22      0.35285099      78.5227325
2016    23      0.24388965      58.907995
2016    24      0.3071211       70.6287575
2016    25      0.31287764      71.8421975
2016    26      0.33597472      76.58559625
2016    27      0.49629445      100.847475
2016    28      0.63483879      122.15815
2016    29      0.57766448      113.94625
2016    30      0.39908685      85.95383125
2017    1       0.46708944      97.23733375
2017    2       0.34506628      77.08116125
2017    3       0.27808974      65.22675
2017    4       0.52811169      105.20473
2017    5       0.75157118      137.18325
2017    6       0.62346243      120.24856
2017    7       0.32075971      73.08369875
2017    8       0.3773356       82.5943375
2017    9       0.24602431      59.19528625
2017    10      0.5245257       105.20853125
2017    11      0.45119899      95.44406625
2017    12      0.42899546      91.58532875
2017    13      0.35959324      79.673465
2017    14      0.81169754      143.211575
2017    15      1.3591335       195.423575
2017    16      0.80891018      145.7662125
2017    17      0.74925632      134.70814
2017    18      0.33911562      76.11815375
2017    19      0.23106206      56.3718325
2017    20      0.36553935      81.35703625
2017    21      0.46408488      96.701105
2017    22      0.36375382      80.3028875
2017    23      0.26977248      63.2814625
2017    24      0.43521848      91.41330875
2017    25      0.47521831      99.30010125
2017    26      0.3232643       74.55497
2017    27      0.549507        109.48736
2017    28      0.3784662       81.86006625
2017    29      0.30005094      68.99197125
2017    30      0.37837529      82.08598875
2018    1       0.43166119      91.6690825
2018    2       0.28838019      67.6236125
2018    3       0.4567208       95.10577125
2018    4       0.30419803      68.78826
2018    5       0.28014008      65.39229625
2018    6       0.70385864      131.1458625
2018    7       0.64731712      125.278825
2018    8       0.62474274      121.62476625
2018    9       0.53002316      107.731695
2018    10      0.61935592      121.168825
2018    11      0.59642698      117.544825
2018    12      0.61041869      119.5090875
2018    13      0.4979573       103.20133625
2018    14      0.36625458      82.35056
2018    15      0.31463781      72.65869125
2018    16      0.36593798      81.1019575
2018    17      0.27739919      65.02706875
2018    18      0.26164448      62.12789875
2018    19      0.2017202       50.54931625
2018    20      0.20156866      50.31767125
2018    21      0.22743651      55.24811375
2018    22      0.2199709       53.56865125
2018    23      0.15620416      41.1819575
2018    24      0.33919113      75.768725
2018    25      0.28111399      65.1757125
2018    26      0.17301339      44.03922875
2018    27      0.23297986      55.99461625
2018    28      0.38507872      82.5644025
2018    29      0.19048336      47.5478575
2018    30      0.29769844      67.68901125
