####################################################################################################
# Month: 06Jun                                                                                     #
# Station: PER                                                                                     #
# Frequency: 230 GHz                                                                               #
# Columns are: year    day     tau     Tb (K)                                                      #
####################################################################################################
2009    1       0.48808477      103.7837125
2009    2       0.77067676      145.002275
2009    3       0.84589924      153.5670375
2009    4       0.5535894       115.2309825
2009    5       0.38573558      87.38458875
2009    6       0.40527714      90.01706625
2009    7       0.50307064      106.34562625
2009    8       0.54893721      113.07234625
2009    9       0.35226706      79.5328775
2009    10      0.19355745      48.8147475
2009    11      0.24708148      61.46626625
2009    12      0.21762491      54.4553325
2009    13      0.33374987      77.80751625
2009    14      0.29764431      69.987655
2009    15      0.31635024      74.77058375
2009    16      0.22301755      56.63978125
2009    17      0.15264061      41.46950125
2009    18      0.19227085      50.18628625
2009    19      0.1964905       50.93749
2009    20      0.61928674      120.3084525
2009    21      0.524232        109.8215275
2009    22      0.32093167      76.10411
2009    23      0.3357297       76.73633
2009    24      0.48273996      102.9468175
2009    25      0.53214118      110.4668375
2009    26      0.61056386      123.2715375
2009    27      0.63838171      127.36225
2009    28      0.57766749      118.79984625
2009    29      0.46124328      100.6875775
2009    30      0.70090148      135.261875
2010    1       0.18618529      48.88099125
2010    2       0.16224877      43.94640875
2010    3       0.25495322      63.68873125
2010    4       0.26646437      64.68234375
2010    5       0.30906611      72.65069
2010    6       0.18885765      47.77501125
2010    7       0.13008036      36.05228
2010    8       0.18237164      47.24189125
2010    9       0.33020622      75.8847775
2010    10      0.20658239      53.182805
2010    11      0.13940607      37.373905
2010    12      0.08960327      26.74542375
2010    13      0.07223347      22.7594875
2010    14      0.11403094      32.43102
2010    15      0.19249679      49.69289
2010    16      0.63085139      120.31676625
2010    17      0.33985635      75.90749625
2010    18      0.33890641      78.60901875
2010    19      0.27858766      67.88024375
2010    20      0.19002581      49.62636875
2010    21      0.11056116      31.82179125
2010    22      0.1554744       41.48668
2010    23      0.238725        59.28433375
2010    24      0.42028681      93.41254625
2010    25      0.66026299      129.0186775
2010    26      0.19145874      48.9610475
2010    27      0.07762724      23.98527625
2010    28      0.07934953      24.25757625
2010    29      0.17517154      45.77519875
2010    30      0.18857165      48.75492375
2011    1       0.22488722      57.5767525
2011    2       0.17821732      47.42056875
2011    3       0.53050105      108.9656325
2011    4       0.18259388      43.6497125
2011    5       0.25768522      61.55187375
2011    6       0.0896934       26.89678125
2011    7       0.2703687       65.00978875
2011    8       0.33600166      77.38620125
2011    9       0.38602306      87.49114125
2011    10      0.12355532      34.5260325
2011    11      0.18182712      48.20900875
2011    12      0.08593793      26.23259625
2011    13      0.18088006      47.73178625
2011    14      0.11149014      32.49361
2011    15      0.09123155      27.9268275
2011    16      0.24830102      61.4173575
2011    17      0.42228306      94.03108
2011    18      0.21831438      55.11486625
2011    19      0.49703248      104.82444625
2011    20      0.55569665      115.51318
2011    21      0.396642        86.84141625
2011    22      0.33836408      78.260585
2011    23      0.13176331      36.82423625
2011    24      0.14075676      39.09386
2011    25      0.0648478       21.1026725
2011    26      0.13962204      38.1369325
2011    27      0.05960672      19.76515625
2011    28      0.12954434      36.57361375
2011    29      0.12007554      34.38601375
2011    30      0.0475186       16.652585
2012    1       0.23723766      58.8219
2012    2       0.62166384      122.6047825
2012    3       0.49870672      107.3660325
2012    4       0.63968681      124.8620575
2012    5       0.19872794      48.00007625
2012    6       0.06969389      22.10987625
2012    7       0.1228155       34.64664
2012    8       0.18301625      48.1658425
2012    9       0.17572574      46.69614875
2012    10      0.18715051      49.11529125
2012    11      0.24750369      61.78078625
2012    12      0.24421604      60.96362875
2012    13      0.17206055      45.92411125
2012    14      0.51908305      105.6590675
2012    15      0.39965064      88.51608
2012    16      0.4948301       105.12258125
2012    17      0.32775992      75.93442625
2012    18      0.19567268      50.5322375
2012    19      0.1133871       32.43587
2012    20      0.17010609      44.32551625
2012    21      0.41465885      90.052535
2012    22      0.30726018      70.8043825
2012    23      0.15857225      42.89718375
2012    24      0.17509689      46.94001875
2012    25      0.20584314      52.4601125
2012    26      0.25920885      64.26584125
2012    27      0.2212221       56.476685
2012    28      0.53803112      111.54277
2012    29      0.63973749      120.773065
2012    30      0.43058824      93.23989
2013    1       0.90363569      155.39692125
2013    2       0.08948341      26.62261625
2013    3       0.16588398      45.0435875
2013    4       0.14803152      41.05859875
2013    5       0.36716025      81.78094375
2013    6       0.42645271      95.67366625
2013    7       0.185248        47.33450625
2013    8       0.10237738      30.087195
2013    9       0.12243228      34.64726875
2013    10      0.30808464      72.9775725
2013    11      0.55312175      106.9108925
2013    12      0.7810346       145.6470625
2013    13      0.81144385      148.3566
2013    14      0.51558181      108.53983375
2013    15      0.23564404      59.57335125
2013    16      0.32060154      75.92099125
2013    17      0.54179049      113.34875
2013    18      0.43683638      92.30889375
2013    19      0.2625657       63.91331375
2013    20      0.26613874      64.72989
2013    21      0.19885418      50.98073875
2013    22      0.18254526      47.69941125
2013    23      0.33239027      76.29784
2013    24      0.58579974      119.726475
2013    25      0.37677276      86.65725
2013    26      0.19687214      50.1054775
2013    27      0.2665782       64.9014875
2013    28      0.46527251      100.251775
2013    29      0.41857731      91.15077375
2013    30      0.1977205       51.56285
2014    1       0.59320894      113.40280125
2014    2       0.6264875       121.5149675
2014    3       0.50458386      105.7311725
2014    4       0.23661429      60.24740625
2014    5       0.37360525      85.4648875
2014    6       0.24158085      60.50855125
2014    7       0.24462096      59.07908625
2014    8       0.16222406      42.84338875
2014    9       0.149575        40.15970875
2014    10      0.16360087      43.46472875
2014    11      0.2451711       60.40408125
2014    12      0.36187095      79.96842375
2014    13      0.76515508      142.03873625
2014    14      0.60017375      120.6211575
2014    15      0.20764994      53.28682875
2014    16      0.41872594      92.22014
2014    17      0.20307762      53.13756625
2014    18      0.0978314       29.16627125
2014    19      0.17477961      45.7826575
2014    20      0.35090632      80.962015
2014    21      0.4396092       96.47566
2014    22      0.33005589      77.50280375
2014    23      0.5490019       112.37630125
2014    24      0.60267296      121.69695
2014    25      0.45596522      98.94333375
2014    26      0.18821815      48.290845
2014    27      0.20437181      50.90335375
2014    28      0.52937571      109.91959
2014    29      0.41256051      90.33614
2014    30      0.24939474      60.93785
2015    1       0.18938802      48.58264125
2015    2       0.13664581      37.829805
2015    3       0.11381891      32.50520375
2015    4       0.2913843       68.73012125
2015    5       0.21807508      56.07424125
2015    6       0.16627896      44.84031875
2015    7       0.17116616      45.68922875
2015    8       0.23684602      60.68522375
2015    9       0.11266999      32.425195
2015    10      0.15168299      42.0262225
2015    11      0.17127112      46.80346375
2015    12      0.17869916      48.43854375
2015    13      0.28978679      69.715125
2015    14      0.3143608       74.57923375
2015    15      0.72603454      136.39693
2015    16      0.70928574      136.5876875
2015    17      0.85689786      154.5296375
2015    18      0.47203749      100.01347125
2015    19      0.11098946      31.98294375
2015    20      0.07030176      22.3055
2015    21      0.0748118       23.3909225
2015    22      0.22419635      55.92016875
2015    23      0.36511236      81.86758
2015    24      0.56234651      115.34619875
2015    25      0.11569918      33.4548125
2015    26      0.08167211      25.36815125
2015    27      0.10371596      30.392025
2015    28      0.1067211       30.89906375
2015    29      0.0988993       29.36585875
2015    30      0.12591169      35.43062
2016    1       0.51019311      107.44736
2016    2       0.40132475      90.58003125
2016    3       0.61903934      123.84935
2016    4       0.84019321      154.055075
2016    5       0.83803524      149.225005
2016    6       0.32567441      76.59492625
2016    7       0.38870321      88.1471175
2016    8       0.81437049      146.0018825
2016    9       0.38309454      85.3357125
2016    10      0.16913639      44.9893225
2016    11      0.09309491      27.36772375
2016    12      0.15645309      42.3777875
2016    13      0.14785463      40.718995
2016    14      0.10733723      31.03792
2016    15      0.09814377      29.113275
2016    16      0.49286391      96.97787875
2016    17      0.5990232       122.424365
2016    18      0.59130896      118.36425
2016    19      0.89419352      156.2286575
2016    20      0.68698112      130.58534375
2016    21      0.51660051      109.62507375
2016    22      0.19372991      50.0974125
2016    23      0.39893092      88.49364625
2016    24      0.30484644      68.63224375
2016    25      0.15219124      41.34915625
2016    26      0.23237807      56.88816875
2016    27      0.17564185      45.536235
2016    28      0.17246203      45.49043125
2016    29      0.13612833      37.46398875
2016    30      0.37357792      82.698295
2017    1       0.13087968      35.95227
2017    2       0.13406815      37.13495125
2017    3       0.15814675      42.90276875
2017    4       0.15004489      40.9610875
2017    5       0.28007642      67.99516875
2017    6       0.25122002      59.14376125
2017    7       0.21641309      55.9268575
2017    8       0.21551001      54.90392875
2017    9       0.36565521      83.85298875
2017    10      0.27314925      67.29485375
2017    11      0.22945451      57.75245875
2017    12      0.211909        54.85988
2017    13      0.10646429      31.499695
2017    14      0.10986798      32.2803025
2017    15      0.2610836       63.8360925
2017    16      0.37734941      85.3584125
2017    17      0.27039524      65.0274325
2017    18      0.11040202      32.022665
2017    19      0.09507176      28.52718125
2017    20      0.07326958      23.1848325
2017    21      0.10788965      31.23318625
2017    22      0.11540439      32.62716
2017    23      0.23022069      58.0865875
2017    24      0.07465125      23.40630625
2017    25      0.13857146      38.29344375
2017    26      0.09406733      28.24143
2017    27      0.27652511      65.68569
2017    28      0.28011568      67.77031625
2017    29      0.18266928      46.3478175
2017    30      0.11602625      32.641545
2018    1       0.19653755      51.31589125
2018    2       0.66780899      129.5789925
2018    3       0.62001274      124.53545
2018    4       0.45483965      100.24201375
2018    5       0.37358362      85.27005375
2018    6       0.37434095      85.24903125
2018    7       0.45336055      97.72020875
2018    8       0.59901401      120.84604
2018    9       0.2368726       59.186255
2018    10      0.1199345       34.33252375
2018    11      0.34623497      71.84517375
2018    12      0.5497352       114.62423
2018    13      0.34899115      79.90731875
2018    14      0.41073581      90.49453125
2018    15      0.5664488       116.14665
2018    16      0.57116562      115.02846875
2018    17      0.52678361      109.92769625
2018    18      0.26157182      64.02642
2018    19      0.09471395      28.49567875
2018    20      0.10540372      30.44303875
2018    21      0.16612746      44.04059
2018    22      0.12335436      34.7807375
2018    23      0.13016069      36.144415
2018    24      0.10848151      30.7794925
2018    25      0.22780192      57.61448125
2018    26      0.13086474      36.3268925
2018    27      0.37005401      80.05914625
2018    28      0.53188235      109.14529375
2018    29      0.21507759      54.411785
2018    30      0.14947742      39.95467
