####################################################################################################
# Month: 06Jun                                                                                     #
# Station: YBG                                                                                     #
# Frequency: 230 GHz                                                                               #
# Columns are: year    day     segment         tau     Tb (K)                                      #
####################################################################################################
2009    1       0       0.4135342       91.69276
2009    1       1       0.3189419       74.95429
2009    1       2       0.2875558       68.70784
2009    1       3       0.273688        66.16932
2009    1       4       0.2120895       53.93011
2009    1       5       0.1570312       42.38131
2009    1       6       0.1363988       37.95148
2009    1       7       0.1331456       37.18455
2009    2       0       0.1190523       34.05009
2009    2       1       0.1044271       30.76861
2009    2       2       0.1031734       30.4753
2009    2       3       0.1304817       36.44062
2009    2       4       0.154537        41.66108
2009    2       5       0.1491361       40.66527
2009    2       6       0.1350858       37.68564
2009    2       7       0.1869217       49.13323
2009    3       0       0.3120312       75.07267
2009    3       1       0.4482859       98.40812
2009    3       2       0.500373        107.0267
2009    3       3       0.4722581       102.7616
2009    3       4       0.5463541       114.2253
2009    3       5       0.4674786       102.8904
2009    3       6       0.3635554       85.55515
2009    3       7       0.2955469       72.01057
2009    4       0       0.356479        84.07262
2009    4       1       0.2785856       68.90387
2009    4       2       0.2419002       61.45741
2009    4       3       0.2093061       54.48226
2009    4       4       0.2229469       57.08496
2009    4       5       0.2269265       58.03005
2009    4       6       0.2010876       52.89339
2009    4       7       0.1654011       44.89514
2009    5       0       0.1993192       52.92471
2009    5       1       0.2119995       55.44358
2009    5       2       0.2544238       63.93849
2009    5       3       0.3663282       84.83898
2009    5       4       0.440592        97.6407
2009    5       5       0.4082469       92.76771
2009    5       6       0.5688308       118.8257
2009    5       7       0.4929601       106.2693
2009    6       0       0.5621597       116.5912
2009    6       1       0.5657269       117.1092
2009    6       2       0.4880821       105.3154
2009    6       3       0.5108921       108.6394
2009    6       4       0.4823521       105.024
2009    6       5       0.545424        115.1039
2009    6       6       0.5367597       114.5931
2009    6       7       0.5003375       108.5952
2009    7       0       0.3776059       87.58965
2009    7       1       0.485555        105.706
2009    7       2       0.4887245       105.8877
2009    7       3       0.3783929       88.14028
2009    7       4       0.3442787       82.02241
2009    7       5       0.3663734       86.59677
2009    7       6       0.3199643       77.56204
2009    7       7       0.2533166       64.0599
2009    8       0       0.2102851       55.02348
2009    8       1       0.2440329       62.22247
2009    8       2       0.1819654       49.23914
2009    8       3       0.1432432       40.47278
2009    8       4       0.1352512       38.60018
2009    8       5       0.1952698       52.09238
2009    8       6       0.212132        55.48813
2009    8       7       0.1965643       52.08434
2009    9       0       0.1854899       49.77274
2009    9       1       0.2254026       58.30237
2009    9       2       0.1720698       46.89794
2009    9       3       0.1513954       42.18116
2009    9       4       0.1473025       41.24894
2009    9       5       0.2121698       55.5595
2009    9       6       0.2541433       63.86516
2009    9       7       0.2404291       60.94239
2009    10      0       0.2177495       56.33566
2009    10      1       0.2287124       58.55994
2009    10      2       0.1719716       46.47701
2009    10      3       0.1618571       44.26509
2009    10      4       0.1540389       42.52915
2009    10      5       0.1712511       46.25844
2009    10      6       0.2084888       54.21747
2009    10      7       0.221047        56.61573
2009    11      0       0.2362443       59.71053
2009    11      1       0.236546        59.7985
2009    11      2       0.2682567       66.26597
2009    11      3       0.3282537       78.01925
2009    11      4       0.4180343       94.21305
2009    11      5       0.4265873       95.87333
2009    11      6       0.3894581       89.59776
2009    11      7       0.331289        79.04625
2009    12      0       0.2818337       69.48609
2009    12      1       0.3374237       79.79851
2009    12      2       0.3249789       77.71923
2009    12      3       0.3441579       81.41337
2009    12      4       0.3675499       85.63854
2009    12      5       0.4294917       96.58783
2009    12      6       0.3892594       89.7206
2009    12      7       0.3611383       84.48719
2009    13      0       0.3483723       82.0657
2009    13      1       0.4030431       91.6969
2009    13      2       0.3735503       86.68072
2009    13      3       0.4105551       92.78404
2009    13      4       0.3785855       87.67571
2009    13      5       0.3447687       81.93317
2009    13      6       0.3723058       87.29771
2009    13      7       0.3435661       81.82958
2009    14      0       0.3237934       78.00422
2009    14      1       0.332412        79.35346
2009    14      2       0.2980714       73.09768
2009    14      3       0.2605482       65.66306
2009    14      4       0.2128145       55.44944
2009    14      5       0.2310157       59.45853
2009    14      6       0.2419934       61.93947
2009    14      7       0.2407036       61.43603
2009    15      0       0.2352914       60.39305
2009    15      1       0.2437827       62.06619
2009    15      2       0.2400628       61.49527
2009    15      3       0.2351392       60.27808
2009    15      4       0.2426273       61.68026
2009    15      5       0.2771371       68.87116
2009    15      6       0.3716491       86.86183
2009    15      7       0.406506        93.58636
2009    16      0       0.4332084       98.12445
2009    16      1       0.5052691       109.7205
2009    16      2       0.5435461       115.2893
2009    16      3       0.5282591       112.8635
2009    16      4       0.497201        107.8674
2009    16      5       0.4378804       98.94249
2009    16      6       0.422954        96.43805
2009    16      7       0.4238669       96.33536
2009    17      0       0.4093167       93.76546
2009    17      1       0.4686706       103.6669
2009    17      2       0.4586949       101.6561
2009    17      3       0.3978408       91.65759
2009    17      4       0.3663178       86.2551
2009    17      5       0.3545277       84.31619
2009    17      6       0.3899108       90.58976
2009    17      7       0.39405         91.06643
2009    18      0       0.365574        86.09778
2009    18      1       0.3990383       92.25338
2009    18      2       0.392239        91.32412
2009    18      3       0.3639594       85.9513
2009    18      4       0.3690921       86.70853
2009    18      5       0.4518264       101.4425
2009    18      6       0.504543        110.3775
2009    18      7       0.4984989       109.2717
2009    19      0       0.4668404       104.146
2009    19      1       0.4480768       101.2862
2009    19      2       0.4867649       107.4186
2009    19      3       0.4171353       95.47523
2009    19      4       0.40859         94.05351
2009    19      5       0.5049071       110.7609
2009    19      6       0.4484811       100.766
2009    19      7       0.4056478       93.40557
2009    20      0       0.4067456       93.45933
2009    20      1       0.43839         98.91417
2009    20      2       0.5064149       110.1179
2009    20      3       0.5131368       111.0631
2009    20      4       0.5842707       121.6998
2009    20      5       0.6176163       127.1827
2009    20      6       0.6268018       127.9327
2009    20      7       0.5990469       123.8863
2009    21      0       0.5393886       115.1673
2009    21      1       0.5138521       111.2902
2009    21      2       0.4971403       108.9667
2009    21      3       0.4596874       102.8658
2009    21      4       0.6013498       124.1327
2009    21      5       0.6848082       135.8763
2009    21      6       0.7648862       146.269
2009    21      7       0.7586213       144.815
2009    22      0       0.6397155       129.5198
2009    22      1       0.5496258       116.8826
2009    22      2       0.5539913       118.1329
2009    22      3       0.5245528       113.6198
2009    22      4       0.5626461       119.3181
2009    22      5       0.714572        140.6089
2009    22      6       0.7373965       142.7549
2009    22      7       0.5894136       123.1739
2009    23      0       0.5378141       115.3559
2009    23      1       0.5410999       115.6292
2009    23      2       0.599211        124.5495
2009    23      3       0.6168763       127.7996
2009    23      4       0.7367047       143.5694
2009    23      5       0.7656257       146.7274
2009    23      6       0.8666779       158.0266
2009    23      7       0.9042276       162.3086
2009    24      0       0.8749065       160.0128
2009    24      1       0.664107        133.6267
2009    24      2       0.6919744       136.9889
2009    24      3       0.7086848       139.2042
2009    24      4       0.7006983       138.6275
2009    24      5       0.7335194       142.5129
2009    24      6       0.7813732       147.9126
2009    24      7       0.7620003       145.2376
2009    25      0       0.6915009       137.0108
2009    25      1       0.6395201       130.3351
2009    25      2       0.6628937       133.9539
2009    25      3       0.734247        143.6318
2009    25      4       0.7971655       150.8481
2009    25      5       0.7391681       143.5173
2009    25      6       0.7508342       144.5351
2009    25      7       0.6421388       130.8079
2009    26      0       0.5780377       121.5598
2009    26      1       0.5152727       112.121
2009    26      2       0.5541884       117.8687
2009    26      3       0.6482488       131.158
2009    26      4       0.6951821       137.7713
2009    26      5       0.5790982       121.8916
2009    26      6       0.5557975       118.3737
2009    26      7       0.5533717       117.8512
2009    27      0       0.5140013       111.7578
2009    27      1       0.4955111       109.0665
2009    27      2       0.5820417       122.3584
2009    27      3       0.6032371       125.7937
2009    27      4       0.6741596       135.791
2009    27      5       0.7223369       141.9615
2009    27      6       0.8662546       158.8384
2009    27      7       1.003618        173.3767
2009    28      0       0.8479107       156.7005
2009    28      1       0.7059855       139.1369
2009    28      2       0.7372897       142.8209
2009    28      3       0.7764416       148.4052
2009    28      4       0.9103727       164.2068
2009    28      5       1.001456        173.3387
2009    28      6       0.8710186       159.928
2009    28      7       0.832224        155.3436
2009    29      0       0.8012969       151.5564
2009    29      1       0.8183384       153.6667
2009    29      2       0.7750381       148.227
2009    29      3       0.8421842       156.1963
2009    29      4       0.8263746       154.7881
2009    29      5       0.8135011       152.8908
2009    29      6       0.7606908       147.2934
2009    29      7       0.7602551       146.1141
2009    30      0       0.8078123       152.1579
2009    30      1       0.6519568       132.7597
2009    30      2       0.6179849       128.1913
2009    30      3       0.7222335       140.7839
2009    30      4       0.7069446       139.582
2009    30      5       0.8335634       156.0559
2009    30      6       0.8363044       154.555
2009    30      7       0.9467341       166.4433
2010    1       0       0.2367076       58.72907
2010    1       1       0.2064597       52.83742
2010    1       2       0.2066494       53.05212
2010    1       3       0.2346926       58.7059
2010    1       4       0.2327876       58.19919
2010    1       5       0.1659559       44.27446
2010    1       6       0.1391956       38.26156
2010    1       7       0.1318818       36.53054
2010    2       0       0.126207        35.2793
2010    2       1       0.1292877       36.14853
2010    2       2       0.1733325       45.66349
2010    2       3       0.2387335       59.33654
2010    2       4       0.3527079       81.27304
2010    2       5       0.4039989       90.66218
2010    2       6       0.4776847       102.9218
2010    2       7       0.4944118       105.5082
2010    3       0       0.3072039       73.74809
2010    3       1       0.2541164       63.1384
2010    3       2       0.2753044       66.6134
2010    3       3       0.3363688       78.15687
2010    3       4       0.2616564       64.47529
2010    3       5       0.2104917       54.2917
2010    3       6       0.2018694       52.59173
2010    3       7       0.1619999       44.19187
2010    4       0       0.1950815       51.25714
2010    4       1       0.2158753       55.47706
2010    4       2       0.315179        74.96196
2010    4       3       0.4608735       100.5633
2010    4       4       0.5315659       112.0333
2010    4       5       0.5866104       120.4639
2010    4       6       0.4169317       94.2533
2010    4       7       0.4370988       96.69417
2010    5       0       0.3381053       79.20802
2010    5       1       0.2612228       64.93968
2010    5       2       0.2394868       60.6973
2010    5       3       0.2770554       67.86858
2010    5       4       0.2844131       69.04799
2010    5       5       0.2593219       64.44015
2010    5       6       0.308347        74.27659
2010    5       7       0.3755813       86.47087
2010    6       0       0.4189773       93.21728
2010    6       1       0.3708231       84.86178
2010    6       2       0.1853304       49.31392
2010    6       3       0.1275073       36.10401
2010    6       4       0.1203858       34.36855
2010    6       5       0.1249839       35.58736
2010    6       6       0.1319694       37.2782
2010    6       7       0.09985477      29.56287
2010    7       0       0.09233107      27.65645
2010    7       1       0.1124491       32.55181
2010    7       2       0.1336468       37.58133
2010    7       3       0.1675229       45.25244
2010    7       4       0.2150784       54.88278
2010    7       5       0.220913        56.00535
2010    7       6       0.22995         58.24736
2010    7       7       0.2903558       70.92212
2010    8       0       0.3173312       75.98751
2010    8       1       0.3388956       79.93496
2010    8       2       0.3845852       88.63996
2010    8       3       0.4169028       94.48211
2010    8       4       0.3632182       85.09999
2010    8       5       0.2878221       70.6091
2010    8       6       0.340967        81.38626
2010    8       7       0.3245007       78.35133
2010    9       0       0.2944872       72.26374
2010    9       1       0.2514528       63.48347
2010    9       2       0.213804        55.71842
2010    9       3       0.2175289       56.3049
2010    9       4       0.1974558       52.08634
2010    9       5       0.2181579       56.9709
2010    9       6       0.2993241       73.92637
2010    9       7       0.3060996       75.12322
2010    10      0       0.2912604       71.93981
2010    10      1       0.2735656       68.23032
2010    10      2       0.2347858       60.25236
2010    10      3       0.2069248       54.25228
2010    10      4       0.1805218       48.37968
2010    10      5       0.2357209       60.54152
2010    10      6       0.2043054       53.85785
2010    10      7       0.1542623       42.7404
2010    11      0       0.1340757       38.06239
2010    11      1       0.1596184       43.73961
2010    11      2       0.1411696       39.56384
2010    11      3       0.1219328       35.16921
2010    11      4       0.1105564       32.54501
2010    11      5       0.1790925       48.40759
2010    11      6       0.2311001       59.45631
2010    11      7       0.2092169       54.58957
2010    12      0       0.1703204       46.29352
2010    12      1       0.1645241       44.96933
2010    12      2       0.1670201       45.37655
2010    12      3       0.1596346       43.78832
2010    12      4       0.1442989       40.35256
2010    12      5       0.2223265       57.84159
2010    12      6       0.2385421       61.03558
2010    12      7       0.229188        58.827
2010    13      0       0.2099778       54.85018
2010    13      1       0.2218754       57.18549
2010    13      2       0.211546        55.09175
2010    13      3       0.2089241       54.74471
2010    13      4       0.2394104       60.97966
2010    13      5       0.3176435       76.5188
2010    13      6       0.2923413       71.79482
2010    13      7       0.2737715       68.03819
2010    14      0       0.1915225       50.91952
2010    14      1       0.1884963       50.13908
2010    14      2       0.2000747       52.82659
2010    14      3       0.2449164       62.41327
2010    14      4       0.2859751       70.32431
2010    14      5       0.3499363       82.61792
2010    14      6       0.3305245       79.09786
2010    14      7       0.3027466       73.36543
2010    15      0       0.2123056       55.47481
2010    15      1       0.2517005       63.43079
2010    15      2       0.2746379       68.10681
2010    15      3       0.322123        77.31448
2010    15      4       0.4043606       91.97782
2010    15      5       0.49778         107.4538
2010    15      6       0.5345278       113.5022
2010    15      7       0.4926556       106.9618
2010    16      0       0.3877269       89.53343
2010    16      1       0.4253577       95.74828
2010    16      2       0.4398904       97.78654
2010    16      3       0.4147184       93.8097
2010    16      4       0.4358401       97.57408
2010    16      5       0.5217165       111.5949
2010    16      6       0.7051562       138.35
2010    16      7       0.8049565       151.4273
2010    17      0       0.5357979       114.3966
2010    17      1       0.4646844       102.737
2010    17      2       0.4631176       102.5404
2010    17      3       0.4583445       102.4035
2010    17      4       0.5001057       109.4019
2010    17      5       0.5597249       118.6006
2010    17      6       0.6178023       127.277
2010    17      7       0.5175856       111.9668
2010    18      0       0.4434978       99.63103
2010    18      1       0.4828827       105.7463
2010    18      2       0.5208006       111.7347
2010    18      3       0.5338256       114.0652
2010    18      4       0.5928789       122.9938
2010    18      5       0.659189        132.2645
2010    18      6       0.7730876       146.804
2010    18      7       0.6621214       132.8521
2010    19      0       0.589983        122.8348
2010    19      1       0.4884293       106.6274
2010    19      2       0.4320426       97.26967
2010    19      3       0.3935101       90.80483
2010    19      4       0.4932744       107.4471
2010    19      5       0.5222292       111.9673
2010    19      6       0.5250108       112.1477
2010    19      7       0.5329007       113.211
2010    20      0       0.460502        101.8107
2010    20      1       0.5112954       109.6972
2010    20      2       0.5041123       108.4638
2010    20      3       0.4862273       106.2036
2010    20      4       0.5831598       120.817
2010    20      5       0.5955476       122.4326
2010    20      6       0.5820174       120.2883
2010    20      7       0.5208851       111.3986
2010    21      0       0.5086871       109.5754
2010    21      1       0.5856983       120.5579
2010    21      2       0.6416904       128.0594
2010    21      3       0.5657207       118.4207
2010    21      4       0.6142012       125.2726
2010    21      5       0.4696481       103.2704
2010    21      6       0.4366013       98.33936
2010    21      7       0.444749        99.65282
2010    22      0       0.4149287       94.40565
2010    22      1       0.5263034       111.9854
2010    22      2       0.5177604       110.8306
2010    22      3       0.5436354       115.3496
2010    22      4       0.5948417       122.7636
2010    22      5       0.6961028       136.9354
2010    22      6       0.7345491       141.8125
2010    22      7       0.6326294       127.9124
2010    23      0       0.3943058       90.79346
2010    23      1       0.4689384       102.8211
2010    23      2       0.4741781       103.7583
2010    23      3       0.468164        103.6571
2010    23      4       0.5429425       115.5154
2010    23      5       0.6062976       124.7693
2010    23      6       0.6359327       129.4348
2010    23      7       0.6659381       133.966
2010    24      0       0.5028075       109.5583
2010    24      1       0.5564059       117.2877
2010    24      2       0.5288926       112.7853
2010    24      3       0.5690229       119.252
2010    24      4       0.7025731       137.7656
2010    24      5       0.7409414       142.9459
2010    24      6       0.7603197       145.0165
2010    24      7       0.7067536       138.0992
2010    25      0       0.6735476       134.3319
2010    25      1       0.6200034       127.209
2010    25      2       0.6078847       124.9196
2010    25      3       0.5901446       123.1508
2010    25      4       0.6739794       134.8232
2010    25      5       0.7832962       148.2648
2010    25      6       0.7428233       142.3634
2010    25      7       0.8791664       159.2968
2010    26      0       0.8192722       153.6374
2010    26      1       0.6796236       135.6325
2010    26      2       0.6976665       137.2053
2010    26      3       0.6334747       129.4046
2010    26      4       0.7815101       148.3524
2010    26      5       0.8020926       151.1901
2010    26      6       0.7165789       140.2658
2010    26      7       0.7711183       146.5594
2010    27      0       0.6175242       126.7968
2010    27      1       0.5461974       116.6564
2010    27      2       0.6366856       129.1733
2010    27      3       0.6609924       132.026
2010    27      4       0.7061938       138.477
2010    27      5       0.587589        122.8871
2010    27      6       0.5073535       110.5111
2010    27      7       0.5111981       110.8123
2010    28      0       0.4898013       107.2171
2010    28      1       0.5384569       114.6952
2010    28      2       0.5259036       112.8532
2010    28      3       0.5670078       119.0916
2010    28      4       0.7351152       142.3397
2010    28      5       0.7723721       147.2319
2010    28      6       0.7045736       138.2125
2010    28      7       0.6020098       124.0727
2010    29      0       0.55093         116.6113
2010    29      1       0.5494155       116.131
2010    29      2       0.5576699       117.25
2010    29      3       0.5540155       116.915
2010    29      4       0.5496303       116.3273
2010    29      5       0.5354361       114.7561
2010    29      6       0.4977287       108.7448
2010    29      7       0.4447283       99.90494
2010    30      0       0.4355177       98.2803
2010    30      1       0.6039077       123.7579
2010    30      2       0.7414796       140.8172
2010    30      3       0.6057009       123.3689
2010    30      4       0.4754452       104.642
2010    30      5       0.5199515       112.6583
2010    30      6       0.6604433       133.2618
2010    30      7       0.5301568       113.6613
2011    1       0       0.2986055       72.09619
2011    1       1       0.4093178       91.89548
2011    1       2       0.4251225       94.56337
2011    1       3       0.336293        79.8886
2011    1       4       0.3606243       84.25856
2011    1       5       0.4003979       91.38502
2011    1       6       0.3702349       86.00139
2011    1       7       0.3087384       74.61863
2011    2       0       0.3953486       90.72357
2011    2       1       0.4442327       98.61335
2011    2       2       0.4280213       95.93274
2011    2       3       0.381923        88.29842
2011    2       4       0.3999222       91.30482
2011    2       5       0.4784825       105.9642
2011    2       6       0.5298486       113.5062
2011    2       7       0.4939653       106.7803
2011    3       0       0.363116        84.70755
2011    3       1       0.3655937       84.65149
2011    3       2       0.4161346       93.59531
2011    3       3       0.3891213       89.26483
2011    3       4       0.2936965       72.07017
2011    3       5       0.3094833       75.32577
2011    3       6       0.3706687       86.72595
2011    3       7       0.2978104       72.56075
2011    4       0       0.2575051       64.13395
2011    4       1       0.3508428       82.16823
2011    4       2       0.3680338       85.0149
2011    4       3       0.2591608       64.80783
2011    4       4       0.2794688       68.28894
2011    4       5       0.3019849       72.4441
2011    4       6       0.3699845       85.03334
2011    4       7       0.4028075       90.53824
2011    5       0       0.3519909       81.52865
2011    5       1       0.3625362       83.17458
2011    5       2       0.3707419       84.92572
2011    5       3       0.4096305       92.15602
2011    5       4       0.4819441       104.0654
2011    5       5       0.4204979       93.66195
2011    5       6       0.2097213       54.15954
2011    5       7       0.2414643       60.46124
2011    6       0       0.2360681       59.2861
2011    6       1       0.2002377       51.93819
2011    6       2       0.1778207       47.43975
2011    6       3       0.2069917       53.55228
2011    6       4       0.2036763       52.93582
2011    6       5       0.1761134       47.031
2011    6       6       0.2130194       54.39187
2011    6       7       0.3220021       75.80804
2011    7       0       0.4222218       94.38899
2011    7       1       0.4901535       105.9779
2011    7       2       0.3410821       80.81248
2011    7       3       0.2417064       61.34287
2011    7       4       0.2170216       56.20276
2011    7       5       0.2254156       58.00273
2011    7       6       0.2173671       56.02358
2011    7       7       0.1643704       44.40512
2011    8       0       0.1293041       36.58074
2011    8       1       0.1786402       47.85721
2011    8       2       0.1782703       47.5798
2011    8       3       0.1601385       43.65457
2011    8       4       0.1923156       50.06092
2011    8       5       0.2469385       61.28834
2011    8       6       0.3093218       73.88312
2011    8       7       0.3587955       83.09345
2011    9       0       0.3213464       76.24107
2011    9       1       0.368961        84.6154
2011    9       2       0.3323396       78.24173
2011    9       3       0.2421182       61.08471
2011    9       4       0.202436        52.76949
2011    9       5       0.2448311       61.48204
2011    9       6       0.3088038       74.1666
2011    9       7       0.4618031       101.1734
2011    10      0       0.4491659       99.15455
2011    10      1       0.4575743       100.2039
2011    10      2       0.4091778       92.13397
2011    10      3       0.351617        82.29953
2011    10      4       0.3642202       84.33925
2011    10      5       0.394355        89.55274
2011    10      6       0.4049976       91.64915
2011    10      7       0.3682953       85.20139
2011    11      0       0.344548        80.79506
2011    11      1       0.4496391       99.09296
2011    11      2       0.480861        103.9214
2011    11      3       0.4178244       93.97361
2011    11      4       0.4299289       95.94156
2011    11      5       0.4171613       93.8715
2011    11      6       0.5386337       114.0754
2011    11      7       0.452793        99.66964
2011    12      0       0.4061329       91.96228
2011    12      1       0.4071486       92.30709
2011    12      2       0.3772753       87.3854
2011    12      3       0.3388361       80.45245
2011    12      4       0.3765275       86.59565
2011    12      5       0.3488736       81.74362
2011    12      6       0.2756487       68.17621
2011    12      7       0.2398054       61.16019
2011    13      0       0.2044387       53.8394
2011    13      1       0.2024772       53.35157
2011    13      2       0.2314419       59.35306
2011    13      3       0.2902864       71.19979
2011    13      4       0.3097917       75.1295
2011    13      5       0.3542027       83.57369
2011    13      6       0.495099        108.1344
2011    13      7       0.659649        132.2467
2011    14      0       0.5312788       113.3725
2011    14      1       0.4151862       94.75103
2011    14      2       0.3544582       83.52827
2011    14      3       0.3197573       76.99579
2011    14      4       0.3694157       86.17551
2011    14      5       0.4367578       98.17575
2011    14      6       0.4454363       99.53189
2011    14      7       0.5321946       113.5033
2011    15      0       0.4544386       101.0013
2011    15      1       0.5310284       113.8522
2011    15      2       0.5988076       122.8204
2011    15      3       0.6436495       129.0049
2011    15      4       0.7090254       137.7803
2011    15      5       0.7862806       148.5048
2011    15      6       0.7556392       143.8286
2011    15      7       0.6198489       125.1336
2011    16      0       0.4682108       102.4171
2011    16      1       0.4729752       102.9247
2011    16      2       0.4876916       105.6334
2011    16      3       0.474728        103.8856
2011    16      4       0.4237801       95.66745
2011    16      5       0.3353119       80.08292
2011    16      6       0.3249335       77.58426
2011    16      7       0.2870574       70.04414
2011    17      0       0.2696415       66.36273
2011    17      1       0.266425        65.8016
2011    17      2       0.2909973       70.94504
2011    17      3       0.3351076       79.36875
2011    17      4       0.3750608       86.81127
2011    17      5       0.4374874       98.56677
2011    17      6       0.5971135       123.5742
2011    17      7       0.6190023       126.1465
2011    18      0       0.5339358       113.7845
2011    18      1       0.6169235       125.6142
2011    18      2       0.6237448       126.5286
2011    18      3       0.6406475       128.5941
2011    18      4       0.6643683       132.1518
2011    18      5       0.5349718       114.313
2011    18      6       0.4642087       102.3768
2011    18      7       0.4584841       101.4301
2011    19      0       0.4689076       103.1155
2011    19      1       0.550734        116.5632
2011    19      2       0.6151183       125.2371
2011    19      3       0.6668262       132.3431
2011    19      4       0.6956493       136.9597
2011    19      5       0.6359009       129.4638
2011    19      6       0.5571424       118.274
2011    19      7       0.5421025       115.7509
2011    20      0       0.5684295       119.5958
2011    20      1       0.6211231       126.991
2011    20      2       0.6295238       127.8063
2011    20      3       0.6772411       133.9755
2011    20      4       0.6428467       129.763
2011    20      5       0.6176538       126.6886
2011    20      6       0.6104577       125.4582
2011    20      7       0.5240871       112.4175
2011    21      0       0.4617679       102.3601
2011    21      1       0.4718804       104.1523
2011    21      2       0.5146286       111.0265
2011    21      3       0.5538587       116.9974
2011    21      4       0.5291699       113.2443
2011    21      5       0.5093234       110.643
2011    21      6       0.5372771       114.9828
2011    21      7       0.6501251       130.7852
2011    22      0       0.6475017       130.3554
2011    22      1       0.6385195       128.5664
2011    22      2       0.6277695       126.8315
2011    22      3       0.6790652       134.0053
2011    22      4       0.6433822       130.1917
2011    22      5       0.6160538       126.0508
2011    22      6       0.6152946       125.3193
2011    22      7       0.5916496       121.2976
2011    23      0       0.4937391       106.8265
2011    23      1       0.4996916       108.3235
2011    23      2       0.5528387       116.6698
2011    23      3       0.6466597       129.8046
2011    23      4       0.6766559       134.5842
2011    23      5       0.7889402       149.9133
2011    23      6       1.031464        175.6842
2011    23      7       0.7817144       148.4513
2011    24      0       0.7212382       140.8993
2011    24      1       0.704766        138.1066
2011    24      2       0.7147205       138.9716
2011    24      3       0.7563838       144.6934
2011    24      4       0.8162697       152.0845
2011    24      5       0.7667597       146.5158
2011    24      6       0.8388108       155.5172
2011    24      7       0.7769845       148.243
2011    25      0       0.655792        132.3634
2011    25      1       0.5322567       113.4536
2011    25      2       0.5733203       119.3779
2011    25      3       0.6451288       129.5078
2011    25      4       0.6809372       134.175
2011    25      5       0.5541734       116.2776
2011    25      6       0.4930327       107.3928
2011    25      7       0.5195329       111.3966
2011    26      0       0.531335        113.658
2011    26      1       0.4905215       106.7129
2011    26      2       0.4160047       94.43832
2011    26      3       0.3324237       79.67087
2011    26      4       0.2540846       64.32164
2011    26      5       0.222785        57.7328
2011    26      6       0.2141089       55.76958
2011    26      7       0.21389         55.53687
2011    27      0       0.1982211       52.18051
2011    27      1       0.2083212       54.18807
2011    27      2       0.2379835       60.52569
2011    27      3       0.3001277       72.93025
2011    27      4       0.2976822       72.80468
2011    27      5       0.3254982       78.25614
2011    27      6       0.4202984       95.51727
2011    27      7       0.5201764       112.3023
2011    28      0       0.4647805       103.1842
2011    28      1       0.5464298       115.8884
2011    28      2       0.5931716       122.313
2011    28      3       0.7110016       137.747
2011    28      4       0.6930186       135.8602
2011    28      5       0.7215738       140.865
2011    28      6       0.7895715       148.6022
2011    28      7       0.6707127       133.3116
2011    29      0       0.5817788       121.1162
2011    29      1       0.6222321       126.635
2011    29      2       0.6325235       128.1311
2011    29      3       0.598205        123.6414
2011    29      4       0.6459118       130.5982
2011    29      5       0.6755481       134.9524
2011    29      6       0.6122037       125.6269
2011    29      7       0.5459564       115.6652
2011    30      0       0.5356238       114.0523
2011    30      1       0.5711247       119.5941
2011    30      2       0.6376529       129.0157
2011    30      3       0.6313357       128.9847
2011    30      4       0.7444944       144.2039
2011    30      5       0.6444065       130.9592
2011    30      6       0.9081027       164.0681
2011    30      7       0.6829318       135.8258
2012    1       0       0.3690374       84.88353
2012    1       1       0.6149147       123.4396
2012    1       2       0.5609574       116.4015
2012    1       3       0.4986124       107.5356
2012    1       4       0.5451712       114.9836
2012    1       5       0.5547017       116.5063
2012    1       6       0.436564        98.3294
2012    1       7       0.2721103       67.85309
2012    2       0       0.1870992       49.83805
2012    2       1       0.3211711       76.79826
2012    2       2       0.4265042       95.82276
2012    2       3       0.3911584       90.18729
2012    2       4       0.3560002       83.71256
2012    2       5       0.340716        80.79166
2012    2       6       0.3565744       83.91948
2012    2       7       0.3426033       81.41149
2012    3       0       0.2897616       71.11978
2012    3       1       0.3288984       78.48527
2012    3       2       0.3875087       89.04116
2012    3       3       0.4254685       95.75132
2012    3       4       0.3705786       85.97816
2012    3       5       0.2790424       69.10901
2012    3       6       0.1718885       46.60198
2012    3       7       0.2072841       53.70832
2012    4       0       0.2292172       58.00972
2012    4       1       0.2378984       59.93106
2012    4       2       0.2834206       69.01977
2012    4       3       0.3175534       75.61495
2012    4       4       0.3086656       74.01474
2012    4       5       0.2895438       70.08073
2012    4       6       0.2820194       68.60286
2012    4       7       0.2357269       59.79909
2012    5       0       0.2592576       64.38906
2012    5       1       0.2617534       64.88011
2012    5       2       0.2485489       62.49079
2012    5       3       0.2520135       63.31157
2012    5       4       0.2365918       60.14527
2012    5       5       0.2757348       67.59968
2012    5       6       0.3136851       75.14086
2012    5       7       0.3273836       77.71669
2012    6       0       0.3252466       77.31196
2012    6       1       0.354554        82.61496
2012    6       2       0.3666643       84.8692
2012    6       3       0.4276586       95.25315
2012    6       4       0.4653621       101.4383
2012    6       5       0.4787101       104.3256
2012    6       6       0.4806313       104.9922
2012    6       7       0.4414154       98.80219
2012    7       0       0.3574842       84.06447
2012    7       1       0.4399119       98.04913
2012    7       2       0.3869166       89.41574
2012    7       3       0.268688        67.57044
2012    7       4       0.194719        51.90336
2012    7       5       0.1381789       39.03832
2012    7       6       0.1989543       52.84787
2012    7       7       0.1987772       52.69931
2012    8       0       0.1814207       48.82937
2012    8       1       0.2041174       53.61084
2012    8       2       0.2470522       62.81135
2012    8       3       0.2752017       68.44294
2012    8       4       0.2561333       64.68154
2012    8       5       0.4675634       103.5529
2012    8       6       0.4964425       108.3355
2012    8       7       0.2732045       68.58189
2012    9       0       0.2437419       62.63603
2012    9       1       0.2481547       63.22867
2012    9       2       0.2919783       72.20439
2012    9       3       0.2852267       70.95714
2012    9       4       0.327499        78.37285
2012    9       5       0.373103        87.18992
2012    9       6       0.2909915       71.58402
2012    9       7       0.2424419       61.70591
2012    10      0       0.1847262       49.51514
2012    10      1       0.1961725       52.01986
2012    10      2       0.1830827       49.40994
2012    10      3       0.166294        45.7598
2012    10      4       0.1441503       40.70344
2012    10      5       0.2092916       55.27452
2012    10      6       0.2095653       54.95233
2012    10      7       0.1891477       50.33357
2012    11      0       0.1754835       47.42131
2012    11      1       0.2120142       55.4032
2012    11      2       0.2065352       54.51594
2012    11      3       0.2217796       57.85437
2012    11      4       0.2288296       59.33621
2012    11      5       0.2523808       64.21915
2012    11      6       0.273922        68.4696
2012    11      7       0.2790941       69.27183
2012    12      0       0.250001        63.32376
2012    12      1       0.2733422       68.43029
2012    12      2       0.2437699       62.75178
2012    12      3       0.198281        53.11809
2012    12      4       0.1603993       44.55971
2012    12      5       0.1648798       45.40928
2012    12      6       0.2268055       58.83307
2012    12      7       0.2389399       61.41556
2012    13      0       0.2409131       61.79034
2012    13      1       0.2379904       60.97548
2012    13      2       0.2437824       62.3618
2012    13      3       0.29322         72.04517
2012    13      4       0.3040627       73.80428
2012    13      5       0.2767358       68.26264
2012    13      6       0.2804164       69.33856
2012    13      7       0.2364723       60.52451
2012    14      0       0.2134264       55.86854
2012    14      1       0.223999        58.00799
2012    14      2       0.2381806       61.14439
2012    14      3       0.303355        74.09868
2012    14      4       0.2859583       70.84109
2012    14      5       0.2365222       60.73008
2012    14      6       0.2739522       68.35257
2012    14      7       0.2921686       71.91267
2012    15      0       0.3612358       85.69669
2012    15      1       0.3178536       77.25709
2012    15      2       0.2968482       73.16792
2012    15      3       0.3260942       78.41028
2012    15      4       0.3583185       84.39501
2012    15      5       0.3513479       82.94334
2012    15      6       0.3523092       83.14116
2012    15      7       0.3479566       82.68862
2012    16      0       0.3394755       81.06583
2012    16      1       0.3864535       89.97893
2012    16      2       0.4652985       103.5318
2012    16      3       0.5425118       116.1844
2012    16      4       0.6766349       134.8973
2012    16      5       0.6383226       129.7007
2012    16      6       0.8323572       154.9564
2012    16      7       0.7366894       142.7932
2012    17      0       0.5301071       113.6399
2012    17      1       0.5798833       121.3254
2012    17      2       0.5382083       115.2702
2012    17      3       0.5253529       113.8169
2012    17      4       0.6290557       128.7814
2012    17      5       0.7453515       144.0141
2012    17      6       0.7061645       138.2456
2012    17      7       0.5609749       118.1801
2012    18      0       0.5293418       113.8064
2012    18      1       0.5294449       113.5625
2012    18      2       0.6114003       124.962
2012    18      3       0.5917356       123.2408
2012    18      4       0.6928813       137.2181
2012    18      5       0.6960028       137.1681
2012    18      6       0.6667368       132.7947
2012    18      7       0.4928049       107.7902
2012    19      0       0.4527917       101.2348
2012    19      1       0.4368276       98.16168
2012    19      2       0.5145967       110.7116
2012    19      3       0.5257001       112.6349
2012    19      4       0.598012        123.5033
2012    19      5       0.6842381       135.673
2012    19      6       0.74305         143.8562
2012    19      7       0.7953063       150.2354
2012    20      0       0.6303473       128.9108
2012    20      1       0.6061213       125.199
2012    20      2       0.5848921       121.9593
2012    20      3       0.5932592       123.4024
2012    20      4       0.6236722       127.4433
2012    20      5       0.4875249       106.915
2012    20      6       0.4997122       109.0748
2012    20      7       0.5247793       112.9552
2012    21      0       0.4342419       98.63281
2012    21      1       0.3662696       86.5477
2012    21      2       0.4786028       105.4405
2012    21      3       0.4779914       105.8289
2012    21      4       0.5477884       116.8122
2012    21      5       0.6246416       127.6777
2012    21      6       0.7000846       137.8511
2012    21      7       0.6046295       124.6453
2012    22      0       0.5727684       120.0
2012    22      1       0.6064647       124.9673
2012    22      2       0.5922495       122.9582
2012    22      3       0.5777142       121.1039
2012    22      4       0.6108347       125.5437
2012    22      5       0.6798147       134.8245
2012    22      6       0.5933612       123.9606
2012    22      7       0.5051737       110.5679
2012    23      0       0.5052289       110.5584
2012    23      1       0.56793         119.6469
2012    23      2       0.5895815       123.0219
2012    23      3       0.5927909       124.0292
2012    23      4       0.5959508       124.7207
2012    23      5       0.6766664       135.6294
2012    23      6       0.5905534       122.6129
2012    23      7       0.5575098       117.7495
2012    24      0       0.6158071       126.1239
2012    24      1       0.7232268       140.4195
2012    24      2       0.7052688       138.2095
2012    24      3       0.7291205       142.1015
2012    24      4       0.7889337       149.3635
2012    24      5       0.7152098       140.0474
2012    24      6       0.7975752       150.3619
2012    24      7       0.6895649       135.8225
2012    25      0       0.7305071       141.1314
2012    25      1       0.5794603       120.9788
2012    25      2       0.6282897       128.0347
2012    25      3       0.685289        135.4682
2012    25      4       0.7650889       146.2272
2012    25      5       0.7447927       143.8758
2012    25      6       0.879387        160.625
2012    25      7       0.5436444       116.4227
2012    26      0       0.4463416       100.4367
2012    26      1       0.5257083       113.3081
2012    26      2       0.565449        119.576
2012    26      3       0.6424048       130.7079
2012    26      4       0.6586162       133.1677
2012    26      5       0.6116704       126.7019
2012    26      6       0.5620873       119.2482
2012    26      7       0.4198633       95.83344
2012    27      0       0.3646429       85.94177
2012    27      1       0.4230273       96.476
2012    27      2       0.5010245       109.529
2012    27      3       0.5396647       115.6608
2012    27      4       0.5636859       119.1909
2012    27      5       0.4517558       101.6917
2012    27      6       0.4027929       93.38894
2012    27      7       0.3944965       91.58944
2012    28      0       0.3976768       92.1378
2012    28      1       0.4148445       95.37156
2012    28      2       0.5250193       113.6413
2012    28      3       0.6316129       128.4356
2012    28      4       0.6387725       130.1671
2012    28      5       0.6327246       129.6504
2012    28      6       0.7126542       140.2678
2012    28      7       0.6949778       137.7684
2012    29      0       0.655735        132.7561
2012    29      1       0.6629635       134.009
2012    29      2       0.6573075       133.3049
2012    29      3       0.6579776       134.0598
2012    29      4       0.6877067       137.9619
2012    29      5       0.6994584       139.4705
2012    29      6       0.8311815       155.251
2012    29      7       0.8083672       153.0324
2012    30      0       0.7436367       144.8837
2012    30      1       0.6538151       132.6357
2012    30      2       0.6655551       134.6521
2012    30      3       0.5963115       125.3776
2012    30      4       0.5493101       118.427
2012    30      5       0.5891812       124.2733
2012    30      6       0.7179731       141.7085
2012    30      7       0.7979844       150.9842
2013    1       0       0.6357506       128.0825
2013    1       1       0.580321        119.5915
2013    1       2       0.5895006       120.4911
2013    1       3       0.646743        128.4963
2013    1       4       0.5627644       117.1034
2013    1       5       0.5097634       109.0964
2013    1       6       0.4940263       106.4857
2013    1       7       0.4794911       104.1472
2013    2       0       0.4461397       98.77166
2013    2       1       0.5420333       113.8271
2013    2       2       0.5748646       118.1524
2013    2       3       0.5872482       120.4129
2013    2       4       0.579613        120.266
2013    2       5       0.6885698       135.2429
2013    2       6       0.6310379       127.2288
2013    2       7       0.5880923       121.0219
2013    3       0       0.4972034       107.3316
2013    3       1       0.5188739       110.3452
2013    3       2       0.5791606       118.7329
2013    3       3       0.5345752       112.9848
2013    3       4       0.5254962       112.1296
2013    3       5       0.4758537       104.7452
2013    3       6       0.5632643       118.115
2013    3       7       0.6293373       127.277
2013    4       0       0.5607142       116.9283
2013    4       1       0.5321841       112.6745
2013    4       2       0.5174032       110.3681
2013    4       3       0.4855791       105.8397
2013    4       4       0.4307101       96.96262
2013    4       5       0.3981012       91.61289
2013    4       6       0.4913085       106.8072
2013    4       7       0.527805        112.0768
2013    5       0       0.5422947       114.1622
2013    5       1       0.5518663       115.0323
2013    5       2       0.5971361       121.0941
2013    5       3       0.5566107       116.4403
2013    5       4       0.5895887       121.2931
2013    5       5       0.5760746       119.2134
2013    5       6       0.6062771       123.5447
2013    5       7       0.6208736       125.5767
2013    6       0       0.5692583       118.6258
2013    6       1       0.4943176       107.1123
2013    6       2       0.5399716       114.0973
2013    6       3       0.5186196       111.4725
2013    6       4       0.6178849       125.857
2013    6       5       0.5797577       120.2702
2013    6       6       0.6283661       127.1471
2013    6       7       0.5173976       111.2057
2013    7       0       0.4203318       95.25314
2013    7       1       0.5127134       109.7247
2013    7       2       0.5701227       117.5231
2013    7       3       0.6078923       123.1104
2013    7       4       0.5629962       117.8669
2013    7       5       0.602096        123.3233
2013    7       6       0.5115804       109.9044
2013    7       7       0.4268215       96.39661
2013    8       0       0.4121122       93.79558
2013    8       1       0.4767406       104.0677
2013    8       2       0.5064783       108.2723
2013    8       3       0.5753975       118.4968
2013    8       4       0.4228345       95.40833
2013    8       5       0.3210353       76.86338
2013    8       6       0.2272226       58.1336
2013    8       7       0.1501228       41.40852
2013    9       0       0.1120027       32.81816
2013    9       1       0.0941884       28.63842
2013    9       2       0.1044104       31.09932
2013    9       3       0.1018273       30.4396
2013    9       4       0.08269492      25.84616
2013    9       5       0.0789954       24.87857
2013    9       6       0.07675037      24.27359
2013    9       7       0.07286606      23.28739
2013    10      0       0.05769951      19.51308
2013    10      1       0.0527192       18.26266
2013    10      2       0.06145952      20.57101
2013    10      3       0.0806562       25.39079
2013    10      4       0.08697846      26.92794
2013    10      5       0.08068073      25.36942
2013    10      6       0.07935402      25.02341
2013    10      7       0.08269081      25.79349
2013    11      0       0.07983223      25.12428
2013    11      1       0.08180267      25.66803
2013    11      2       0.1053524       31.39382
2013    11      3       0.1240821       35.96954
2013    11      4       0.1334684       38.15275
2013    11      5       0.1319553       37.74055
2013    11      6       0.1376296       39.10902
2013    11      7       0.2166294       56.99175
2013    12      0       0.2404046       62.06381
2013    12      1       0.2446068       62.86863
2013    12      2       0.2613703       66.3257
2013    12      3       0.2869651       70.98202
2013    12      4       0.2826746       70.07276
2013    12      5       0.2837179       70.25436
2013    12      6       0.3718317       87.29756
2013    12      7       0.3823395       88.83314
2013    13      0       0.408407        93.25968
2013    13      1       0.376976        87.83745
2013    13      2       0.3709809       86.42763
2013    13      3       0.333873        79.42195
2013    13      4       0.3378627       79.8708
2013    13      5       0.4322687       97.19117
2013    13      6       0.5542485       116.7037
2013    13      7       0.6819933       134.351
2013    14      0       0.7047101       138.5342
2013    14      1       0.6201343       126.8111
2013    14      2       0.5796426       120.5841
2013    14      3       0.5423958       114.9187
2013    14      4       0.5576461       117.0617
2013    14      5       0.5008479       109.1048
2013    14      6       0.4726128       105.2229
2013    14      7       0.510854        111.0407
2013    15      0       0.5658889       119.4072
2013    15      1       0.6651635       132.8279
2013    15      2       0.6690237       133.2784
2013    15      3       0.6214606       127.4703
2013    15      4       0.6203715       127.3711
2013    15      5       0.6515528       131.7267
2013    15      6       0.5486235       116.8671
2013    15      7       0.4804329       105.6263
2013    16      0       0.4171341       95.01329
2013    16      1       0.4058182       92.86719
2013    16      2       0.4299013       97.27679
2013    16      3       0.4288137       96.93001
2013    16      4       0.4566948       101.702
2013    16      5       0.6117862       126.182
2013    16      6       0.5854524       122.1997
2013    16      7       0.4408447       99.42805
2013    17      0       0.4098922       93.8809
2013    17      1       0.4133486       94.59087
2013    17      2       0.4123203       94.93272
2013    17      3       0.4309012       97.80162
2013    17      4       0.4364537       98.86076
2013    17      5       0.4454137       101.1341
2013    17      6       0.4835403       107.1711
2013    17      7       0.462922        103.0174
2013    18      0       0.4918693       107.4584
2013    18      1       0.6266194       127.7848
2013    18      2       0.7003367       136.5189
2013    18      3       0.6483875       130.1014
2013    18      4       0.6031763       124.4316
2013    18      5       0.6497215       131.3541
2013    18      6       0.8595954       157.8708
2013    18      7       0.6464753       130.8541
2013    19      0       0.5703789       119.7182
2013    19      1       0.643134        130.2627
2013    19      2       0.6657754       133.2991
2013    19      3       0.6514781       131.9164
2013    19      4       0.6050246       125.9739
2013    19      5       0.6877167       137.038
2013    19      6       0.7726933       147.9316
2013    19      7       0.6990307       138.3822
2013    20      0       0.6374684       130.5917
2013    20      1       0.672221        135.5792
2013    20      2       0.6660882       134.6988
2013    20      3       0.6598806       133.5028
2013    20      4       0.7310364       143.8564
2013    20      5       0.8171424       153.7419
2013    20      6       0.866043        158.4826
2013    20      7       0.8218844       153.4521
2013    21      0       0.6830066       136.6732
2013    21      1       0.7332155       142.9722
2013    21      2       0.7222317       141.5689
2013    21      3       0.7155724       140.9088
2013    21      4       0.7389987       144.1307
2013    21      5       0.8350461       155.2586
2013    21      6       0.9506465       168.1663
2013    21      7       0.7685854       147.4506
2013    22      0       0.6526494       132.2375
2013    22      1       0.7045327       139.0681
2013    22      2       0.6856689       136.4763
2013    22      3       0.6938289       138.1771
2013    22      4       0.7233596       142.1735
2013    22      5       0.712131        140.2796
2013    22      6       0.6295962       128.5874
2013    22      7       0.5794989       121.5054
2013    23      0       0.5625831       119.1438
2013    23      1       0.5767257       121.4537
2013    23      2       0.6258276       128.8984
2013    23      3       0.6611428       133.0093
2013    23      4       0.692832        137.5643
2013    23      5       0.8283846       154.745
2013    23      6       0.8497404       156.6796
2013    23      7       0.8142312       152.5257
2013    24      0       0.7110151       139.8129
2013    24      1       0.7216046       141.2706
2013    24      2       0.7353313       142.6649
2013    24      3       0.6927196       138.0433
2013    24      4       0.7642565       147.2695
2013    24      5       0.9208865       165.0824
2013    24      6       1.044789        176.8992
2013    24      7       0.9717009       169.5526
2013    25      0       0.7555714       145.4437
2013    25      1       0.699176        138.217
2013    25      2       0.7659762       146.4231
2013    25      3       0.8086705       152.4085
2013    25      4       0.7817654       148.6086
2013    25      5       0.6712303       134.5845
2013    25      6       0.7464277       144.7275
2013    25      7       0.7824675       148.3166
2013    26      0       0.6712565       133.2792
2013    26      1       0.5614884       118.1203
2013    26      2       0.6225913       127.8068
2013    26      3       0.7097979       139.8304
2013    26      4       0.7674313       147.1007
2013    26      5       0.7439751       143.4821
2013    26      6       0.7450109       143.2581
2013    26      7       0.6668829       132.6386
2013    27      0       0.6231739       126.452
2013    27      1       0.6093419       125.0934
2013    27      2       0.6418735       130.3887
2013    27      3       0.7349734       142.1002
2013    27      4       0.7549443       145.7012
2013    27      5       0.8945447       161.7535
2013    27      6       1.026858        176.2636
2013    27      7       0.9613422       169.096
2013    28      0       0.6917582       137.2009
2013    28      1       0.8343861       155.0282
2013    28      2       0.6843381       136.2523
2013    28      3       0.7201526       141.0168
2013    28      4       0.821108        153.371
2013    28      5       0.8259699       154.4697
2013    28      6       0.8121197       152.7182
2013    28      7       0.702576        138.2902
2013    29      0       0.7213642       140.9842
2013    29      1       0.8173853       153.533
2013    29      2       0.731374        143.3643
2013    29      3       0.7753508       147.5373
2013    29      4       0.8321528       154.784
2013    29      5       1.037141        177.4244
2013    29      6       0.8526707       156.6263
2013    29      7       0.7845895       148.0667
2013    30      0       0.7955074       149.468
2013    30      1       0.7475677       143.9886
2013    30      2       0.6624425       133.3803
2013    30      3       0.6061373       125.6327
2013    30      4       0.6068142       126.1109
2013    30      5       0.6443377       131.6189
2013    30      6       0.6411167       131.0253
2013    30      7       0.6148947       126.9811
2014    1       0       0.4175399       94.17321
2014    1       1       0.49            105.3128
2014    1       2       0.5197011       109.8549
2014    1       3       0.440607        98.28721
2014    1       4       0.4633136       102.2663
2014    1       5       0.4051498       93.00969
2014    1       6       0.4196315       95.41777
2014    1       7       0.3735939       87.44478
2014    2       0       0.3663549       86.14202
2014    2       1       0.4510628       99.74437
2014    2       2       0.4725716       103.1448
2014    2       3       0.4118263       93.34558
2014    2       4       0.3388821       80.68913
2014    2       5       0.342397        81.50378
2014    2       6       0.3364788       81.05136
2014    2       7       0.2996778       73.88535
2014    3       0       0.2978768       73.3209
2014    3       1       0.312977        75.88253
2014    3       2       0.3502086       83.26462
2014    3       3       0.303094        74.34876
2014    3       4       0.2833848       70.22982
2014    3       5       0.2860848       71.2448
2014    3       6       0.3125916       76.66993
2014    3       7       0.2888654       71.70568
2014    4       0       0.2868758       71.12872
2014    4       1       0.2833047       70.41263
2014    4       2       0.2469581       63.30655
2014    4       3       0.1915046       51.29775
2014    4       4       0.1620712       44.7582
2014    4       5       0.1746176       47.37378
2014    4       6       0.2735043       68.76236
2014    4       7       0.3074903       75.47812
2014    5       0       0.3148791       76.71625
2014    5       1       0.2867538       71.12988
2014    5       2       0.2629549       66.46727
2014    5       3       0.2535876       64.31667
2014    5       4       0.2284582       59.06487
2014    5       5       0.2250573       58.35841
2014    5       6       0.3018768       74.15563
2014    5       7       0.3279845       79.15318
2014    6       0       0.3028926       74.40878
2014    6       1       0.2838428       70.7115
2014    6       2       0.2969078       73.33414
2014    6       3       0.3506966       82.89013
2014    6       4       0.3885382       89.70537
2014    6       5       0.3995251       91.77074
2014    6       6       0.4383068       99.0133
2014    6       7       0.4403246       99.5404
2014    7       0       0.4120401       94.68716
2014    7       1       0.3451399       82.90333
2014    7       2       0.4340416       98.36136
2014    7       3       0.5450378       115.7303
2014    7       4       0.512035        110.9102
2014    7       5       0.5380071       115.1919
2014    7       6       0.6010233       124.1194
2014    7       7       0.4283249       96.84438
2014    8       0       0.2858978       70.67846
2014    8       1       0.3133397       76.70171
2014    8       2       0.3177036       77.28211
2014    8       3       0.3248575       78.55396
2014    8       4       0.4068739       93.18344
2014    8       5       0.4233707       96.89618
2014    8       6       0.4381164       98.99544
2014    8       7       0.3275063       79.00246
2014    9       0       0.2482161       62.99727
2014    9       1       0.2684003       67.23872
2014    9       2       0.2507626       63.82678
2014    9       3       0.2329912       60.12098
2014    9       4       0.2359385       60.53032
2014    9       5       0.2782783       69.31999
2014    9       6       0.2437064       62.09809
2014    9       7       0.2472253       62.71645
2014    10      0       0.2448866       62.21386
2014    10      1       0.2596668       65.31771
2014    10      2       0.2523686       64.16169
2014    10      3       0.2238572       58.36553
2014    10      4       0.2211365       57.68741
2014    10      5       0.2621374       65.85685
2014    10      6       0.2961227       72.59108
2014    10      7       0.2964503       72.46262
2014    11      0       0.3025945       73.661
2014    11      1       0.3535059       83.40478
2014    11      2       0.3327532       79.93721
2014    11      3       0.2622588       66.3351
2014    11      4       0.2621183       66.21224
2014    11      5       0.2933871       72.58337
2014    11      6       0.2620456       65.926
2014    11      7       0.2568485       64.50429
2014    12      0       0.2173037       56.36731
2014    12      1       0.2221786       57.6381
2014    12      2       0.1563204       43.20519
2014    12      3       0.1365902       38.73101
2014    12      4       0.1644295       45.1572
2014    12      5       0.2759114       68.69113
2014    12      6       0.4667605       103.2588
2014    12      7       0.5830113       120.9484
2014    13      0       0.3881635       89.36515
2014    13      1       0.3617382       84.60366
2014    13      2       0.2510012       63.56013
2014    13      3       0.2119487       55.5305
2014    13      4       0.2615675       65.4831
2014    13      5       0.3660553       85.15775
2014    13      6       0.4506378       99.6011
2014    13      7       0.5073031       108.5729
2014    14      0       0.3109637       74.88831
2014    14      1       0.4112573       92.77065
2014    14      2       0.3354247       79.73606
2014    14      3       0.2719602       67.66473
2014    14      4       0.2768366       68.51507
2014    14      5       0.3334787       79.60186
2014    14      6       0.3770034       88.14253
2014    14      7       0.5099634       109.7895
2014    15      0       0.4374018       98.02481
2014    15      1       0.5829178       119.4087
2014    15      2       0.4893599       105.6434
2014    15      3       0.5630629       116.6013
2014    15      4       0.5353177       112.8408
2014    15      5       0.4145682       93.2131
2014    15      6       0.3288017       77.85616
2014    15      7       0.3591643       82.32015
2014    16      0       0.2434454       60.69248
2014    16      1       0.2015368       52.18708
2014    16      2       0.1795919       47.97874
2014    16      3       0.196624        51.92724
2014    16      4       0.2389567       60.28144
2014    16      5       0.2331231       58.91324
2014    16      6       0.2227628       57.36408
2014    16      7       0.218878        56.72868
2014    17      0       0.1932866       51.45441
2014    17      1       0.1524954       42.28079
2014    17      2       0.1532113       42.35479
2014    17      3       0.1839597       49.088
2014    17      4       0.1997816       52.567
2014    17      5       0.2266277       58.26785
2014    17      6       0.3889478       90.12263
2014    17      7       0.4009722       92.20591
2014    18      0       0.4359448       99.02552
2014    18      1       0.4482777       100.7351
2014    18      2       0.450477        100.4269
2014    18      3       0.4875474       106.388
2014    18      4       0.468014        103.3308
2014    18      5       0.5596626       118.0586
2014    18      6       0.6831285       135.2873
2014    18      7       0.5860088       120.7771
2014    19      0       0.4623516       102.0234
2014    19      1       0.454506        101.1679
2014    19      2       0.5780366       119.8763
2014    19      3       0.5649294       119.1278
2014    19      4       0.6369667       129.4289
2014    19      5       0.743575        143.216
2014    19      6       0.8258988       153.8142
2014    19      7       0.6914788       136.2079
2014    20      0       0.5287586       113.174
2014    20      1       0.5811737       120.5163
2014    20      2       0.6579133       130.8081
2014    20      3       0.6435319       129.8025
2014    20      4       0.614205        126.0994
2014    20      5       0.6929893       136.5256
2014    20      6       0.776941        147.627
2014    20      7       0.6146688       126.2603
2014    21      0       0.5148079       111.0062
2014    21      1       0.5973922       123.289
2014    21      2       0.6238328       127.1429
2014    21      3       0.6613452       132.8364
2014    21      4       0.90787         163.3841
2014    21      5       0.8915301       161.5049
2014    21      6       0.7243402       141.5779
2014    21      7       0.589974        122.686
2014    22      0       0.6908342       137.0124
2014    22      1       0.7819285       147.6059
2014    22      2       0.7094419       138.4958
2014    22      3       0.7090333       139.3727
2014    22      4       0.7734528       147.5613
2014    22      5       1.053296        178.5334
2014    22      6       0.6780555       134.9837
2014    22      7       0.897123        161.6511
2014    23      0       0.8254141       153.374
2014    23      1       0.693963        136.6956
2014    23      2       0.683421        135.7636
2014    23      3       0.6536228       132.5032
2014    23      4       0.7066452       139.1758
2014    23      5       0.7087571       139.6845
2014    23      6       0.6270213       128.4552
2014    23      7       0.5333994       114.2989
2014    24      0       0.4571778       101.87
2014    24      1       0.5425102       115.4854
2014    24      2       0.4763886       104.8617
2014    24      3       0.3740636       87.71366
2014    24      4       0.3358054       80.89867
2014    24      5       0.3464872       82.87189
2014    24      6       0.359254        84.66726
2014    24      7       0.5728729       120.0227
2014    25      0       0.5458972       115.3331
2014    25      1       0.5330846       113.9803
2014    25      2       0.544738        115.2784
2014    25      3       0.6892937       134.9525
2014    25      4       0.5830238       120.5462
2014    25      5       0.5391691       115.3192
2014    25      6       0.5658252       119.6975
2014    25      7       0.5615295       118.8675
2014    26      0       0.5915008       122.973
2014    26      1       0.7575325       143.6793
2014    26      2       0.6610843       132.0577
2014    26      3       0.5780976       120.8228
2014    26      4       0.4812508       106.1997
2014    26      5       0.4981655       108.9928
2014    26      6       0.5509222       117.2425
2014    26      7       0.5739219       120.568
2014    27      0       0.7308144       141.6452
2014    27      1       0.6029513       124.4773
2014    27      2       0.6183176       125.9301
2014    27      3       0.7374154       141.9993
2014    27      4       0.7487249       143.8252
2014    27      5       0.7643944       145.5614
2014    27      6       0.7843018       147.9157
2014    27      7       0.7616314       145.3195
2014    28      0       0.5510349       116.6485
2014    28      1       0.493933        107.584
2014    28      2       0.5206798       111.468
2014    28      3       0.5728469       119.1753
2014    28      4       0.5919371       122.5239
2014    28      5       0.6452386       129.6659
2014    28      6       0.6636258       132.0465
2014    28      7       0.6899015       135.5101
2014    29      0       0.6998934       136.7715
2014    29      1       0.7252943       140.3092
2014    29      2       0.6423582       129.2667
2014    29      3       0.6897013       135.2923
2014    29      4       0.6381858       128.6676
2014    29      5       0.6895285       135.1076
2014    29      6       0.7388889       142.446
2014    29      7       0.6388778       128.8752
2014    30      0       0.581842        119.7502
2014    30      1       0.5851191       120.3798
2014    30      2       0.6020129       122.966
2014    30      3       0.6975058       136.3395
2014    30      4       0.8027186       149.8576
2014    30      5       0.7740167       146.6948
2014    30      6       0.7804756       147.3092
2014    30      7       0.7973484       149.2804
2015    1       0       0.1295858       36.76047
2015    1       1       0.1698367       46.01731
2015    1       2       0.125685        36.00092
2015    1       3       0.1001383       29.90143
2015    1       4       0.1317298       37.29267
2015    1       5       0.2426378       61.56444
2015    1       6       0.1598019       43.70047
2015    1       7       0.1286581       36.31525
2015    2       0       0.1139729       32.80402
2015    2       1       0.128952        36.39314
2015    2       2       0.1245851       35.51781
2015    2       3       0.1207706       34.70546
2015    2       4       0.1189992       34.27485
2015    2       5       0.1440737       39.99946
2015    2       6       0.2463582       62.28113
2015    2       7       0.3589066       83.83864
2015    3       0       0.2793188       68.69344
2015    3       1       0.2288078       58.51184
2015    3       2       0.2113823       54.96568
2015    3       3       0.1802565       48.20823
2015    3       4       0.1688039       45.62724
2015    3       5       0.1777237       47.50312
2015    3       6       0.1869114       49.59617
2015    3       7       0.1880306       49.84507
2015    4       0       0.1920764       50.73658
2015    4       1       0.2159857       55.80846
2015    4       2       0.2435935       61.55721
2015    4       3       0.258147        64.68788
2015    4       4       0.2448535       62.11263
2015    4       5       0.2505937       63.53543
2015    4       6       0.3248682       78.59872
2015    4       7       0.3515462       83.3705
2015    5       0       0.3173907       76.79135
2015    5       1       0.2883066       71.04686
2015    5       2       0.342018        81.38813
2015    5       3       0.3900441       90.10417
2015    5       4       0.4134969       94.10918
2015    5       5       0.4652181       103.3308
2015    5       6       0.3852559       89.83704
2015    5       7       0.3487307       82.87121
2015    6       0       0.3183027       76.94382
2015    6       1       0.3328736       79.5051
2015    6       2       0.2738314       68.49494
2015    6       3       0.2368682       60.9605
2015    6       4       0.2140508       55.68039
2015    6       5       0.2245931       58.22072
2015    6       6       0.2469674       62.98412
2015    6       7       0.1973006       52.33555
2015    7       0       0.1932911       51.33683
2015    7       1       0.2054781       53.76514
2015    7       2       0.1935192       51.33202
2015    7       3       0.1827148       48.95754
2015    7       4       0.1770935       47.49424
2015    7       5       0.2120864       55.15562
2015    7       6       0.2226076       57.59118
2015    7       7       0.2191161       56.80595
2015    8       0       0.2517456       63.50898
2015    8       1       0.2520629       63.43505
2015    8       2       0.2445896       61.94054
2015    8       3       0.2449028       61.65088
2015    8       4       0.2480228       62.06485
2015    8       5       0.2377367       60.02433
2015    8       6       0.3152627       75.64565
2015    8       7       0.3023955       73.42979
2015    9       0       0.2945743       71.93512
2015    9       1       0.3174089       75.89555
2015    9       2       0.3564191       82.97305
2015    9       3       0.4517398       99.48855
2015    9       4       0.4118387       93.21262
2015    9       5       0.3271133       78.14032
2015    9       6       0.31481         75.79848
2015    9       7       0.3395542       80.38352
2015    10      0       0.3158897       76.29761
2015    10      1       0.4197472       94.00427
2015    10      2       0.4063581       91.74828
2015    10      3       0.402762        91.80759
2015    10      4       0.3581341       83.97148
2015    10      5       0.3713524       85.99945
2015    10      6       0.434596        97.2028
2015    10      7       0.4291243       96.71993
2015    11      0       0.3804456       88.11105
2015    11      1       0.4194057       94.54759
2015    11      2       0.4199483       94.61286
2015    11      3       0.4127087       93.58329
2015    11      4       0.5317795       112.8602
2015    11      5       0.5710099       118.9872
2015    11      6       0.6430908       129.4991
2015    11      7       0.5559078       116.0442
2015    12      0       0.3734146       86.36068
2015    12      1       0.4520784       99.44674
2015    12      2       0.4712634       102.9535
2015    12      3       0.5091114       109.4982
2015    12      4       0.4940975       107.7687
2015    12      5       0.516835        111.4074
2015    12      6       0.5120969       110.5774
2015    12      7       0.4311753       96.92733
2015    13      0       0.3855274       88.37978
2015    13      1       0.3883208       88.97094
2015    13      2       0.4385472       97.14383
2015    13      3       0.3323882       79.06819
2015    13      4       0.3005645       73.03151
2015    13      5       0.33017         78.79913
2015    13      6       0.3105813       74.93313
2015    13      7       0.4009174       90.61359
2015    14      0       0.2713758       66.71239
2015    14      1       0.2783968       68.38828
2015    14      2       0.2770534       68.36914
2015    14      3       0.3022937       73.48435
2015    14      4       0.4086517       92.80218
2015    14      5       0.3741182       86.53135
2015    14      6       0.3397677       79.8463
2015    14      7       0.240445        60.34516
2015    15      0       0.2910069       69.94515
2015    15      1       0.2692541       66.441
2015    15      2       0.28077         69.01342
2015    15      3       0.3407171       80.83691
2015    15      4       0.3710655       86.54937
2015    15      5       0.4216142       95.37662
2015    15      6       0.4479872       99.27991
2015    15      7       0.4049239       91.98996
2015    16      0       0.3753201       87.40729
2015    16      1       0.4897807       106.5122
2015    16      2       0.5430928       114.3093
2015    16      3       0.4797864       105.1008
2015    16      4       0.518102        111.3198
2015    16      5       0.5212171       111.6585
2015    16      6       0.4073245       93.06289
2015    16      7       0.3104893       75.143
2015    17      0       0.3442112       82.11363
2015    17      1       0.3262572       78.63391
2015    17      2       0.2829993       70.52965
2015    17      3       0.278253        69.34254
2015    17      4       0.2672113       67.20145
2015    17      5       0.2442456       62.83056
2015    17      6       0.2954523       72.56765
2015    17      7       0.3993373       91.86895
2015    18      0       0.4380895       98.94992
2015    18      1       0.5219815       111.5933
2015    18      2       0.5597222       117.0171
2015    18      3       0.5413483       114.3012
2015    18      4       0.5095099       109.6781
2015    18      5       0.546778        116.1774
2015    18      6       0.5890064       122.7398
2015    18      7       0.6472137       130.5583
2015    19      0       0.6097094       125.3485
2015    19      1       0.5315153       113.5546
2015    19      2       0.491602        107.1261
2015    19      3       0.4940296       107.7712
2015    19      4       0.6885558       135.5945
2015    19      5       0.726805        140.3738
2015    19      6       0.6243098       125.8663
2015    19      7       0.4828523       104.6017
2015    20      0       0.4293247       96.24405
2015    20      1       0.5047844       108.1444
2015    20      2       0.5609429       116.5102
2015    20      3       0.5484207       115.575
2015    20      4       0.5115065       110.0688
2015    20      5       0.5422828       114.817
2015    20      6       0.6837041       134.4472
2015    20      7       0.63252         127.6216
2015    21      0       0.621413        125.9633
2015    21      1       0.6468794       129.4419
2015    21      2       0.6216347       125.6286
2015    21      3       0.5821324       120.4816
2015    21      4       0.6915548       135.6715
2015    21      5       0.5421851       115.1102
2015    21      6       0.532859        113.5871
2015    21      7       0.5628371       116.8598
2015    22      0       0.5997231       122.553
2015    22      1       0.7514469       142.3327
2015    22      2       0.7007468       136.6356
2015    22      3       0.7517583       143.1203
2015    22      4       0.6872326       135.1157
2015    22      5       0.573525        119.6522
2015    22      6       0.6113255       125.1347
2015    22      7       0.6436071       129.4645
2015    23      0       0.7071034       138.0386
2015    23      1       0.6445066       129.8803
2015    23      2       0.7057181       137.5576
2015    23      3       0.7248591       140.2672
2015    23      4       0.6472226       129.9187
2015    23      5       0.6884394       135.971
2015    23      6       0.6672294       133.5363
2015    23      7       0.6076331       125.1518
2015    24      0       0.538663        114.8686
2015    24      1       0.6226788       126.7283
2015    24      2       0.6469215       129.6536
2015    24      3       0.6376803       128.8188
2015    24      4       0.6850051       135.4002
2015    24      5       0.5927303       123.6361
2015    24      6       0.5313214       113.8089
2015    24      7       0.5104905       110.1621
2015    25      0       0.4670837       103.4404
2015    25      1       0.598389        122.7819
2015    25      2       0.594512        122.2568
2015    25      3       0.6019234       123.8314
2015    25      4       0.6015888       124.3593
2015    25      5       0.5827681       122.254
2015    25      6       0.5350095       115.3688
2015    25      7       0.8519268       157.9085
2015    26      0       0.7507647       144.624
2015    26      1       0.7030977       138.5665
2015    26      2       0.6351072       129.0782
2015    26      3       0.6527171       131.1713
2015    26      4       0.6717476       134.1721
2015    26      5       0.6373174       129.9405
2015    26      6       0.6035418       124.9877
2015    26      7       0.718647        141.2348
2015    27      0       0.5817107       121.8873
2015    27      1       0.6171814       126.7033
2015    27      2       0.7371323       141.4952
2015    27      3       0.7496418       143.5612
2015    27      4       0.7448962       143.4015
2015    27      5       0.6889707       136.8654
2015    27      6       0.6044524       125.0591
2015    27      7       0.5690844       119.2053
2015    28      0       0.6560058       131.0348
2015    28      1       0.63324         127.8887
2015    28      2       0.6191767       126.4075
2015    28      3       0.7060054       137.8728
2015    28      4       0.7166599       139.8213
2015    28      5       0.576197        120.8635
2015    28      6       0.5675964       119.3377
2015    28      7       0.5941856       122.6487
2015    29      0       0.4541652       101.2092
2015    29      1       0.4732551       104.5448
2015    29      2       0.5284046       113.2406
2015    29      3       0.4745394       104.9053
2015    29      4       0.4343843       98.51608
2015    29      5       0.479211        106.2347
2015    29      6       0.5801282       121.957
2015    29      7       0.6383703       130.0366
2015    30      0       0.5443493       116.0296
2015    30      1       0.6596434       132.156
2015    30      2       0.6926825       136.0528
2015    30      3       0.6350206       128.8773
2015    30      4       0.6155          126.5976
2015    30      5       0.5949517       123.8177
2015    30      6       0.621775        127.1149
2015    30      7       0.5353483       114.7803
2016    1       0       0.1996869       50.97209
2016    1       1       0.1410685       38.68498
2016    1       2       0.1310927       36.59638
2016    1       3       0.1464631       40.03581
2016    1       4       0.1336811       37.30102
2016    1       5       0.1307937       36.70947
2016    1       6       0.1219422       34.54543
2016    1       7       0.1120365       32.17285
2016    2       0       0.09683671      28.71693
2016    2       1       0.09830368      29.14429
2016    2       2       0.1167957       33.51126
2016    2       3       0.1377026       38.15706
2016    2       4       0.1203606       34.34513
2016    2       5       0.1043236       30.66371
2016    2       6       0.09299493      27.93561
2016    2       7       0.08484836      25.94153
2016    3       0       0.08137576      25.07727
2016    3       1       0.1019288       29.94285
2016    3       2       0.1429583       39.42313
2016    3       3       0.2311596       57.91367
2016    3       4       0.3076716       72.91602
2016    3       5       0.324904        76.34025
2016    3       6       0.3672645       84.04283
2016    3       7       0.4364174       96.16784
2016    4       0       0.3463217       81.00218
2016    4       1       0.3798314       87.07511
2016    4       2       0.4022082       90.26435
2016    4       3       0.3681944       84.9859
2016    4       4       0.4296945       95.49017
2016    4       5       0.4493413       98.71293
2016    4       6       0.3844208       88.21972
2016    4       7       0.4489159       99.08041
2016    5       0       0.4053318       92.04061
2016    5       1       0.4249338       94.61471
2016    5       2       0.3822058       87.53486
2016    5       3       0.3647733       84.84407
2016    5       4       0.381017        87.90788
2016    5       5       0.4371787       97.59829
2016    5       6       0.5954207       121.437
2016    5       7       0.6187521       124.4964
2016    6       0       0.5044963       107.8571
2016    6       1       0.4824839       104.0946
2016    6       2       0.4522247       99.45222
2016    6       3       0.5082201       108.0549
2016    6       4       0.555931        115.4598
2016    6       5       0.5485481       114.7195
2016    6       6       0.5954635       121.084
2016    6       7       0.6032468       122.1338
2016    7       0       0.609161        123.0544
2016    7       1       0.4411299       98.17357
2016    7       2       0.488056        105.4735
2016    7       3       0.5275459       111.6961
2016    7       4       0.4401672       97.91445
2016    7       5       0.4531956       100.1449
2016    7       6       0.5291396       112.1494
2016    7       7       0.4099854       93.24899
2016    8       0       0.3464543       81.21631
2016    8       1       0.3720511       85.91746
2016    8       2       0.3152084       75.65297
2016    8       3       0.2895655       70.62465
2016    8       4       0.2584653       64.3682
2016    8       5       0.197086        51.9527
2016    8       6       0.2356131       60.22805
2016    8       7       0.2930779       71.58556
2016    9       0       0.2598358       65.00525
2016    9       1       0.2826557       69.41257
2016    9       2       0.2536871       63.7857
2016    9       3       0.215802        56.00121
2016    9       4       0.2143697       55.33737
2016    9       5       0.2579593       63.88595
2016    9       6       0.259297        65.00484
2016    9       7       0.3388241       80.06574
2016    10      0       0.3891573       88.67734
2016    10      1       0.523765        109.9484
2016    10      2       0.5550494       114.7732
2016    10      3       0.4544821       100.0365
2016    10      4       0.4575033       100.7
2016    10      5       0.422301        95.1911
2016    10      6       0.449094        99.77566
2016    10      7       0.49485         107.1936
2016    11      0       0.4361259       97.50058
2016    11      1       0.5940032       120.9791
2016    11      2       0.5449064       113.1965
2016    11      3       0.544159        113.1678
2016    11      4       0.4853133       105.2931
2016    11      5       0.4435772       98.87122
2016    11      6       0.4688015       102.8502
2016    11      7       0.5675748       118.3351
2016    12      0       0.5896869       121.8546
2016    12      1       0.5908878       121.3734
2016    12      2       0.6341987       126.8226
2016    12      3       0.651293        130.1262
2016    12      4       0.6204436       126.0639
2016    12      5       0.5919215       121.8023
2016    12      6       0.6314571       127.3697
2016    12      7       0.686459        134.8235
2016    13      0       0.5565884       116.5919
2016    13      1       0.4554772       100.7808
2016    13      2       0.5134953       109.8025
2016    13      3       0.6418985       128.2369
2016    13      4       0.5818182       120.3965
2016    13      5       0.5502969       116.0408
2016    13      6       0.5997233       123.6608
2016    13      7       0.6925427       136.4466
2016    14      0       0.7808302       147.5583
2016    14      1       0.6483344       130.1775
2016    14      2       0.541254        114.5394
2016    14      3       0.4998348       108.54
2016    14      4       0.6207125       126.2114
2016    14      5       0.6185925       125.6456
2016    14      6       0.6536218       130.3835
2016    14      7       0.6510488       130.1917
2016    15      0       0.6417773       128.4455
2016    15      1       0.6059847       123.1318
2016    15      2       0.6077745       123.2691
2016    15      3       0.5524002       115.8576
2016    15      4       0.5321525       113.1776
2016    15      5       0.5079699       109.8128
2016    15      6       0.5446391       115.6236
2016    15      7       0.6576983       132.3473
2016    16      0       0.7211107       140.155
2016    16      1       0.6554868       130.577
2016    16      2       0.6884264       134.8588
2016    16      3       0.7654936       144.5841
2016    16      4       0.7288526       140.635
2016    16      5       0.7666447       146.8637
2016    16      6       0.6832446       135.8041
2016    16      7       0.5836077       121.5317
2016    17      0       0.5803804       120.6272
2016    17      1       0.7023218       137.5765
2016    17      2       0.7590907       143.9109
2016    17      3       0.7685101       145.9208
2016    17      4       0.7544451       145.3734
2016    17      5       0.8039823       151.0673
2016    17      6       0.8251701       153.5261
2016    17      7       0.6708163       134.6626
2016    18      0       0.6134569       126.5866
2016    18      1       0.6329493       128.841
2016    18      2       0.6174524       126.637
2016    18      3       0.610388        125.9814
2016    18      4       0.5691359       120.2011
2016    18      5       0.5863458       122.6877
2016    18      6       0.6226904       128.0011
2016    18      7       0.5745193       120.915
2016    19      0       0.5567604       118.2141
2016    19      1       0.6072749       125.7785
2016    19      2       0.6268562       128.7332
2016    19      3       0.6814306       136.6743
2016    19      4       0.8410565       155.9276
2016    19      5       0.6734583       134.9655
2016    19      6       0.5799725       122.2707
2016    19      7       0.6639639       134.4755
2016    20      0       0.5761168       121.7161
2016    20      1       0.5319951       114.7579
2016    20      2       0.5959914       124.1312
2016    20      3       0.616123        126.774
2016    20      4       0.6027357       124.8245
2016    20      5       0.5140926       112.0833
2016    20      6       0.6032196       125.0244
2016    20      7       0.7286281       141.6223
2016    21      0       0.8309597       153.9005
2016    21      1       0.7329583       141.997
2016    21      2       0.6938852       137.4829
2016    21      3       0.7173016       140.7145
2016    21      4       0.7370656       142.7714
2016    21      5       0.7283          141.4467
2016    21      6       0.7619962       145.9053
2016    21      7       0.8142266       153.0637
2016    22      0       0.6928601       137.7145
2016    22      1       0.6369477       129.7136
2016    22      2       0.7105104       139.612
2016    22      3       0.7279071       142.1664
2016    22      4       0.7374098       143.5948
2016    22      5       0.6980351       138.3562
2016    22      6       0.8755166       159.7553
2016    22      7       0.8118326       152.599
2016    23      0       0.7635263       146.5343
2016    23      1       0.6758382       134.7171
2016    23      2       0.6533756       131.759
2016    23      3       0.632049        129.4979
2016    23      4       0.6161113       127.177
2016    23      5       0.5542429       117.8547
2016    23      6       0.5312844       114.0697
2016    23      7       0.5702719       119.7211
2016    24      0       0.5951649       123.4766
2016    24      1       0.8092633       151.5267
2016    24      2       0.7677873       146.5573
2016    24      3       0.6994532       138.1782
2016    24      4       0.6595356       133.0448
2016    24      5       0.5747026       120.9533
2016    24      6       0.6939095       137.3304
2016    24      7       0.6615895       132.5587
2016    25      0       0.5707078       118.9908
2016    25      1       0.6309016       128.1708
2016    25      2       0.6502611       130.9557
2016    25      3       0.5469582       116.4078
2016    25      4       0.5108817       110.9632
2016    25      5       0.6012071       124.8144
2016    25      6       0.6227137       127.5068
2016    25      7       0.6931841       137.1636
2016    26      0       0.499327        108.476
2016    26      1       0.6180202       125.9096
2016    26      2       0.7199904       139.2898
2016    26      3       0.6888081       135.8486
2016    26      4       0.6586234       132.0208
2016    26      5       0.6655665       132.6833
2016    26      6       0.6919485       136.6403
2016    26      7       0.6086404       125.4083
2016    27      0       0.4524008       100.8601
2016    27      1       0.4754158       104.6252
2016    27      2       0.527514        112.8876
2016    27      3       0.615709        125.5425
2016    27      4       0.5500257       116.9166
2016    27      5       0.600214        124.5717
2016    27      6       0.6024781       124.7702
2016    27      7       0.6755339       135.0731
2016    28      0       0.7096508       139.6227
2016    28      1       0.6931595       137.4572
2016    28      2       0.6613287       132.9774
2016    28      3       0.6561287       132.5666
2016    28      4       0.685274        136.9567
2016    28      5       0.6234704       128.5145
2016    28      6       0.6421691       130.4009
2016    28      7       0.6226963       127.1597
2016    29      0       0.6117101       125.5381
2016    29      1       0.6375692       129.5977
2016    29      2       0.6437751       130.9604
2016    29      3       0.6590823       133.3064
2016    29      4       0.6227603       128.2081
2016    29      5       0.5103199       111.7547
2016    29      6       0.5713226       120.9856
2016    29      7       0.5805761       122.1384
2016    30      0       0.6972119       138.3478
2016    30      1       0.7627098       145.7582
2016    30      2       0.697394        137.8719
2016    30      3       0.6855679       137.0344
2016    30      4       0.5415489       116.33
2016    30      5       0.573079        121.1486
2016    30      6       0.7840482       148.6032
2016    30      7       0.7379038       143.1812
2017    1       0       0.2794562       69.09667
2017    1       1       0.2883669       70.73399
2017    1       2       0.2885721       71.09065
2017    1       3       0.3098248       75.34122
2017    1       4       0.2836152       70.37276
2017    1       5       0.3747046       87.75901
2017    1       6       0.3604521       85.45313
2017    1       7       0.2780457       69.33681
2017    2       0       0.2269178       58.62924
2017    2       1       0.2231631       57.64055
2017    2       2       0.2092366       54.79385
2017    2       3       0.1885506       50.39404
2017    2       4       0.2050974       53.49475
2017    2       5       0.298907        72.28229
2017    2       6       0.341865        80.33873
2017    2       7       0.4210873       93.56504
2017    3       0       0.3085781       73.22221
2017    3       1       0.2272056       57.23678
2017    3       2       0.219488        55.51891
2017    3       3       0.1903725       49.59893
2017    3       4       0.08838289      26.75556
2017    3       5       0.08763279      26.54441
2017    3       6       0.1115843       32.06241
2017    3       7       0.1743807       46.26205
2017    4       0       0.1211504       34.52363
2017    4       1       0.08001075      24.685
2017    4       2       0.1032003       30.12787
2017    4       3       0.13457         37.36636
2017    4       4       0.1556588       42.13004
2017    4       5       0.167093        44.69815
2017    4       6       0.1646672       43.81249
2017    4       7       0.1507423       40.73521
2017    5       0       0.1248021       35.26564
2017    5       1       0.1205917       34.41474
2017    5       2       0.1030414       30.50572
2017    5       3       0.09932994      29.62767
2017    5       4       0.09982861      29.63593
2017    5       5       0.1070193       31.19737
2017    5       6       0.1114364       32.15394
2017    5       7       0.1289539       36.01389
2017    6       0       0.1258774       35.46879
2017    6       1       0.12672         35.87442
2017    6       2       0.1690443       45.20359
2017    6       3       0.2405041       60.09077
2017    6       4       0.3783912       86.48703
2017    6       5       0.4763464       103.6154
2017    6       6       0.5069663       108.7466
2017    6       7       0.5213567       110.1559
2017    7       0       0.413978        93.81538
2017    7       1       0.4339049       97.11887
2017    7       2       0.4940601       106.2631
2017    7       3       0.5643576       117.4735
2017    7       4       0.6318868       127.2366
2017    7       5       0.6862413       134.699
2017    7       6       0.5295774       113.134
2017    7       7       0.4731439       104.5159
2017    8       0       0.4591333       101.7894
2017    8       1       0.5315733       113.0726
2017    8       2       0.5330144       112.8783
2017    8       3       0.4547656       101.1207
2017    8       4       0.5406451       114.6583
2017    8       5       0.5639191       118.2785
2017    8       6       0.6002558       123.8849
2017    8       7       0.471883        103.6421
2017    9       0       0.3699461       86.10394
2017    9       1       0.3456819       81.44608
2017    9       2       0.3263146       77.98044
2017    9       3       0.3519194       83.03354
2017    9       4       0.3863569       89.33912
2017    9       5       0.401199        92.25813
2017    9       6       0.4221848       95.84696
2017    9       7       0.3347855       80.03507
2017    10      0       0.2965548       72.47169
2017    10      1       0.2670029       66.45456
2017    10      2       0.255402        64.3765
2017    10      3       0.2565625       65.02468
2017    10      4       0.2952669       72.46541
2017    10      5       0.3893802       90.39639
2017    10      6       0.3718672       87.68347
2017    10      7       0.4695866       104.0333
2017    11      0       0.3276092       78.73916
2017    11      1       0.3646068       84.97043
2017    11      2       0.4049744       92.50931
2017    11      3       0.4247724       96.2969
2017    11      4       0.3942445       91.48467
2017    11      5       0.4716359       104.9624
2017    11      6       0.4943367       108.6251
2017    11      7       0.6159566       126.8425
2017    12      0       0.6766448       134.7725
2017    12      1       0.6455333       129.2279
2017    12      2       0.6175862       125.6349
2017    12      3       0.6805315       134.2471
2017    12      4       0.6851326       135.5659
2017    12      5       0.7756507       147.383
2017    12      6       0.689535        136.4253
2017    12      7       0.6464255       130.5152
2017    13      0       0.7320518       141.5238
2017    13      1       0.7122809       138.4942
2017    13      2       0.6886957       135.5352
2017    13      3       0.5992792       124.3631
2017    13      4       0.685658        136.5833
2017    13      5       0.7462608       144.2484
2017    13      6       0.5348456       114.8002
2017    13      7       0.3840102       90.13918
2017    14      0       0.350516        83.5996
2017    14      1       0.3255611       78.52041
2017    14      2       0.3171239       77.13299
2017    14      3       0.3029232       74.56958
2017    14      4       0.2673625       67.44117
2017    14      5       0.2813348       70.17907
2017    14      6       0.3692644       87.11184
2017    14      7       0.4082444       93.45208
2017    15      0       0.2972585       72.77717
2017    15      1       0.3687149       85.60292
2017    15      2       0.313349        75.93589
2017    15      3       0.3247161       78.50598
2017    15      4       0.3833922       89.24371
2017    15      5       0.5459912       115.9782
2017    15      6       0.5577389       117.3818
2017    15      7       0.6321412       127.6798
2017    16      0       0.5283414       112.377
2017    16      1       0.59619         122.0154
2017    16      2       0.6725164       131.5253
2017    16      3       0.6190199       124.7134
2017    16      4       0.6080624       124.0505
2017    16      5       0.6085714       124.5333
2017    16      6       0.553378        116.4038
2017    16      7       0.5266926       112.0156
2017    17      0       0.5309662       112.1668
2017    17      1       0.5433518       113.5432
2017    17      2       0.4601206       101.0031
2017    17      3       0.5377985       113.0613
2017    17      4       0.6005778       122.1513
2017    17      5       0.5870512       121.0532
2017    17      6       0.6936306       136.5516
2017    17      7       0.570037        118.5955
2017    18      0       0.404693        91.80039
2017    18      1       0.4644154       101.6421
2017    18      2       0.4010983       90.76681
2017    18      3       0.4759405       103.5201
2017    18      4       0.5630471       116.6102
2017    18      5       0.4094408       92.14532
2017    18      6       0.346169        81.30449
2017    18      7       0.3053566       74.01033
2017    19      0       0.2950604       71.89357
2017    19      1       0.3899392       88.76156
2017    19      2       0.3758376       86.5235
2017    19      3       0.3997429       91.14402
2017    19      4       0.4397176       98.08722
2017    19      5       0.5470881       115.3808
2017    19      6       0.6522044       131.0589
2017    19      7       0.6671159       132.8466
2017    20      0       0.6238199       126.7116
2017    20      1       0.5226182       112.0636
2017    20      2       0.5351621       114.1387
2017    20      3       0.5798866       121.2003
2017    20      4       0.6322727       128.4281
2017    20      5       0.5944497       123.5117
2017    20      6       0.7687792       146.7128
2017    20      7       0.8473335       156.0284
2017    21      0       0.7700406       146.7336
2017    21      1       0.71333         138.7699
2017    21      2       0.6882392       135.6133
2017    21      3       0.7053271       138.6902
2017    21      4       0.6959994       137.2746
2017    21      5       0.6935505       136.4674
2017    21      6       0.6704918       133.2
2017    21      7       0.6269037       127.6912
2017    22      0       0.5639731       118.7561
2017    22      1       0.4958656       107.6852
2017    22      2       0.5143359       110.7039
2017    22      3       0.6335351       128.4752
2017    22      4       0.671623        133.2691
2017    22      5       0.6783853       134.2552
2017    22      6       0.5628016       118.3187
2017    22      7       0.5138864       111.0214
2017    23      0       0.5145323       111.0604
2017    23      1       0.578661        119.7559
2017    23      2       0.6845378       133.6968
2017    23      3       0.6639006       131.6458
2017    23      4       0.52853         112.7747
2017    23      5       0.5147126       110.579
2017    23      6       0.5104226       109.5916
2017    23      7       0.4706186       103.3951
2017    24      0       0.5722696       119.3367
2017    24      1       0.6456095       128.2352
2017    24      2       0.6601217       129.962
2017    24      3       0.6771998       132.3951
2017    24      4       0.62676         126.4513
2017    24      5       0.4707838       102.8283
2017    24      6       0.3873223       88.92688
2017    24      7       0.3933499       89.73949
2017    25      0       0.4104111       92.10325
2017    25      1       0.4418017       97.72866
2017    25      2       0.5455415       114.2283
2017    25      3       0.5478019       114.808
2017    25      4       0.62575         126.07
2017    25      5       0.5586283       116.9972
2017    25      6       0.3915191       90.25971
2017    25      7       0.3491201       82.56967
2017    26      0       0.3114899       75.63811
2017    26      1       0.3359015       79.96375
2017    26      2       0.316309        76.54599
2017    26      3       0.3247802       78.39036
2017    26      4       0.2973659       73.31114
2017    26      5       0.2842493       70.50171
2017    26      6       0.310283        75.34649
2017    26      7       0.3359473       80.33169
2017    27      0       0.321726        77.92605
2017    27      1       0.3117348       76.15092
2017    27      2       0.4503276       100.2495
2017    27      3       0.5396982       114.6972
2017    27      4       0.4230355       96.4786
2017    27      5       0.4161526       95.50773
2017    27      6       0.481304        106.2455
2017    27      7       0.5954111       123.5247
2017    28      0       0.6426178       129.9868
2017    28      1       0.6221668       126.7802
2017    28      2       0.6088758       124.9662
2017    28      3       0.5511732       117.1562
2017    28      4       0.5082799       111.0122
2017    28      5       0.6284549       128.6782
2017    28      6       0.7114149       140.0178
2017    28      7       0.5986695       124.177
2017    29      0       0.6901071       137.1883
2017    29      1       0.7359118       143.3536
2017    29      2       0.6624533       133.8289
2017    29      3       0.6723324       135.9093
2017    29      4       0.6828954       137.2563
2017    29      5       0.6148427       128.0829
2017    29      6       0.765462        147.5617
2017    29      7       0.7388295       143.9832
2017    30      0       0.6913384       137.7873
2017    30      1       0.7762839       148.2184
2017    30      2       0.701164        139.2113
2017    30      3       0.6666541       135.3734
2017    30      4       0.7199315       142.3725
2017    30      5       0.7237676       142.7576
2017    30      6       0.7628418       147.3034
2017    30      7       0.7529674       146.1138
2018    1       0       0.3263923       76.84471
2018    1       1       0.3945111       88.64033
2018    1       2       0.4101285       91.59129
2018    1       3       0.4465537       98.12538
2018    1       4       0.4635583       101.3381
2018    1       5       0.4797161       104.2615
2018    1       6       0.5106788       109.394
2018    1       7       0.6065866       124.0813
2018    2       0       0.55711         117.0628
2018    2       1       0.565789        117.2291
2018    2       2       0.504358        107.8565
2018    2       3       0.460344        101.11
2018    2       4       0.3956053       90.83456
2018    2       5       0.4612879       101.9417
2018    2       6       0.5969346       122.139
2018    2       7       0.5723302       117.8189
2018    3       0       0.3951771       89.82776
2018    3       1       0.4387401       96.62093
2018    3       2       0.4814066       102.6032
2018    3       3       0.5098148       106.6014
2018    3       4       0.3872637       87.13536
2018    3       5       0.3096584       73.64932
2018    3       6       0.2805869       67.8526
2018    3       7       0.2732411       66.03568
2018    4       0       0.2428491       59.9438
2018    4       1       0.233968        58.25032
2018    4       2       0.2588433       63.34264
2018    4       3       0.2785775       67.41509
2018    4       4       0.2071422       53.37968
2018    4       5       0.1475063       40.47235
2018    4       6       0.1174783       33.72465
2018    4       7       0.09552834      28.61456
2018    5       0       0.07706432      24.09685
2018    5       1       0.07005483      22.4482
2018    5       2       0.07692584      24.31699
2018    5       3       0.09638565      29.07417
2018    5       4       0.1056566       31.20913
2018    5       5       0.1053453       31.0855
2018    5       6       0.1271641       36.18221
2018    5       7       0.2154677       55.83579
2018    6       0       0.2300375       58.70921
2018    6       1       0.3342119       78.04018
2018    6       2       0.3762066       85.76945
2018    6       3       0.4009677       90.45943
2018    6       4       0.4352283       97.06798
2018    6       5       0.4805491       104.5099
2018    6       6       0.5441977       114.457
2018    6       7       0.5271542       112.1631
2018    7       0       0.3857403       88.81079
2018    7       1       0.4242182       94.92819
2018    7       2       0.3429106       80.45035
2018    7       3       0.2634885       65.20833
2018    7       4       0.1511097       41.48375
2018    7       5       0.1288069       35.9923
2018    7       6       0.1391343       38.04392
2018    7       7       0.1433762       38.90882
2018    8       0       0.1302344       35.94012
2018    8       1       0.1109579       31.88553
2018    8       2       0.1256119       35.67281
2018    8       3       0.1895979       49.79499
2018    8       4       0.2678418       65.72069
2018    8       5       0.3330583       78.26349
2018    8       6       0.526603        111.4649
2018    8       7       0.5097965       108.2644
2018    9       0       0.5083915       108.7647
2018    9       1       0.3791191       88.07461
2018    9       2       0.4611459       101.3762
2018    9       3       0.442724        98.76194
2018    9       4       0.5162027       110.3003
2018    9       5       0.4129336       94.20848
2018    9       6       0.3705824       86.81788
2018    9       7       0.4265976       96.55468
2018    10      0       0.456865        101.6814
2018    10      1       0.5974559       122.7231
2018    10      2       0.6107694       124.259
2018    10      3       0.6063751       124.378
2018    10      4       0.5740939       119.811
2018    10      5       0.6701931       133.7064
2018    10      6       0.7236735       140.2988
2018    10      7       0.6885501       136.1041
2018    11      0       0.4748453       104.8572
2018    11      1       0.5259438       112.2891
2018    11      2       0.5629379       117.8669
2018    11      3       0.5395911       115.0325
2018    11      4       0.6610393       132.2862
2018    11      5       0.6863445       135.6052
2018    11      6       0.6508266       130.5479
2018    11      7       0.52877         113.3327
2018    12      0       0.6987542       137.426
2018    12      1       0.6175504       125.6418
2018    12      2       0.5756193       119.8299
2018    12      3       0.5797021       120.6458
2018    12      4       0.5586408       117.7764
2018    12      5       0.5839789       122.2116
2018    12      6       0.7368176       142.5322
2018    12      7       0.6477043       130.2454
2018    13      0       0.4733844       104.4936
2018    13      1       0.5756399       119.6046
2018    13      2       0.6108529       125.0944
2018    13      3       0.5673977       119.7515
2018    13      4       0.5382527       115.9222
2018    13      5       0.4987445       109.6995
2018    13      6       0.4001983       92.9156
2018    13      7       0.42601         97.11175
2018    14      0       0.5624709       118.3085
2018    14      1       0.504838        109.37
2018    14      2       0.528576        112.8361
2018    14      3       0.5640645       118.5921
2018    14      4       0.5552748       117.2911
2018    14      5       0.6752543       133.9407
2018    14      6       0.6640455       131.6151
2018    14      7       0.5818472       119.6927
2018    15      0       0.576673        118.6349
2018    15      1       0.4605368       101.7573
2018    15      2       0.5898618       121.3788
2018    15      3       0.704569        137.3747
2018    15      4       0.7553737       144.3383
2018    15      5       0.7281775       140.6726
2018    15      6       0.7457409       142.7823
2018    15      7       0.6949029       136.4314
2018    16      0       0.6962019       136.9384
2018    16      1       0.6082328       125.3748
2018    16      2       0.605423        124.9537
2018    16      3       0.6233491       127.5412
2018    16      4       0.6952859       137.927
2018    16      5       0.7835759       148.157
2018    16      6       0.7416372       142.511
2018    16      7       0.6471399       130.6284
2018    17      0       0.527892        113.7275
2018    17      1       0.5390284       115.6277
2018    17      2       0.5783272       121.4087
2018    17      3       0.617983        127.3208
2018    17      4       0.6591594       133.5853
2018    17      5       0.6630048       134.1947
2018    17      6       0.8008876       150.5334
2018    17      7       0.5938532       123.5967
2018    18      0       0.5215426       112.8868
2018    18      1       0.575737        120.9993
2018    18      2       0.6173906       126.9549
2018    18      3       0.5177881       112.7153
2018    18      4       0.4723818       105.5876
2018    18      5       0.4651007       104.671
2018    18      6       0.4725143       105.8369
2018    18      7       0.4564742       102.8246
2018    19      0       0.4266757       97.4412
2018    19      1       0.4189866       96.05878
2018    19      2       0.4813125       106.6444
2018    19      3       0.4189931       96.78913
2018    19      4       0.3849825       90.5469
2018    19      5       0.3655261       87.24573
2018    19      6       0.3759212       89.19715
2018    19      7       0.3476273       83.52336
2018    20      0       0.3616121       85.77656
2018    20      1       0.3327432       80.43224
2018    20      2       0.3572688       84.96112
2018    20      3       0.4693081       104.4462
2018    20      4       0.5530864       117.9441
2018    20      5       0.5006514       110.2807
2018    20      6       0.5170935       112.7424
2018    20      7       0.4532698       101.9878
2018    21      0       0.4172695       95.50051
2018    21      1       0.4201994       96.02357
2018    21      2       0.5496047       116.9384
2018    21      3       0.5971426       124.2095
2018    21      4       0.5678353       120.3041
2018    21      5       0.5170351       113.0815
2018    21      6       0.5184939       113.1142
2018    21      7       0.4986427       109.4407
2018    22      0       0.5278357       113.7491
2018    22      1       0.7453431       143.3383
2018    22      2       0.804058        150.6787
2018    22      3       0.7230577       141.3898
2018    22      4       0.7171582       140.4572
2018    22      5       0.5651637       120.4409
2018    22      6       0.5721866       121.4275
2018    22      7       0.5657748       120.1141
2018    23      0       0.482118        106.6604
2018    23      1       0.4329094       98.5383
2018    23      2       0.4463197       100.9486
2018    23      3       0.5002454       109.5515
2018    23      4       0.5589535       118.9431
2018    23      5       0.5651339       120.2876
2018    23      6       0.6520558       132.3738
2018    23      7       0.7558484       145.5812
2018    24      0       0.5655006       119.7823
2018    24      1       0.5446477       116.3973
2018    24      2       0.5996114       124.5369
2018    24      3       0.5937464       124.391
2018    24      4       0.5615183       119.6713
2018    24      5       0.5035231       110.901
2018    24      6       0.5047758       110.7489
2018    24      7       0.5558344       118.2034
2018    25      0       0.4517853       101.8472
2018    25      1       0.4368578       99.10274
2018    25      2       0.6154586       125.6644
2018    25      3       0.6452396       129.9751
2018    25      4       0.5888702       122.4412
2018    25      5       0.5187949       112.6316
2018    25      6       0.6170278       127.2414
2018    25      7       0.8174034       153.2269
2018    26      0       0.7364801       143.149
2018    26      1       0.74225         142.9337
2018    26      2       0.7052886       138.2622
2018    26      3       0.6446598       131.0465
2018    26      4       0.6656445       133.8831
2018    26      5       0.7176503       140.8801
2018    26      6       0.8068166       151.133
2018    26      7       0.7082028       138.111
2018    27      0       0.6421586       129.1353
2018    27      1       0.644018        129.4505
2018    27      2       0.6119516       126.1422
2018    27      3       0.6655391       133.6178
2018    27      4       0.7005868       138.4733
2018    27      5       0.6523302       132.1877
2018    27      6       0.5759733       121.8392
2018    27      7       0.6448628       131.6331
2018    28      0       0.6043194       125.779
2018    28      1       0.6136182       127.1496
2018    28      2       0.5770443       122.1769
2018    28      3       0.6169153       128.1473
2018    28      4       0.7037069       139.8083
2018    28      5       0.724491        142.4321
2018    28      6       0.7857389       150.1867
2018    28      7       0.8164597       153.7997
2018    29      0       0.8711633       159.9874
2018    29      1       0.8879156       161.004
2018    29      2       0.7301433       142.5932
2018    29      3       0.7688643       147.4348
2018    29      4       0.7257723       142.1923
2018    29      5       0.6897629       137.6678
2018    29      6       0.6558995       132.8431
2018    29      7       0.5351153       115.1726
2018    30      0       0.5183433       112.2646
2018    30      1       0.5644058       119.3826
2018    30      2       0.6113312       126.8602
2018    30      3       0.6353166       130.8691
2018    30      4       0.6544355       133.4199
2018    30      5       0.6849589       137.8092
2018    30      6       0.8223755       154.6064
2018    30      7       0.7116904       140.7587
