####################################################################################################
# Month: 07Jul                                                                                     #
# Station: LOS                                                                                     #
# Frequency: 345 GHz                                                                               #
# Columns are: year    day     tau     Tb (K)                                                      #
####################################################################################################
2009    1       2.154575        243.708275
2009    2       2.02434488      238.035975
2009    3       2.46682987      245.5888375
2009    4       2.47942975      250.0843875
2009    5       2.50339225      251.7992125
2009    6       1.51096575      213.9192625
2009    7       1.09906272      173.6609875
2009    8       0.90041561      166.7906375
2009    9       1.23398505      191.000575
2009    10      2.5003          254.7386625
2009    11      1.78607562      231.0400625
2009    12      1.06762751      182.11625
2009    13      1.32223487      203.4612375
2009    14      2.177504        245.3428875
2009    15      1.58133162      219.382625
2009    16      1.61047338      220.4499375
2009    17      1.3556295       204.0661875
2009    18      1.64000462      217.890325
2009    19      1.64060475      219.12365
2009    20      1.89138725      233.6518125
2009    21      2.62915162      255.4075625
2009    22      2.07921075      238.2907125
2009    23      1.82385238      230.9814
2009    24      2.0108665       237.3490375
2009    25      2.58242712      254.5322
2009    26      2.85527125      259.1154625
2009    27      2.13469238      242.0737125
2009    28      2.24333775      246.22265
2009    29      2.05878525      239.3983375
2009    30      2.0560045       238.7531625
2009    31      1.71772345      217.6832125
2010    1       1.56512338      211.5219125
2010    2       2.03012475      237.998625
2010    3       2.38646525      248.730325
2010    4       1.07159715      164.5777025
2010    5       0.53822845      112.1943825
2010    6       0.77365976      143.8557875
2010    7       1.66306025      220.9465375
2010    8       2.45303262      248.185775
2010    9       2.2638195       245.3681
2010    10      2.33426738      247.95425
2010    11      2.55246388      254.2039625
2010    12      1.71095325      217.8387375
2010    13      1.54632312      218.3827625
2010    14      2.29302988      247.9543875
2010    15      2.3756315       247.8818875
2010    16      2.05297025      239.160525
2010    17      2.060815        239.35745
2010    18      2.27050625      246.1457125
2010    19      1.7812435       229.733425
2010    20      2.02852638      240.4784875
2010    21      2.55532475      250.6504625
2010    22      2.324111        247.0955625
2010    23      2.12999025      238.1974375
2010    24      2.7119825       254.4113875
2010    25      2.996277        260.4550875
2010    26      2.74280238      256.116925
2010    27      2.0453835       238.4493125
2010    28      2.65265325      254.2525625
2010    29      2.94737825      258.9724375
2010    30      3.04001188      263.0254875
2010    31      3.01982438      261.0038875
2011    1       1.12706395      169.34428625
2011    2       1.32930956      193.627225
2011    3       2.01740025      237.5962
2011    4       1.51027325      212.8533875
2011    5       1.33962076      201.783825
2011    6       1.66036238      223.8637
2011    7       2.23236037      247.216825
2011    8       2.122291        241.922175
2011    9       1.84434238      234.0841125
2011    10      2.46434         252.687025
2011    11      2.60179888      254.6923625
2011    12      2.7175125       257.390025
2011    13      2.48724512      254.026325
2011    14      2.5865345       255.1582375
2011    15      2.16366562      244.6570375
2011    16      2.16044425      245.997025
2011    17      2.25886888      249.34275
2011    18      2.50355588      253.7762
2011    19      2.4182          252.199225
2011    20      2.44462212      254.141875
2011    21      3.09838762      265.600125
2011    22      2.96329388      262.7354875
2011    23      2.49461075      251.6401
2011    24      2.88341212      261.3969375
2011    25      3.158807        264.97735
2011    26      2.76785125      260.9513625
2011    27      3.02326325      265.3871875
2011    28      2.893659        262.7747875
2011    29      3.2580455       266.9757125
2011    30      3.314568        266.832225
2011    31      3.09035125      264.8366125
2012    1       1.823148        234.1180125
2012    2       2.5770625       257.1510375
2012    3       2.65512262      257.838475
2012    4       2.65462038      257.7487625
2012    5       2.55233875      250.7827375
2012    6       2.75074162      257.5437375
2012    7       2.79411575      255.959975
2012    8       2.54324375      251.4527875
2012    9       2.83777375      258.06165
2012    10      2.53199175      249.0281375
2012    11      1.69044754      218.3206375
2012    12      2.00380575      231.1698375
2012    13      2.38897125      247.9896
2012    14      2.351285        247.163025
2012    15      1.83951312      229.6938625
2012    16      1.77710025      227.7558125
2012    17      1.76787225      226.1445375
2012    18      2.05019638      237.2723875
2012    19      2.08519712      239.9739125
2012    20      1.27605496      194.7220375
2012    21      1.65937288      219.732425
2012    22      2.152124        242.619425
2012    23      2.06571175      239.466575
2012    24      2.62615238      253.0615
2012    25      2.52072037      253.8334625
2012    26      2.74438338      258.812175
2012    27      2.63989387      253.3489625
2012    28      2.11413862      240.823725
2012    29      1.7301995       224.518575
2012    30      1.38568712      207.6902
2012    31      1.96598712      238.29805
2013    1       2.40851775      248.644675
2013    2       2.15634025      241.9851125
2013    3       2.07732037      238.6520625
2013    4       2.00425462      237.74455
2013    5       2.507587        253.85025
2013    6       2.7917235       260.129425
2013    7       2.75180788      260.2836
2013    8       2.52564688      254.319575
2013    9       2.82328525      260.70885
2013    10      3.25269175      266.39795
2013    11      2.68384362      258.047225
2013    12      2.48144838      252.8368375
2013    13      2.73729963      258.003075
2013    14      2.71097112      257.2777625
2013    15      2.79849012      255.927575
2013    16      1.63663388      217.3397875
2013    17      1.91682875      229.4419125
2013    18      2.18341275      242.5403875
2013    19      2.5612005       251.7483875
2013    20      2.51235012      251.265475
2013    21      2.5749945       253.6605375
2013    22      2.3487425       248.567125
2013    23      2.33905112      247.1245125
2013    24      1.95206862      226.4894875
2013    25      2.12116562      239.3567625
2013    26      2.6679435       255.673275
2013    27      2.98885775      259.980025
2013    28      2.57460412      251.942775
2013    29      1.798654        225.4054125
2013    30      1.27092209      197.7400625
2013    31      1.344274        202.6758375
2014    1       1.51684362      214.4336875
2014    2       1.36043118      202.6423875
2014    3       1.80908088      228.4513125
2014    4       2.14277388      238.7536875
2014    5       2.72285325      255.1121
2014    6       1.7826015       222.9921125
2014    7       1.79009638      227.1738875
2014    8       2.05580875      238.6959625
2014    9       1.90935275      230.6137125
2014    10      2.31799538      245.4185125
2014    11      2.66347488      255.49105
2014    12      1.89195731      220.649175
2014    13      2.30408113      245.360725
2014    14      2.55002025      253.09025
2014    15      2.50634563      251.97755
2014    16      2.1529545       242.34285
2014    17      1.69614662      221.1638375
2014    18      1.6310585       217.9677875
2014    19      2.146083        244.5792125
2014    20      2.11257375      243.0918875
2014    21      2.7138635       259.6655
2014    22      2.18837812      245.1808
2014    23      1.84403725      223.737875
2014    24      1.60283875      217.96695
2014    25      2.06874525      241.468925
2014    26      1.908063        236.1217875
2014    27      2.67504313      255.1105
2014    28      2.42516363      246.384025
2014    29      2.80393238      257.8083875
2014    30      2.26434588      245.2707625
2014    31      2.50643938      252.47265
2015    1       2.45793937      253.6506
2015    2       2.820918        259.680825
2015    3       2.694062        256.1926625
2015    4       2.71201238      257.1255375
2015    5       2.640194        252.2703375
2015    6       2.59976588      253.1474625
2015    7       2.417916        244.6246125
2015    8       1.600082        215.9333875
2015    9       1.45296738      208.1064625
2015    10      1.67844538      219.340375
2015    11      1.76004388      224.5501875
2015    12      1.853171        232.0014125
2015    13      1.65851212      220.5592375
2015    14      2.22115338      243.4982625
2015    15      2.26832175      244.6315375
2015    16      1.89486175      232.8340625
2015    17      1.87695088      232.0673875
2015    18      2.47576588      248.7043
2015    19      2.38319912      247.4207125
2015    20      2.85632063      258.16625
2015    21      2.22733609      227.83575
2015    22      1.00369036      175.3045125
2015    23      1.55352812      211.6731875
2015    24      2.41374         251.30345
2015    25      2.15386637      245.1640125
2015    26      2.12480638      242.7309875
2015    27      2.55722688      252.9144125
2015    28      2.18317375      243.9829875
2015    29      2.82550888      257.077675
2015    30      3.13613088      262.57965
2015    31      3.32541825      264.8984125
2016    1       2.4716265       249.0492375
2016    2       2.535805        249.994675
2016    3       1.4911063       209.1715375
2016    4       0.89739542      163.88455
2016    5       1.27544771      196.19125
2016    6       1.30254188      200.3453
2016    7       1.08839641      184.1034875
2016    8       1.1436294       188.3570375
2016    9       1.13506659      188.9230875
2016    10      1.34079289      200.99165
2016    11      1.12204406      183.7539
2016    12      0.77273994      150.7735375
2016    13      0.64357131      132.9106125
2016    14      0.71493336      143.33525
2016    15      1.25778145      198.3095875
2016    16      1.30218362      201.9634
2016    17      1.57944688      216.5196875
2016    18      2.16089         241.929
2016    19      2.21399525      243.0479375
2016    20      2.35525212      246.0692875
2016    21      1.85369512      232.022725
2016    22      1.99265675      238.3425125
2016    23      2.20010775      244.7450625
2016    24      2.53868213      253.4413125
2016    25      2.64919525      255.3607875
2016    26      2.8739805       257.5064
2016    27      2.29973412      246.07925
2016    28      1.9256015       236.3222125
2016    29      2.1742575       243.4786375
2016    30      2.11139988      243.069425
2016    31      2.34893038      248.3535125
2017    1       1.203183        192.59875
2017    2       1.28492279      196.99585
2017    3       1.40224763      203.9926625
2017    4       1.39779275      205.4508
2017    5       1.61819688      218.866525
2017    6       1.74520712      227.2718625
2017    7       1.94177363      232.0263875
2017    8       2.157777        242.5376
2017    9       2.18637838      242.5709125
2017    10      1.75819738      224.2913875
2017    11      1.8563545       229.5995875
2017    12      1.76212526      221.7003375
2017    13      2.27318825      242.7224
2017    14      2.75878575      257.2098375
2017    15      2.30316112      247.1002625
2017    16      2.65570138      255.7634125
2017    17      2.526507        252.64665
2017    18      2.54070588      251.340425
2017    19      2.37539964      234.30045
2017    20      1.55748033      215.3918
2017    21      1.80196225      231.0714625
2017    22      2.57524812      257.0088125
2017    23      3.1599755       263.7970375
2017    24      2.97696188      260.1461875
2017    25      3.0963075       264.036075
2017    26      3.1881545       266.751175
2017    27      3.244228        267.610725
2017    28      3.00671338      261.685525
2017    29      2.2733505       243.6071875
2017    30      2.32211412      244.8331125
2017    31      2.91991637      258.227525
2018    1       0.95951102      169.6964375
2018    2       1.19087948      189.0008875
2018    3       1.45924987      210.3744625
2018    4       1.71910588      225.2961
2018    5       2.51542812      251.4758
2018    6       2.22899988      243.0424625
2018    7       1.800301        226.1495375
2018    8       2.100957        239.80265
2018    9       2.08741262      239.205525
2018    10      1.30813909      194.0205375
2018    11      2.383785        248.260425
2018    12      2.242369        241.591625
2018    13      2.77973662      257.177925
2018    14      2.0824785       234.2428875
2018    15      2.33615587      242.9961125
2018    16      2.53705138      248.7602
2018    17      3.44983588      266.9681625
2018    18      2.46829275      251.265625
2018    19      2.5733825       255.94265
2018    20      2.56663662      254.4103625
2018    21      2.89288688      261.8592
2018    22      1.56012882      216.9775
2018    23      2.27118488      249.105775
2018    24      2.75385238      259.5911375
2018    25      2.79925825      260.9346625
2018    26      2.7467175       256.869375
2018    27      2.8641145       258.2527875
2018    28      2.19981575      241.233425
2018    29      1.9869455       237.9868875
2018    30      2.0569035       239.5077875
2018    31      2.15984812      245.225
