####################################################################################################
# Month: 07Jul                                                                                     #
# Station: LOS                                                                                     #
# Frequency: 345 GHz                                                                               #
# Columns are: year    day     segment         tau     Tb (K)                                      #
####################################################################################################
2009    1       0       2.452241        253.7821
2009    1       1       2.506045        254.3928
2009    1       2       2.383853        251.2409
2009    1       3       2.092958        242.726
2009    1       4       1.817896        232.2064
2009    1       5       1.745987        228.7552
2009    1       6       1.990631        238.8804
2009    1       7       2.246989        247.6824
2009    2       0       2.403268        252.1252
2009    2       1       2.362979        250.4217
2009    2       2       2.116273        242.198
2009    2       3       1.913188        234.0087
2009    2       4       1.934473        234.6222
2009    2       5       1.82643         230.1991
2009    2       6       1.84831         231.417
2009    2       7       1.789838        229.2959
2009    3       0       1.629485        221.2957
2009    3       1       1.411241        208.0137
2009    3       2       1.796694        230.0035
2009    3       3       2.745351        258.3491
2009    3       4       3.090864        262.6119
2009    3       5       3.079265        262.3499
2009    3       6       3.083271        262.0432
2009    3       7       2.898468        260.0437
2009    4       0       2.531498        253.357
2009    4       1       2.091331        241.4898
2009    4       2       1.987605        237.6081
2009    4       3       2.215249        244.9352
2009    4       4       2.448435        250.4363
2009    4       5       2.359684        248.0844
2009    4       6       2.967436        260.4153
2009    4       7       3.2342          264.349
2009    5       0       2.85744         259.8113
2009    5       1       2.727631        257.6533
2009    5       2       2.845918        259.0141
2009    5       3       2.53749         252.8306
2009    5       4       2.224437        244.9358
2009    5       5       2.064733        239.9536
2009    5       6       2.430313        250.9461
2009    5       7       2.339176        249.2489
2009    6       0       1.875832        234.6952
2009    6       1       1.655161        223.9059
2009    6       2       1.46736         213.2107
2009    6       3       1.262462        199.4279
2009    6       4       1.175889        192.5171
2009    6       5       1.173071        192.3445
2009    6       6       1.573679        219.9534
2009    6       7       1.904272        235.2994
2009    7       0       1.967235        238.174
2009    7       1       2.021835        239.6735
2009    7       2       1.146798        188.4131
2009    7       3       0.6751502       137.4601
2009    7       4       0.6236929       130.3424
2009    7       5       0.6458349       133.6382
2009    7       6       0.8000102       154.0655
2009    7       7       0.9119456       167.5211
2009    8       0       0.9075792       167.1955
2009    8       1       0.8188498       157.094
2009    8       2       0.8333154       159.1497
2009    8       3       0.9517254       172.6017
2009    8       4       0.9934857       177.1685
2009    8       5       0.765623        151.5147
2009    8       6       0.9683972       174.5981
2009    8       7       0.9643492       175.0029
2009    9       0       0.8516401       163.0322
2009    9       1       0.7126384       145.4622
2009    9       2       0.8579349       162.8077
2009    9       3       1.14448         190.4755
2009    9       4       1.18124         192.0123
2009    9       5       1.415772        208.3423
2009    9       6       1.802782        229.8042
2009    9       7       1.905393        236.0682
2009    10      0       2.294737        249.9085
2009    10      1       2.566706        256.7026
2009    10      2       2.710458        259.1263
2009    10      3       2.719093        258.8671
2009    10      4       2.393967        252.2734
2009    10      5       2.275264        249.2233
2009    10      6       2.394111        252.7178
2009    10      7       2.648064        259.0903
2009    11      0       2.384413        253.764
2009    11      1       1.993789        241.987
2009    11      2       1.765434        232.0621
2009    11      3       1.842075        234.7262
2009    11      4       1.742418        229.9057
2009    11      5       1.449299        214.1348
2009    11      6       1.501794        217.7699
2009    11      7       1.609383        223.9708
2009    12      0       1.536139        219.9241
2009    12      1       1.190625        195.4056
2009    12      2       0.9257076       170.3391
2009    12      3       0.837657        160.4085
2009    12      4       0.8370863       160.1044
2009    12      5       0.8863122       165.4348
2009    12      6       1.137885        190.3779
2009    12      7       1.189608        194.9356
2009    13      0       1.320031        204.5012
2009    13      1       1.300891        202.8305
2009    13      2       1.236801        197.8465
2009    13      3       1.248443        198.6598
2009    13      4       1.171358        192.1764
2009    13      5       1.187393        193.2383
2009    13      6       1.428205        211.5562
2009    13      7       1.684757        226.881
2009    14      0       1.898674        237.1566
2009    14      1       2.130261        245.6196
2009    14      2       2.2973          250.7889
2009    14      3       2.453071        254.5346
2009    14      4       2.278632        248.5914
2009    14      5       2.194807        244.4476
2009    14      6       2.269837        246.3967
2009    14      7       1.89745         235.2077
2009    15      0       1.609438        221.8501
2009    15      1       1.385591        207.8403
2009    15      2       1.452607        212.0167
2009    15      3       1.54702         217.7372
2009    15      4       1.537161        217.3184
2009    15      5       1.551835        218.5341
2009    15      6       1.676433        225.0947
2009    15      7       1.890568        234.6695
2009    16      0       1.774338        229.9043
2009    16      1       1.659293        224.005
2009    16      2       1.631174        222.17
2009    16      3       1.514022        214.6365
2009    16      4       1.583894        218.0144
2009    16      5       1.520432        214.5065
2009    16      6       1.589835        219.6751
2009    16      7       1.610799        220.6877
2009    17      0       1.413203        208.1859
2009    17      1       1.431737        209.4217
2009    17      2       1.200232        194.3784
2009    17      3       1.069184        182.4665
2009    17      4       1.171454        191.1208
2009    17      5       1.354587        205.1289
2009    17      6       1.514659        216.0261
2009    17      7       1.68998         225.8012
2009    18      0       2.225131        246.252
2009    18      1       2.20054         245.6236
2009    18      2       1.934312        236.6737
2009    18      3       1.713202        226.7405
2009    18      4       1.260409        199.4884
2009    18      5       1.040403        180.2046
2009    18      6       1.061318        182.7445
2009    18      7       1.684722        225.3953
2009    19      0       2.182878        243.8567
2009    19      1       1.939146        235.6333
2009    19      2       1.799007        230.4684
2009    19      3       1.645911        223.2424
2009    19      4       1.346887        204.9099
2009    19      5       0.9769          173.2785
2009    19      6       1.401693        209.1248
2009    19      7       1.832416        232.4752
2009    20      0       1.760283        228.6363
2009    20      1       1.454057        211.7486
2009    20      2       1.692911        225.2056
2009    20      3       1.995546        238.4813
2009    20      4       2.040285        240.0025
2009    20      5       1.950849        236.5925
2009    20      6       2.073569        242.2109
2009    20      7       2.163598        246.3368
2009    21      0       2.51618         254.9824
2009    21      1       2.375406        251.449
2009    21      2       2.874199        260.6939
2009    21      3       2.822776        259.4882
2009    21      4       2.341599        249.4207
2009    21      5       2.192476        245.2891
2009    21      6       2.77023         258.2791
2009    21      7       3.140347        263.6581
2009    22      0       2.608716        255.7777
2009    22      1       2.511233        252.7297
2009    22      2       2.516659        251.8907
2009    22      3       2.185645        243.1666
2009    22      4       1.816612        230.1045
2009    22      5       1.55338         217.8395
2009    22      6       1.689754        225.6382
2009    22      7       1.751687        229.1788
2009    23      0       1.693319        226.5573
2009    23      1       1.830523        233.3664
2009    23      2       1.879029        234.8167
2009    23      3       1.845001        232.5284
2009    23      4       1.629158        221.5943
2009    23      5       1.565031        217.4704
2009    23      6       1.971216        236.7738
2009    23      7       2.177542        244.7439
2009    24      0       2.395483        251.1011
2009    24      1       2.590803        254.8872
2009    24      2       2.192128        245.0827
2009    24      3       1.923417        235.4412
2009    24      4       1.923441        235.0516
2009    24      5       1.738105        227.3356
2009    24      6       1.59966         221.5341
2009    24      7       1.723895        228.3588
2009    25      0       2.032181        240.9119
2009    25      1       2.36224         250.6003
2009    25      2       2.475718        253.3926
2009    25      3       2.135212        243.9599
2009    25      4       2.429359        252.937
2009    25      5       3.021624        264.0485
2009    25      6       3.103427        264.8344
2009    25      7       3.099656        265.573
2009    26      0       3.159603        266.5805
2009    26      1       3.371498        268.1899
2009    26      2       3.295118        266.9612
2009    26      3       2.56871         256.0916
2009    26      4       2.314997        249.7057
2009    26      5       2.047128        240.8414
2009    26      6       2.687377        257.1805
2009    26      7       3.397739        267.3729
2009    27      0       2.904127        261.837
2009    27      1       2.438545        253.0544
2009    27      2       2.279908        248.5327
2009    27      3       2.170663        245.0627
2009    27      4       1.858721        233.67
2009    27      5       1.699337        226.4122
2009    27      6       1.746778        228.9076
2009    27      7       1.97946         239.1131
2009    28      0       2.306413        249.4761
2009    28      1       2.806984        259.3358
2009    28      2       2.228847        246.8071
2009    28      3       2.135724        243.7496
2009    28      4       2.27164         247.5686
2009    28      5       1.754072        229.3224
2009    28      6       2.050227        241.4603
2009    28      7       2.392795        252.0613
2009    29      0       2.211059        246.922
2009    29      1       1.965865        238.5484
2009    29      2       2.610683        255.6114
2009    29      3       1.880437        233.9232
2009    29      4       1.535709        216.8329
2009    29      5       1.920222        235.4974
2009    29      6       2.192388        244.2056
2009    29      7       2.153919        243.6458
2009    30      0       2.057859        241.1562
2009    30      1       1.985444        238.0647
2009    30      2       2.328739        247.5223
2009    30      3       1.98334         236.2597
2009    30      4       2.004783        236.495
2009    30      5       1.814428        228.7522
2009    30      6       1.886011        232.6117
2009    30      7       2.387432        249.1635
2009    31      0       2.373456        248.3189
2009    31      1       1.354983        202.8175
2009    31      2       0.9014116       164.0467
2009    31      3       1.138326        187.003
2009    31      4       1.558194        216.5436
2009    31      5       1.81015         229.4456
2009    31      6       2.090312        240.3588
2009    31      7       2.514955        252.9316
2010    1       0       1.232405        194.5469
2010    1       1       1.238784        195.5741
2010    1       2       1.174597        190.6697
2010    1       3       1.281376        198.3097
2010    1       4       1.314007        200.9474
2010    1       5       1.506954        214.28
2010    1       6       2.223285        244.5206
2010    1       7       2.549579        253.3269
2010    2       0       2.370985        249.5176
2010    2       1       2.034154        239.6048
2010    2       2       1.812258        230.6182
2010    2       3       1.77336         228.2882
2010    2       4       1.821402        230.1661
2010    2       5       1.848499        230.7787
2010    2       6       2.247811        246.1086
2010    2       7       2.332529        248.9068
2010    3       0       2.574635        254.7412
2010    3       1       2.444926        252.0421
2010    3       2       2.791474        259.4034
2010    3       3       2.562637        254.8664
2010    3       4       2.656739        256.2411
2010    3       5       2.262448        245.7291
2010    3       6       2.09258         240.6795
2010    3       7       1.706283        226.1398
2010    4       0       2.024506        239.189
2010    4       1       2.096961        240.832
2010    4       2       1.328786        202.3929
2010    4       3       1.032907        177.9264
2010    4       4       0.7496812       147.3023
2010    4       5       0.411325        97.0555
2010    4       6       0.4164221       97.89342
2010    4       7       0.5121889       114.0301
2010    5       0       0.5392882       118.0696
2010    5       1       0.5531315       119.7262
2010    5       2       0.8129567       154.6407
2010    5       3       1.028964        177.2607
2010    5       4       0.2426853       63.84626
2010    5       5       0.1898386       52.16666
2010    5       6       0.3925982       92.99654
2010    5       7       0.5463651       118.8484
2010    6       0       0.6122172       128.7227
2010    6       1       0.6013947       127.1526
2010    6       2       0.6338035       131.7734
2010    6       3       0.6347517       131.9634
2010    6       4       0.5411886       117.9235
2010    6       5       0.5114274       112.8554
2010    6       6       1.080017        182.9557
2010    6       7       1.574478        217.4996
2010    7       0       1.792838        228.4353
2010    7       1       1.395263        206.9433
2010    7       2       1.529651        215.8145
2010    7       3       1.642134        221.282
2010    7       4       1.481174        212.2036
2010    7       5       1.560266        215.4257
2010    7       6       1.869453        230.3142
2010    7       7       2.033703        237.1537
2010    8       0       2.48799         250.6566
2010    8       1       2.631212        253.3887
2010    8       2       2.536887        250.6376
2010    8       3       2.470654        248.0014
2010    8       4       2.2458          242.4097
2010    8       5       1.998365        234.9996
2010    8       6       2.483585        249.6265
2010    8       7       2.769768        255.7661
2010    9       0       2.426137        249.6689
2010    9       1       2.107489        241.7396
2010    9       2       2.155763        243.1533
2010    9       3       2.363249        248.4455
2010    9       4       2.424577        249.5169
2010    9       5       2.076177        238.7571
2010    9       6       2.215347        243.5256
2010    9       7       2.341817        248.1379
2010    10      0       2.425875        251.11
2010    10      1       2.615779        255.4924
2010    10      2       2.529974        253.3884
2010    10      3       2.090819        241.4952
2010    10      4       1.858473        232.6686
2010    10      5       2.033528        239.4838
2010    10      6       2.451185        252.239
2010    10      7       2.668506        257.7566
2010    11      0       2.821888        260.6556
2010    11      1       2.754635        259.2102
2010    11      2       2.426418        252.4814
2010    11      3       2.219914        246.6671
2010    11      4       2.197824        245.2037
2010    11      5       2.480703        251.8311
2010    11      6       2.642549        256.0395
2010    11      7       2.87578         261.5431
2010    12      0       3.458366        268.95
2010    12      1       2.232256        248.2559
2010    12      2       1.450375        213.6591
2010    12      3       1.522741        217.6012
2010    12      4       1.410234        210.4482
2010    12      5       1.125738        187.8783
2010    12      6       1.109009        187.2081
2010    12      7       1.378907        208.7091
2010    13      0       1.501241        216.6804
2010    13      1       1.573845        220.681
2010    13      2       1.568384        220.7942
2010    13      3       1.522547        218.3642
2010    13      4       1.348617        206.8179
2010    13      5       1.280113        201.7272
2010    13      6       1.564072        220.5961
2010    13      7       2.011766        241.4011
2010    14      0       2.268078        249.4791
2010    14      1       2.152389        245.4018
2010    14      2       2.119331        244.3115
2010    14      3       2.038776        241.8357
2010    14      4       2.021315        240.3155
2010    14      5       2.171816        244.6228
2010    14      6       2.496492        253.4013
2010    14      7       3.076042        264.2674
2010    15      0       3.246196        266.2042
2010    15      1       2.649813        256.4931
2010    15      2       2.341114        249.1131
2010    15      3       2.372355        249.8212
2010    15      4       1.989431        237.3403
2010    15      5       1.853173        231.5857
2010    15      6       2.010985        238.0882
2010    15      7       2.541985        254.4093
2010    16      0       2.482145        253.4823
2010    16      1       2.362415        249.9027
2010    16      2       2.036377        239.5416
2010    16      3       2.025803        238.8342
2010    16      4       1.775938        228.7821
2010    16      5       1.66314         223.6
2010    16      6       1.863114        233.1496
2010    16      7       2.21483         245.9917
2010    17      0       2.831077        259.5404
2010    17      1       2.228222        246.2516
2010    17      2       1.817908        232.0829
2010    17      3       1.761652        229.2831
2010    17      4       1.773629        229.4524
2010    17      5       1.859762        232.858
2010    17      6       1.979757        238.1369
2010    17      7       2.234513        247.2543
2010    18      0       2.636098        257.1159
2010    18      1       2.971803        261.4846
2010    18      2       2.52169         253.5224
2010    18      3       2.203224        245.6528
2010    18      4       1.981453        238.5311
2010    18      5       1.776653        230.1352
2010    18      6       1.890991        235.8493
2010    18      7       2.182138        246.8744
2010    19      0       2.347487        251.7994
2010    19      1       2.083603        243.3203
2010    19      2       1.907169        237.2757
2010    19      3       1.604361        223.0399
2010    19      4       1.415481        211.3476
2010    19      5       1.404857        210.6504
2010    19      6       1.608197        223.6168
2010    19      7       1.878793        236.8173
2010    20      0       2.083125        244.2347
2010    20      1       2.121895        244.6245
2010    20      2       2.162529        245.8751
2010    20      3       2.203533        247.2924
2010    20      4       1.870112        235.0036
2010    20      5       1.587962        221.6323
2010    20      6       1.783385        231.8438
2010    20      7       2.41567         253.3215
2010    21      0       2.78819         260.0937
2010    21      1       2.331691        248.7598
2010    21      2       2.240926        247.3439
2010    21      3       3.334004        268.2897
2010    21      4       3.281026        265.9308
2010    21      5       1.734122        224.4136
2010    21      6       1.764116        228.2335
2010    21      7       2.968523        262.1387
2010    22      0       2.960556        262.2608
2010    22      1       2.594891        256.0156
2010    22      2       2.250593        247.4391
2010    22      3       2.285841        247.4604
2010    22      4       2.250928        245.6837
2010    22      5       1.849076        230.5545
2010    22      6       2.112135        240.6458
2010    22      7       2.288868        246.7046
2010    23      0       2.088835        241.0306
2010    23      1       1.753348        227.9925
2010    23      2       1.641117        222.2894
2010    23      3       1.60513         219.3905
2010    23      4       1.909986        233.4857
2010    23      5       2.131867        241.4439
2010    23      6       2.699966        255.8858
2010    23      7       3.209673        264.0611
2010    24      0       3.194652        264.0044
2010    24      1       2.599094        254.152
2010    24      2       2.531308        252.0016
2010    24      3       2.422319        248.4479
2010    24      4       2.193255        242.2097
2010    24      5       2.599638        252.4286
2010    24      6       3.108119        261.2509
2010    24      7       3.047475        260.796
2010    25      0       3.016246        260.4622
2010    25      1       2.592537        253.4784
2010    25      2       2.861533        258.9855
2010    25      3       2.959923        260.5213
2010    25      4       2.980425        260.5088
2010    25      5       2.949011        259.7994
2010    25      6       3.243048        264.1436
2010    25      7       3.367493        265.7415
2010    26      0       3.108662        263.0438
2010    26      1       2.868392        259.6376
2010    26      2       2.556034        253.6822
2010    26      3       2.385413        249.3638
2010    26      4       2.292397        246.6214
2010    26      5       2.452255        250.6731
2010    26      6       3.060087        261.9831
2010    26      7       3.219179        263.9304
2010    27      0       2.834588        259.9056
2010    27      1       2.271205        247.5272
2010    27      2       2.0716          241.4654
2010    27      3       1.741014        228.2135
2010    27      4       1.659517        224.2825
2010    27      5       1.646711        223.7872
2010    27      6       1.847009        233.1878
2010    27      7       2.291424        249.2253
2010    28      0       2.634239        257.4662
2010    28      1       3.164786        265.0847
2010    28      2       2.269872        248.7296
2010    28      3       1.87771         235.3612
2010    28      4       2.082188        242.3775
2010    28      5       2.403905        251.137
2010    28      6       3.096733        263.9126
2010    28      7       3.691793        269.9517
2010    29      0       3.835858        270.9054
2010    29      1       3.652825        269.4091
2010    29      2       3.040401        262.5579
2010    29      3       2.419746        250.8836
2010    29      4       2.128146        242.8533
2010    29      5       2.269822        247.1539
2010    29      6       2.98421         262.1039
2010    29      7       3.248018        265.9124
2010    30      0       3.304324        266.4644
2010    30      1       2.996513        262.8661
2010    30      2       2.852223        261.0477
2010    30      3       2.879629        261.6506
2010    30      4       2.760811        259.5768
2010    30      5       2.476412        253.8306
2010    30      6       3.314722        267.3138
2010    30      7       3.735461        271.4539
2010    31      0       3.963546        273.19
2010    31      1       3.89408         272.6999
2010    31      2       2.930301        263.0208
2010    31      3       2.358711        250.8004
2010    31      4       2.314571        249.0449
2010    31      5       2.441203        251.9372
2010    31      6       2.772143        258.9542
2010    31      7       3.48404         268.3837
2011    1       0       2.159913        245.1096
2011    1       1       2.073401        242.071
2011    1       2       1.678606        225.55
2011    1       3       0.9571316       172.3246
2011    1       4       0.5422087       118.902
2011    1       5       0.4200339       98.29399
2011    1       6       0.5462272       119.2208
2011    1       7       0.6389902       133.2823
2011    2       0       0.6563186       135.834
2011    2       1       0.5843304       125.6127
2011    2       2       0.9347195       170.3312
2011    2       3       1.717811        228.6079
2011    2       4       1.375593        208.5561
2011    2       5       1.25676         199.0926
2011    2       6       1.878422        234.0637
2011    2       7       2.230522        246.9196
2011    3       0       2.317768        250.1133
2011    3       1       2.229343        246.8982
2011    3       2       2.202982        245.2508
2011    3       3       2.326469        247.6686
2011    3       4       1.797283        230.3468
2011    3       5       1.32954         204.6608
2011    3       6       1.745554        229.3118
2011    3       7       2.190263        246.5193
2011    4       0       1.991372        239.8435
2011    4       1       1.863117        233.8391
2011    4       2       1.770465        230.1626
2011    4       3       1.536505        217.2927
2011    4       4       1.167631        191.0409
2011    4       5       1.007811        176.8752
2011    4       6       1.275706        200.3846
2011    4       7       1.469579        213.3885
2011    5       0       1.700485        225.9418
2011    5       1       1.704682        225.6769
2011    5       2       1.546596        217.1438
2011    5       3       1.406905        208.88
2011    5       4       1.19044         193.1322
2011    5       5       0.9526261       171.3004
2011    5       6       1.0586          181.7782
2011    5       7       1.156632        190.4173
2011    6       0       1.411184        209.5864
2011    6       1       1.718523        227.3067
2011    6       2       1.740429        228.1046
2011    6       3       1.628832        222.3058
2011    6       4       1.619223        221.5205
2011    6       5       1.599019        220.345
2011    6       6       1.705894        227.0096
2011    6       7       1.859795        234.731
2011    7       0       2.146206        245.6012
2011    7       1       2.398432        252.1006
2011    7       2       2.429091        252.5287
2011    7       3       2.26412         248.4771
2011    7       4       1.923798        237.7717
2011    7       5       1.779484        232.0293
2011    7       6       2.297406        250.6181
2011    7       7       2.620346        258.6079
2011    8       0       2.817084        262.217
2011    8       1       2.699471        259.0259
2011    8       2       2.375745        251.4451
2011    8       3       2.082948        242.551
2011    8       4       1.821067        232.8661
2011    8       5       1.678728        226.4743
2011    8       6       1.688541        227.3207
2011    8       7       1.814744        233.4773
2011    9       0       1.824433        233.7518
2011    9       1       1.872949        235.4214
2011    9       2       1.883153        235.979
2011    9       3       1.700399        227.6806
2011    9       4       1.690603        227.0655
2011    9       5       1.78455         231.1838
2011    9       6       1.936485        238.0878
2011    9       7       2.062167        243.503
2011    10      0       2.132063        246.0356
2011    10      1       2.76092         260.4317
2011    10      2       3.167466        264.3875
2011    10      3       2.425299        252.2887
2011    10      4       2.183704        246.1065
2011    10      5       2.125919        244.3028
2011    10      6       2.313291        250.2219
2011    10      7       2.606058        257.7215
2011    11      0       2.908855        263.0813
2011    11      1       2.776844        260.2757
2011    11      2       2.982493        262.7353
2011    11      3       2.596539        255.9565
2011    11      4       2.064357        241.1934
2011    11      5       2.094643        241.3638
2011    11      6       2.676957        255.9057
2011    11      7       2.713703        257.0272
2011    12      0       2.660986        256.3985
2011    12      1       2.690691        256.9059
2011    12      2       2.749562        257.6628
2011    12      3       2.79402         258.5642
2011    12      4       2.86047         259.7824
2011    12      5       2.54311         253.6952
2011    12      6       2.695595        257.3354
2011    12      7       2.745666        258.7758
2011    13      0       2.82054         260.3918
2011    13      1       2.547114        255.938
2011    13      2       2.493832        254.6339
2011    13      3       2.403321        252.3077
2011    13      4       2.260076        248.7233
2011    13      5       2.139032        244.9625
2011    13      6       2.379317        252.3681
2011    13      7       2.854729        262.8853
2011    14      0       2.909829        263.9388
2011    14      1       2.647447        259.1104
2011    14      2       2.285628        250.4192
2011    14      3       2.007484        241.4694
2011    14      4       2.150632        245.807
2011    14      5       2.350606        250.8587
2011    14      6       3.107895        263.8508
2011    14      7       3.232755        265.8116
2011    15      0       2.473297        253.5257
2011    15      1       2.143581        243.7863
2011    15      2       2.174931        244.8737
2011    15      3       2.109895        242.7717
2011    15      4       2.144834        244.0145
2011    15      5       2.042709        240.6674
2011    15      6       2.109595        243.4559
2011    15      7       2.110483        244.1611
2011    16      0       2.049539        242.1797
2011    16      1       2.082365        243.3255
2011    16      2       2.211402        247.9027
2011    16      3       2.228432        248.6909
2011    16      4       2.307375        250.5806
2011    16      5       2.412301        252.691
2011    16      6       1.966388        239.8011
2011    16      7       2.025752        242.8047
2011    17      0       2.307827        252.0558
2011    17      1       2.425416        254.7398
2011    17      2       2.304695        251.6669
2011    17      3       2.221779        248.9615
2011    17      4       1.965556        239.8359
2011    17      5       2.003673        240.5486
2011    17      6       2.281162        249.806
2011    17      7       2.560843        257.1275
2011    18      0       2.473164        255.0611
2011    18      1       2.23852         248.1634
2011    18      2       2.175516        246.1099
2011    18      3       2.189407        246.4446
2011    18      4       2.251032        248.1902
2011    18      5       2.540121        255.235
2011    18      6       3.026573        264.3298
2011    18      7       3.134114        266.6756
2011    19      0       3.000392        265.2683
2011    19      1       2.924392        263.3712
2011    19      2       2.492603        255.0055
2011    19      3       2.266284        249.0519
2011    19      4       2.115164        244.3149
2011    19      5       1.986107        239.982
2011    19      6       2.076879        244.1301
2011    19      7       2.483779        256.4699
2011    20      0       2.965045        265.3657
2011    20      1       2.738283        261.0633
2011    20      2       2.271468        250.8417
2011    20      3       2.155935        247.4945
2011    20      4       2.12736         245.9821
2011    20      5       2.146715        246.2377
2011    20      6       2.377835        253.5148
2011    20      7       2.774336        262.6352
2011    21      0       3.339153        270.4313
2011    21      1       3.563455        271.6908
2011    21      2       3.565369        270.7324
2011    21      3       2.765805        261.1712
2011    21      4       2.493079        256.0341
2011    21      5       2.730298        260.2657
2011    21      6       3.029297        265.2464
2011    21      7       3.300645        269.2291
2011    22      0       3.087432        266.9221
2011    22      1       3.035058        265.7565
2011    22      2       3.261395        267.3589
2011    22      3       2.818519        260.8487
2011    22      4       2.507944        254.2595
2011    22      5       2.532479        254.3239
2011    22      6       3.148993        264.9139
2011    22      7       3.314531        267.5004
2011    23      0       2.94567         263.0421
2011    23      1       2.827838        261.3113
2011    23      2       2.809959        260.0396
2011    23      3       2.510853        253.4232
2011    23      4       1.871504        233.3457
2011    23      5       1.742484        227.2518
2011    23      6       2.423316        252.8552
2011    23      7       2.825262        261.8519
2011    24      0       3.276478        267.4595
2011    24      1       2.883586        261.8502
2011    24      2       2.691782        258.0386
2011    24      3       2.658359        257.6063
2011    24      4       2.669627        257.9113
2011    24      5       2.611039        256.8149
2011    24      6       2.889627        262.2975
2011    24      7       3.386799        269.1972
2011    25      0       3.534314        270.6356
2011    25      1       3.485339        269.9295
2011    25      2       3.565729        269.8862
2011    25      3       2.865201        261.9891
2011    25      4       2.490119        254.9571
2011    25      5       2.422551        253.3418
2011    25      6       3.187105        266.8261
2011    25      7       3.720098        272.2534
2011    26      0       3.261108        268.1528
2011    26      1       2.800289        262.0997
2011    26      2       2.650332        259.2199
2011    26      3       2.625712        258.6599
2011    26      4       2.538966        256.8344
2011    26      5       2.44305         254.4631
2011    26      6       2.711313        260.5442
2011    26      7       3.11204         267.6369
2011    27      0       3.471716        271.1389
2011    27      1       3.00783         265.6812
2011    27      2       2.749549        261.3262
2011    27      3       2.799813        261.8963
2011    27      4       2.868612        263.0313
2011    27      5       3.063348        265.6704
2011    27      6       3.145565        266.8753
2011    27      7       3.079673        267.4779
2011    28      0       3.113862        268.3108
2011    28      1       3.229772        268.8581
2011    28      2       3.025143        265.9717
2011    28      3       2.735139        261.5891
2011    28      4       2.394075        253.7196
2011    28      5       2.187836        247.2346
2011    28      6       2.917212        264.2095
2011    28      7       3.546233        272.3049
2011    29      0       3.490437        271.1991
2011    29      1       3.192165        267.2984
2011    29      2       3.152812        266.7204
2011    29      3       3.165384        266.8067
2011    29      4       2.756418        260.551
2011    29      5       2.782936        260.3057
2011    29      6       3.750393        271.2736
2011    29      7       3.773819        271.6508
2011    30      0       2.917369        262.8766
2011    30      1       2.587589        256.6299
2011    30      2       3.106245        264.86
2011    30      3       3.517533        269.5378
2011    30      4       3.642585        270.898
2011    30      5       3.674805        270.726
2011    30      6       3.564341        269.6303
2011    30      7       3.506077        269.4992
2011    31      0       3.329761        268.1823
2011    31      1       2.863468        262.5452
2011    31      2       2.75301         260.4752
2011    31      3       2.829543        261.4941
2011    31      4       2.990283        263.6896
2011    31      5       3.056407        264.2184
2011    31      6       3.265703        266.9386
2011    31      7       3.634635        271.1495
2012    1       0       1.718339        229.0599
2012    1       1       1.833304        234.6356
2012    1       2       1.90414         238.4323
2012    1       3       1.831619        235.3195
2012    1       4       1.741565        230.5658
2012    1       5       1.702157        228.1832
2012    1       6       1.741632        230.8467
2012    1       7       2.112428        245.9011
2012    2       0       2.531617        256.85
2012    2       1       2.55587         257.1501
2012    2       2       2.809584        261.4195
2012    2       3       2.717356        259.3525
2012    2       4       2.583561        256.9652
2012    2       5       2.492255        255.024
2012    2       6       2.370715        252.6011
2012    2       7       2.555542        257.8459
2012    3       0       2.924002        264.0387
2012    3       1       2.801119        261.028
2012    3       2       2.917792        263.0209
2012    3       3       2.573223        257.2202
2012    3       4       2.116059        245.5038
2012    3       5       2.179072        247.0106
2012    3       6       2.644226        258.5447
2012    3       7       3.085488        266.3409
2012    4       0       3.012035        265.5986
2012    4       1       2.660681        259.2008
2012    4       2       2.5503          256.5737
2012    4       3       2.427271        253.8934
2012    4       4       2.193525        247.3034
2012    4       5       2.318729        250.4584
2012    4       6       2.879517        261.9417
2012    4       7       3.194905        267.0201
2012    5       0       3.32335         268.7399
2012    5       1       3.028443        265.1194
2012    5       2       2.475355        254.7406
2012    5       3       1.700687        228.0723
2012    5       4       1.562057        220.1408
2012    5       5       1.988475        238.8999
2012    5       6       3.028248        263.3836
2012    5       7       3.312095        267.1654
2012    6       0       2.929469        262.0122
2012    6       1       2.5026          253.5274
2012    6       2       2.394647        250.9725
2012    6       3       2.475472        252.7866
2012    6       4       2.734878        257.7373
2012    6       5       2.731563        257.1547
2012    6       6       3.071299        262.3689
2012    6       7       3.166005        263.7903
2012    7       0       3.296168        265.3283
2012    7       1       3.08326         262.7342
2012    7       2       2.819613        258.184
2012    7       3       2.492894        250.9016
2012    7       4       2.15682         241.7306
2012    7       5       2.353358        247.0012
2012    7       6       3.165858        262.1475
2012    7       7       2.984955        259.6524
2012    8       0       2.75521         255.5098
2012    8       1       2.241368        243.7472
2012    8       2       2.377045        247.7012
2012    8       3       2.596763        252.942
2012    8       4       2.361047        247.55
2012    8       5       2.378051        248.2883
2012    8       6       2.688896        255.4177
2012    8       7       2.94757         260.4661
2012    9       0       3.158014        263.6229
2012    9       1       3.027878        262.0346
2012    9       2       2.660082        256.1196
2012    9       3       2.447584        251.5022
2012    9       4       2.339579        248.7843
2012    9       5       2.424007        250.801
2012    9       6       3.202032        264.3371
2012    9       7       3.443014        267.2915
2012    10      0       3.370582        266.7492
2012    10      1       3.05453         262.7897
2012    10      2       3.038994        262.3706
2012    10      3       2.949925        260.4074
2012    10      4       2.081155        240.0063
2012    10      5       1.663018        222.0967
2012    10      6       1.906392        233.5436
2012    10      7       2.191338        244.2616
2012    11      0       2.259953        246.4788
2012    11      1       2.181115        243.9943
2012    11      2       1.728107        226.7329
2012    11      3       1.424154        209.7544
2012    11      4       1.054621        180.8149
2012    11      5       0.9450743       169.8027
2012    11      6       1.645892        222.2119
2012    11      7       2.284664        246.7752
2012    12      0       2.445092        251.4698
2012    12      1       2.366496        249.6033
2012    12      2       2.89955         259.4914
2012    12      3       2.307313        246.4332
2012    12      4       1.393804        207.0248
2012    12      5       1.025662        178.069
2012    12      6       1.541059        216.9684
2012    12      7       2.05147         240.2988
2012    13      0       2.607067        255.5922
2012    13      1       2.750541        257.963
2012    13      2       2.495711        252.5495
2012    13      3       2.182638        243.7886
2012    13      4       1.864562        231.9049
2012    13      5       1.895182        232.6282
2012    13      6       2.535265        251.9512
2012    13      7       2.780804        257.5392
2012    14      0       2.820919        258.6035
2012    14      1       2.748009        257.2685
2012    14      2       2.643924        255.3239
2012    14      3       2.447474        251.4328
2012    14      4       2.15273         243.4294
2012    14      5       1.745515        227.348
2012    14      6       1.998912        237.7234
2012    14      7       2.252797        246.1747
2012    15      0       2.406748        250.8627
2012    15      1       2.25004         246.289
2012    15      2       1.918483        235.0735
2012    15      3       1.824665        231.1089
2012    15      4       1.643553        222.148
2012    15      5       1.418725        208.8794
2012    15      6       1.53515         216.4037
2012    15      7       1.718741        226.7857
2012    16      0       1.718044        226.9002
2012    16      1       1.636854        222.3618
2012    16      2       1.578223        219.0971
2012    16      3       1.727214        226.115
2012    16      4       1.668019        223.323
2012    16      5       1.609212        220.3162
2012    16      6       1.926837        235.1193
2012    16      7       2.352399        248.8139
2012    17      0       2.273276        246.4805
2012    17      1       1.993675        236.8869
2012    17      2       1.74246         226.358
2012    17      3       1.644152        221.5025
2012    17      4       1.498473        213.4036
2012    17      5       1.387767        206.5177
2012    17      6       1.592835        219.4624
2012    17      7       2.01034         238.5447
2012    18      0       2.38665         250.1792
2012    18      1       2.285202        247.5213
2012    18      2       2.121336        242.7537
2012    18      3       1.813679        231.0466
2012    18      4       1.531238        216.2192
2012    18      5       1.470188        212.0942
2012    18      6       2.136985        242.2603
2012    18      7       2.656293        256.1046
2012    19      0       2.466752        252.1497
2012    19      1       2.242388        246.446
2012    19      2       2.203748        244.7858
2012    19      3       1.986546        236.9486
2012    19      4       1.680884        223.7335
2012    19      5       1.81086         229.6303
2012    19      6       2.120859        241.9561
2012    19      7       2.16954         244.1413
2012    20      0       2.039129        240.4087
2012    20      1       1.602908        221.0218
2012    20      2       1.334744        204.674
2012    20      3       1.064821        182.7253
2012    20      4       0.8138293       155.864
2012    20      5       0.7931514       153.4067
2012    20      6       1.127177        188.2028
2012    20      7       1.43268         211.473
2012    21      0       1.533863        217.8522
2012    21      1       1.425103        211.1913
2012    21      2       1.344423        205.6316
2012    21      3       1.171521        191.9749
2012    21      4       1.339536        204.475
2012    21      5       1.749561        228.0853
2012    21      6       2.258527        246.5709
2012    21      7       2.452449        252.0782
2012    22      0       2.677948        257.1015
2012    22      1       2.372152        250.2851
2012    22      2       2.06212         240.8526
2012    22      3       2.021284        239.1049
2012    22      4       1.805658        230.4561
2012    22      5       1.848281        231.918
2012    22      6       2.117423        242.2443
2012    22      7       2.312126        248.9929
2012    23      0       2.654779        256.9835
2012    23      1       2.469123        252.8225
2012    23      2       2.035866        241.0002
2012    23      3       2.000233        239.7536
2012    23      4       1.667177        225.1979
2012    23      5       1.513813        216.4398
2012    23      6       1.827423        232.5677
2012    23      7       2.35728         250.9674
2012    24      0       3.124563        264.8323
2012    24      1       3.39343         267.016
2012    24      2       3.166647        264.3748
2012    24      3       2.412545        252.1596
2012    24      4       1.810387        231.4191
2012    24      5       1.826581        231.3371
2012    24      6       2.488258        253.1915
2012    24      7       2.786808        260.1616
2012    25      0       2.788135        260.5217
2012    25      1       2.283186        249.346
2012    25      2       2.177821        245.7631
2012    25      3       2.223302        247.1882
2012    25      4       2.320237        250.0806
2012    25      5       2.286462        249.3274
2012    25      6       2.807389        260.8414
2012    25      7       3.279231        267.5993
2012    26      0       3.192948        266.777
2012    26      1       2.813062        261.302
2012    26      2       2.663228        258.432
2012    26      3       2.374816        252.2142
2012    26      4       2.331563        250.9258
2012    26      5       2.346571        250.9215
2012    26      6       2.893892        261.8225
2012    26      7       3.338987        268.1024
2012    27      0       3.457487        269.0191
2012    27      1       3.213802        265.9458
2012    27      2       3.147365        264.1141
2012    27      3       2.859549        260.4713
2012    27      4       2.497931        253.2333
2012    27      5       2.026892        238.9893
2012    27      6       1.954753        237.0153
2012    27      7       1.961372        238.0035
2012    28      0       1.785872        230.8024
2012    28      1       1.614563        221.8661
2012    28      2       1.714751        227.2958
2012    28      3       2.076997        241.9159
2012    28      4       2.178278        244.4333
2012    28      5       2.39158         250.0222
2012    28      6       2.574682        254.7554
2012    28      7       2.576386        255.4987
2012    29      0       2.511244        254.8831
2012    29      1       2.161664        245.0687
2012    29      2       1.761186        229.7885
2012    29      3       1.544545        218.5162
2012    29      4       1.386917        208.3995
2012    29      5       1.16303         191.3607
2012    29      6       1.497584        215.5964
2012    29      7       1.815426        232.5355
2012    30      0       1.605831        222.5016
2012    30      1       1.287826        201.6498
2012    30      2       1.247355        198.3549
2012    30      3       1.261576        199.4823
2012    30      4       1.286404        201.0545
2012    30      5       1.267424        199.69
2012    30      6       1.42193         210.9464
2012    30      7       1.707151        227.8421
2012    31      0       1.933356        237.9963
2012    31      1       2.162292        245.4832
2012    31      2       2.255311        248.0756
2012    31      3       2.087076        242.9901
2012    31      4       1.876812        234.9638
2012    31      5       1.729255        228.5618
2012    31      6       1.752632        230.1548
2012    31      7       1.931163        238.1588
2013    1       0       2.985935        261.3816
2013    1       1       2.695401        257.391
2013    1       2       2.68177         256.7919
2013    1       3       1.81049         231.418
2013    1       4       1.956844        236.4462
2013    1       5       2.154611        242.3577
2013    1       6       2.494372        251.3089
2013    1       7       2.488719        252.0621
2013    2       0       2.442649        251.5739
2013    2       1       2.462943        251.5756
2013    2       2       2.221348        245.1549
2013    2       3       1.823178        231.0102
2013    2       4       1.785075        228.8925
2013    2       5       1.863581        231.9826
2013    2       6       2.32573         247.4533
2013    2       7       2.326218        248.2379
2013    3       0       2.761319        257.2537
2013    3       1       2.199575        244.6936
2013    3       2       2.387829        248.889
2013    3       3       1.82734         230.6024
2013    3       4       1.667894        223.228
2013    3       5       1.771718        227.9424
2013    3       6       1.922588        235.0912
2013    3       7       2.0803          241.5162
2013    4       0       2.387038        250.225
2013    4       1       2.256176        246.2256
2013    4       2       2.040576        239.3192
2013    4       3       1.941485        236.3305
2013    4       4       1.798118        230.932
2013    4       5       1.596399        220.6662
2013    4       6       1.852077        233.0596
2013    4       7       2.162168        245.1983
2013    5       0       2.417126        252.6227
2013    5       1       2.818231        259.441
2013    5       2       2.887851        260.5676
2013    5       3       2.463855        253.7449
2013    5       4       2.243313        248.5991
2013    5       5       2.555269        255.5877
2013    5       6       2.320969        249.3336
2013    5       7       2.354082        250.9054
2013    6       0       2.415915        253.7831
2013    6       1       2.355792        252.7832
2013    6       2       3.296679        267.9406
2013    6       3       2.882862        262.8443
2013    6       4       2.574485        257.395
2013    6       5       2.338008        251.4179
2013    6       6       3.014788        264.5972
2013    6       7       3.455259        270.2741
2013    7       0       2.98514         265.3999
2013    7       1       3.134351        266.9376
2013    7       2       2.858051        263.2804
2013    7       3       2.952768        264.6463
2013    7       4       2.390753        253.2234
2013    7       5       2.27886         248.7346
2013    7       6       2.606635        257.4991
2013    7       7       2.807905        262.5475
2013    8       0       2.862359        263.4795
2013    8       1       2.527111        256.4641
2013    8       2       2.336569        251.4052
2013    8       3       2.437593        252.9111
2013    8       4       2.192897        245.3673
2013    8       5       2.275397        247.0136
2013    8       6       2.62757         255.5614
2013    8       7       2.945679        262.3544
2013    9       0       2.90838         262.2879
2013    9       1       2.687633        258.7822
2013    9       2       2.806013        260.9496
2013    9       3       2.731138        259.5573
2013    9       4       2.4555          253.8114
2013    9       5       2.47256         254.1773
2013    9       6       3.001051        264.5219
2013    9       7       3.524007        271.5832
2013    10      0       3.717765        273.3953
2013    10      1       3.964791        274.452
2013    10      2       3.941111        273.3221
2013    10      3       3.089249        265.682
2013    10      4       2.819504        261.2226
2013    10      5       2.629481        257.4394
2013    10      6       2.754107        260.1818
2013    10      7       3.105526        265.4884
2013    11      0       2.612906        258.095
2013    11      1       2.519818        256.1926
2013    11      2       2.7598          259.7422
2013    11      3       2.631194        257.1525
2013    11      4       2.941257        262.0793
2013    11      5       2.469909        252.988
2013    11      6       2.596256        255.7789
2013    11      7       2.939609        262.3493
2013    12      0       2.403589        252.0911
2013    12      1       2.014107        240.2498
2013    12      2       2.306171        249.4816
2013    12      3       2.573281        255.8267
2013    12      4       2.540395        254.8983
2013    12      5       2.602631        255.704
2013    12      6       2.681508        256.4814
2013    12      7       2.729905        257.9618
2013    13      0       2.741597        258.8795
2013    13      1       2.736924        259.8109
2013    13      2       2.755684        259.4007
2013    13      3       2.658723        257.753
2013    13      4       2.271499        248.763
2013    13      5       2.191208        246.1471
2013    13      6       3.185157        265.4812
2013    13      7       3.357605        267.7892
2013    14      0       2.951122        262.9892
2013    14      1       2.624148        257.3207
2013    14      2       2.740542        259.0367
2013    14      3       2.688193        257.2978
2013    14      4       2.300976        248.5593
2013    14      5       2.206174        245.8764
2013    14      6       2.716229        258.1914
2013    14      7       3.460385        268.9506
2013    15      0       3.67222         270.4244
2013    15      1       3.408042        266.8745
2013    15      2       2.88821         259.2217
2013    15      3       2.900861        259.386
2013    15      4       2.730378        256.4442
2013    15      5       2.415463        249.4166
2013    15      6       2.259448        245.0738
2013    15      7       2.113299        240.5794
2013    16      0       2.011772        237.0583
2013    16      1       1.773092        227.1427
2013    16      2       1.371979        204.3555
2013    16      3       1.353691        202.325
2013    16      4       1.229241        193.268
2013    16      5       1.435195        208.3444
2013    16      6       1.777144        225.93
2013    16      7       2.140957        240.2944
2013    17      0       2.556936        251.2424
2013    17      1       1.975882        234.6291
2013    17      2       1.677313        221.0859
2013    17      3       1.609727        217.6602
2013    17      4       1.555212        214.776
2013    17      5       1.469253        209.7712
2013    17      6       1.989069        235.4827
2013    17      7       2.501238        250.8878
2013    18      0       2.427355        249.3263
2013    18      1       2.009809        237.7983
2013    18      2       1.973587        235.9051
2013    18      3       1.930087        234.3139
2013    18      4       1.983181        236.5178
2013    18      5       2.055412        239.1911
2013    18      6       2.36794         249.2824
2013    18      7       2.719931        257.9882
2013    19      0       3.153334        264.6916
2013    19      1       3.251051        265.4223
2013    19      2       2.596532        255.3948
2013    19      3       2.263803        247.1498
2013    19      4       1.83923         232.2292
2013    19      5       1.894466        234.0839
2013    19      6       2.540995        253.8363
2013    19      7       2.950193        261.1792
2013    20      0       3.034636        262.1449
2013    20      1       2.679087        255.6179
2013    20      2       2.483393        250.5658
2013    20      3       2.47801         249.7997
2013    20      4       2.457589        249.2486
2013    20      5       2.223817        244.0771
2013    20      6       2.231588        245.5415
2013    20      7       2.510681        253.1283
2013    21      0       2.658547        256.4784
2013    21      1       2.522192        253.8753
2013    21      2       2.693517        257.5317
2013    21      3       2.506576        253.3658
2013    21      4       2.249978        246.0966
2013    21      5       2.269214        245.384
2013    21      6       2.810862        257.2938
2013    21      7       2.88907         259.2587
2013    22      0       2.480384        252.0637
2013    22      1       2.118022        242.5888
2013    22      2       2.496457        252.8016
2013    22      3       2.269354        247.2031
2013    22      4       2.101025        241.4436
2013    22      5       2.11359         241.4719
2013    22      6       2.396105        250.6873
2013    22      7       2.815003        260.277
2013    23      0       3.115782        264.6385
2013    23      1       2.919788        261.4865
2013    23      2       2.507482        254.2022
2013    23      3       2.358006        251.2224
2013    23      4       1.97689         238.4729
2013    23      5       1.604121        220.424
2013    23      6       1.886216        235.3698
2013    23      7       2.344124        251.1798
2013    24      0       2.847461        261.8359
2013    24      1       2.861344        261.2529
2013    24      2       1.980177        239.0696
2013    24      3       1.061616        180.3297
2013    24      4       1.078194        181.7878
2013    24      5       1.273813        198.7053
2013    24      6       1.945459        235.7858
2013    24      7       2.568485        253.1489
2013    25      0       2.325104        246.3055
2013    25      1       1.818403        228.9352
2013    25      2       1.692483        223.6678
2013    25      3       2.109717        240.3743
2013    25      4       2.192922        244.1497
2013    25      5       1.772368        228.7483
2013    25      6       2.03743         240.148
2013    25      7       3.020898        262.5253
2013    26      0       2.855109        260.4095
2013    26      1       2.866304        260.9278
2013    26      2       2.691536        257.7438
2013    26      3       2.47094         253.079
2013    26      4       2.051596        241.5374
2013    26      5       2.162409        244.9975
2013    26      6       2.823185        259.4734
2013    26      7       3.422469        267.2178
2013    27      0       3.663748        269.962
2013    27      1       3.405765        266.839
2013    27      2       3.601056        268.4763
2013    27      3       3.363261        266.7543
2013    27      4       2.729238        258.3146
2013    27      5       2.202888        246.0349
2013    27      6       2.296744        248.0888
2013    27      7       2.648162        255.3703
2013    28      0       2.271984        246.6172
2013    28      1       1.895381        232.8643
2013    28      2       2.143747        241.8146
2013    28      3       2.728176        256.5385
2013    28      4       3.093232        262.6621
2013    28      5       2.720553        256.2663
2013    28      6       2.626074        255.3891
2013    28      7       3.117686        263.3901
2013    29      0       2.79454         258.6461
2013    29      1       2.105713        241.4683
2013    29      2       1.948583        235.589
2013    29      3       1.860098        232.5493
2013    29      4       1.329878        203.4148
2013    29      5       1.214057        194.6187
2013    29      6       1.481467        213.5806
2013    29      7       1.654896        223.3765
2013    30      0       1.43309         210.7139
2013    30      1       1.11666         186.0118
2013    30      2       1.249074        196.7957
2013    30      3       1.37068         205.9874
2013    30      4       1.13878         188.4352
2013    30      5       0.9558807       171.0144
2013    30      6       1.314894        202.5868
2013    30      7       1.588318        220.3753
2013    31      0       1.454224        212.6828
2013    31      1       1.157767        190.9611
2013    31      2       1.156969        190.7317
2013    31      3       1.177611        192.2167
2013    31      4       1.098999        185.1265
2013    31      5       1.214236        194.548
2013    31      6       1.59617         220.0211
2013    31      7       1.898216        235.1188
2014    1       0       1.419764        212.3165
2014    1       1       1.193957        195.6198
2014    1       2       1.331083        204.9883
2014    1       3       1.419489        210.2488
2014    1       4       1.331566        204.0124
2014    1       5       1.39997         208.374
2014    1       6       1.841961        233.3167
2014    1       7       2.196959        246.593
2014    2       0       1.732572        228.5856
2014    2       1       0.9843104       176.0931
2014    2       2       1.271875        200.497
2014    2       3       1.055575        181.4623
2014    2       4       1.042929        179.7066
2014    2       5       1.256361        197.4693
2014    2       6       1.639449        222.349
2014    2       7       1.900378        234.9762
2014    3       0       2.114487        243.265
2014    3       1       1.87113         234.6777
2014    3       2       2.230353        245.769
2014    3       3       1.966125        236.4684
2014    3       4       1.709805        224.7585
2014    3       5       1.565166        215.734
2014    3       6       1.514751        212.8828
2014    3       7       1.50083         214.0551
2014    4       0       1.677804        224.1719
2014    4       1       2.200375        243.5357
2014    4       2       2.549377        252.4343
2014    4       3       2.012074        236.5306
2014    4       4       1.703233        223.7149
2014    4       5       1.609644        219.2615
2014    4       6       2.562457        252.4617
2014    4       7       2.827227        257.9189
2014    5       0       2.837466        258.4658
2014    5       1       2.973853        260.271
2014    5       2       2.770794        256.2864
2014    5       3       3.024096        260.5597
2014    5       4       2.786987        256.8798
2014    5       5       2.584583        252.5848
2014    5       6       2.371465        247.218
2014    5       7       2.433582        248.6313
2014    6       0       2.578091        252.5538
2014    6       1       2.345318        248.2014
2014    6       2       2.228537        244.1264
2014    6       3       1.672673        222.3417
2014    6       4       1.39175         206.4992
2014    6       5       1.120667        186.2892
2014    6       6       1.325732        203.3848
2014    6       7       1.598044        220.5404
2014    7       0       1.998728        238.49
2014    7       1       2.454415        251.3993
2014    7       2       2.047339        240.579
2014    7       3       1.435441        211.5575
2014    7       4       1.412868        209.4699
2014    7       5       1.35087         204.9112
2014    7       6       1.64163         222.7674
2014    7       7       1.97948         238.2168
2014    8       0       2.228506        247.0887
2014    8       1       2.42876         251.417
2014    8       2       2.266095        246.3374
2014    8       3       1.925773        235.0901
2014    8       4       1.677803        224.2204
2014    8       5       1.600529        219.9967
2014    8       6       2.182616        243.7816
2014    8       7       2.136388        241.6358
2014    9       0       1.371602        204.7842
2014    9       1       1.557982        217.0582
2014    9       2       1.855159        231.2344
2014    9       3       1.965418        235.6501
2014    9       4       1.872522        231.6311
2014    9       5       1.856536        230.3037
2014    9       6       2.307576        244.8929
2014    9       7       2.488027        249.3551
2014    10      0       2.051087        237.1639
2014    10      1       1.950147        233.9857
2014    10      2       2.252348        244.2515
2014    10      3       2.322612        246.7285
2014    10      4       2.141039        241.378
2014    10      5       2.265773        244.8744
2014    10      6       2.741972        256.2371
2014    10      7       2.818985        258.729
2014    11      0       2.552935        254.0614
2014    11      1       2.281024        247.4186
2014    11      2       2.497943        252.689
2014    11      3       2.667432        256.5501
2014    11      4       2.404134        250.6425
2014    11      5       2.444577        251.4745
2014    11      6       2.961231        262.1249
2014    11      7       3.498523        268.9674
2014    12      0       3.539261        269.032
2014    12      1       3.046766        263.0122
2014    12      2       1.967325        238.4716
2014    12      3       1.55617         219.5476
2014    12      4       0.9967914       176.4402
2014    12      5       0.8751921       163.0036
2014    12      6       1.334985        204.1047
2014    12      7       1.819168        231.5815
2014    13      0       2.409954        251.3131
2014    13      1       2.752868        257.8679
2014    13      2       2.298439        247.4456
2014    13      3       1.950613        236.0983
2014    13      4       1.826061        230.3668
2014    13      5       1.835733        229.5206
2014    13      6       2.509442        251.4362
2014    13      7       2.849539        258.8373
2014    14      0       2.500234        253.1642
2014    14      1       2.306082        248.3927
2014    14      2       2.509981        252.7674
2014    14      3       2.556456        253.7392
2014    14      4       2.369908        249.1462
2014    14      5       2.09956         241.8886
2014    14      6       2.771529        258.9379
2014    14      7       3.286412        266.6858
2014    15      0       2.538362        255.2372
2014    15      1       2.51418         254.6902
2014    15      2       3.237631        265.2055
2014    15      3       2.284659        248.0822
2014    15      4       2.301054        247.3062
2014    15      5       2.28016         245.8791
2014    15      6       2.476265        250.4843
2014    15      7       2.418454        248.9357
2014    16      0       2.195653        243.4758
2014    16      1       1.821403        231.0365
2014    16      2       1.933134        235.9166
2014    16      3       2.178685        244.4464
2014    16      4       2.258399        245.5867
2014    16      5       2.325025        247.206
2014    16      6       2.014964        238.6225
2014    16      7       2.496373        252.4523
2014    17      0       2.380084        249.1843
2014    17      1       2.038506        239.3612
2014    17      2       1.707187        225.8288
2014    17      3       1.073143        183.4154
2014    17      4       1.313859        202.4615
2014    17      5       1.382131        205.89
2014    17      6       1.757385        227.6915
2014    17      7       1.916878        235.478
2014    18      0       2.248239        246.6478
2014    18      1       2.386313        250.2773
2014    18      2       1.676855        224.809
2014    18      3       1.215985        195.5254
2014    18      4       1.16806         191.5546
2014    18      5       1.169039        191.6959
2014    18      6       1.518886        217.1931
2014    18      7       1.665091        226.0392
2014    19      0       1.993893        240.221
2014    19      1       2.333312        250.1518
2014    19      2       2.206972        246.7957
2014    19      3       2.005825        240.7098
2014    19      4       1.952437        238.2199
2014    19      5       1.94844         237.6074
2014    19      6       2.234527        247.6186
2014    19      7       2.493258        255.3095
2014    20      0       2.523939        256.4455
2014    20      1       2.253188        249.2079
2014    20      2       2.113637        244.6399
2014    20      3       2.061054        242.7208
2014    20      4       1.83054         233.696
2014    20      5       1.547711        219.2788
2014    20      6       1.996836        240.8613
2014    20      7       2.573685        257.8849
2014    21      0       2.561667        258.1498
2014    21      1       2.511304        256.6116
2014    21      2       2.818459        262.294
2014    21      3       3.135814        266.2467
2014    21      4       2.751571        260.4763
2014    21      5       2.605866        257.1033
2014    21      6       2.593055        256.6341
2014    21      7       2.733172        259.8082
2014    22      0       2.531147        255.7336
2014    22      1       2.215675        247.2511
2014    22      2       2.248655        248.0126
2014    22      3       2.176193        245.1869
2014    22      4       1.978151        237.936
2014    22      5       1.891161        234.6907
2014    22      6       1.973201        238.1891
2014    22      7       2.492842        254.4464
2014    23      0       2.809813        260.4553
2014    23      1       1.921051        236.6965
2014    23      2       1.200197        194.38
2014    23      3       1.149304        188.5428
2014    23      4       1.225545        195.0702
2014    23      5       1.392743        207.8325
2014    23      6       2.256842        247.3356
2014    23      7       2.796803        259.5901
2014    24      0       2.241014        246.793
2014    24      1       1.682534        225.2158
2014    24      2       1.55689         218.238
2014    24      3       1.470705        212.6867
2014    24      4       1.322643        202.67
2014    24      5       1.135409        187.8929
2014    24      6       1.459506        212.4815
2014    24      7       1.954009        237.7577
2014    25      0       2.159334        244.6799
2014    25      1       1.73912         228.2937
2014    25      2       1.825015        232.3678
2014    25      3       2.216521        246.7786
2014    25      4       2.049272        241.7229
2014    25      5       1.950665        238.1457
2014    25      6       2.188229        246.4856
2014    25      7       2.421806        253.2772
2014    26      0       2.265662        249.9971
2014    26      1       1.825928        234.4737
2014    26      2       1.720797        229.1125
2014    26      3       1.882193        236.0002
2014    26      4       1.714481        228.2598
2014    26      5       1.621859        223.2291
2014    26      6       1.897179        236.491
2014    26      7       2.336405        251.4109
2014    27      0       2.996822        264.1471
2014    27      1       3.27937         266.414
2014    27      2       3.059441        262.9012
2014    27      3       2.614665        255.7082
2014    27      4       2.236675        246.6226
2014    27      5       1.990058        238.1859
2014    27      6       2.157526        243.7101
2014    27      7       3.065788        263.1949
2014    28      0       3.240525        265.3532
2014    28      1       3.276358        265.3464
2014    28      2       2.377796        249.5687
2014    28      3       2.00395         238.6481
2014    28      4       1.600362        220.7319
2014    28      5       1.610219        221.1699
2014    28      6       2.539097        253.1021
2014    28      7       2.753002        257.1519
2014    29      0       3.127474        262.8171
2014    29      1       2.72852         256.9016
2014    29      2       2.597337        254.3807
2014    29      3       2.515761        252.4835
2014    29      4       2.584556        253.8877
2014    29      5       3.145388        261.8769
2014    29      6       2.896053        260.0319
2014    29      7       2.83637         260.0877
2014    30      0       2.850538        260.5251
2014    30      1       2.312514        248.8267
2014    30      2       1.944013        236.6965
2014    30      3       1.75683         228.5758
2014    30      4       1.93337         236.1431
2014    30      5       1.953024        237.3538
2014    30      6       2.443666        252.2515
2014    30      7       2.920812        261.7936
2014    31      0       2.897787        261.7488
2014    31      1       2.475553        253.6837
2014    31      2       2.271702        248.6243
2014    31      3       2.333896        250.2731
2014    31      4       2.116741        243.6784
2014    31      5       1.925278        236.9769
2014    31      6       2.745711        258.6421
2014    31      7       3.284847        266.1539
2015    1       0       2.356045        253.6263
2015    1       1       2.461592        256.2763
2015    1       2       2.54743         257.3444
2015    1       3       2.651786        258.4783
2015    1       4       2.584226        255.8966
2015    1       5       1.99857         238.7111
2015    1       6       2.212205        246.7848
2015    1       7       2.851661        262.087
2015    2       0       2.570376        257.6209
2015    2       1       3.061835        264.635
2015    2       2       3.195925        265.3308
2015    2       3       2.905021        261.9543
2015    2       4       2.412233        252.2695
2015    2       5       2.349642        250.7893
2015    2       6       2.601253        256.4178
2015    2       7       3.471059        268.429
2015    3       0       3.17742         265.0782
2015    3       1       2.335913        249.2734
2015    3       2       2.818748        259.3118
2015    3       3       2.961492        261.7707
2015    3       4       2.324629        248.7807
2015    3       5       2.326669        248.152
2015    3       6       2.893697        259.8425
2015    3       7       2.713928        257.332
2015    4       0       2.462794        253.0277
2015    4       1       2.815999        259.9227
2015    4       2       2.87847         260.9308
2015    4       3       3.301117        266.6397
2015    4       4       2.981763        262.798
2015    4       5       2.576963        255.0972
2015    4       6       2.4052          250.9133
2015    4       7       2.273793        247.6749
2015    5       0       1.883484        234.2696
2015    5       1       1.917267        235.3248
2015    5       2       2.053641        240.6738
2015    5       3       2.220459        246.0163
2015    5       4       2.891871        260.5584
2015    5       5       3.238823        265.35
2015    5       6       3.452453        268.2005
2015    5       7       3.463554        267.7693
2015    6       0       2.970814        261.1791
2015    6       1       2.397477        249.9473
2015    6       2       2.386861        249.4303
2015    6       3       2.63275         254.4781
2015    6       4       2.385159        248.3812
2015    6       5       2.304723        245.3199
2015    6       6       2.641174        254.2018
2015    6       7       3.079169        262.242
2015    7       0       3.417798        265.7658
2015    7       1       3.232905        263.9582
2015    7       2       2.477902        251.2179
2015    7       3       2.499802        251.3898
2015    7       4       2.264335        244.9736
2015    7       5       1.987193        235.5196
2015    7       6       1.480806        210.1015
2015    7       7       1.982587        234.0705
2015    8       0       2.033931        235.9416
2015    8       1       1.575228        216.2613
2015    8       2       1.327987        200.833
2015    8       3       1.319027        199.3575
2015    8       4       1.664851        219.8867
2015    8       5       1.788371        226.0908
2015    8       6       1.557029        214.9548
2015    8       7       1.534232        214.1414
2015    9       0       1.348833        202.3618
2015    9       1       1.151595        187.2692
2015    9       2       1.547266        215.5983
2015    9       3       1.433778        209.552
2015    9       4       1.333471        202.545
2015    9       5       1.355973        203.307
2015    9       6       1.486028        210.8388
2015    9       7       1.966795        233.3796
2015    10      0       2.168282        239.8256
2015    10      1       2.015257        234.6518
2015    10      2       1.379816        203.9468
2015    10      3       1.324833        201.2372
2015    10      4       1.404209        206.1063
2015    10      5       1.612968        217.7367
2015    10      6       1.728531        224.2911
2015    10      7       1.793667        226.9275
2015    11      0       1.920697        232.59
2015    11      1       1.881839        230.4384
2015    11      2       2.09173         239.1226
2015    11      3       1.681018        223.2662
2015    11      4       1.327613        201.7546
2015    11      5       1.42016         208.48
2015    11      6       1.612846        219.2124
2015    11      7       2.144448        241.5373
2015    12      0       2.145247        241.9977
2015    12      1       2.009095        238.0924
2015    12      2       1.827216        231.906
2015    12      3       1.839554        233.1825
2015    12      4       1.523593        217.1937
2015    12      5       1.608371        221.6762
2015    12      6       1.857852        232.8706
2015    12      7       2.01444         239.0922
2015    13      0       1.618877        221.0125
2015    13      1       1.252462        196.5584
2015    13      2       1.604895        219.4198
2015    13      3       2.173676        243.7209
2015    13      4       1.454924        210.9647
2015    13      5       1.346731        203.7548
2015    13      6       1.697846        225.5727
2015    13      7       2.118686        243.4701
2015    14      0       2.196037        245.6849
2015    14      1       1.789763        230.0717
2015    14      2       1.774889        228.7383
2015    14      3       1.947287        236.2294
2015    14      4       2.612716        254.0842
2015    14      5       2.198421        243.8955
2015    14      6       2.451501        251.0202
2015    14      7       2.798613        258.2619
2015    15      0       2.609062        254.4964
2015    15      1       2.333249        247.8482
2015    15      2       2.369741        248.5208
2015    15      3       2.326236        247.5236
2015    15      4       1.94765         235.9414
2015    15      5       1.610085        220.3093
2015    15      6       2.211382        244.8477
2015    15      7       2.739169        257.5649
2015    16      0       2.368898        249.5132
2015    16      1       1.983036        237.4997
2015    16      2       1.841783        231.4354
2015    16      3       1.760467        227.7554
2015    16      4       1.631779        220.7155
2015    16      5       1.608796        219.96
2015    16      6       1.926876        235.3033
2015    16      7       2.037259        240.49
2015    17      0       1.979145        238.7126
2015    17      1       1.925607        236.2566
2015    17      2       1.940214        236.7413
2015    17      3       1.90795         234.6462
2015    17      4       1.663676        222.0985
2015    17      5       1.595035        217.0928
2015    17      6       1.843652        229.3599
2015    17      7       2.160328        241.6312
2015    18      0       2.186129        242.8679
2015    18      1       1.927569        233.8602
2015    18      2       1.946739        234.2153
2015    18      3       2.40993         248.4969
2015    18      4       2.761608        256.0403
2015    18      5       2.694299        254.9052
2015    18      6       2.881171        258.4209
2015    18      7       2.998682        260.8277
2015    19      0       2.62079         254.351
2015    19      1       2.124798        241.2897
2015    19      2       2.481948        250.5506
2015    19      3       2.409185        249.5594
2015    19      4       1.84576         232.1468
2015    19      5       1.983758        236.5835
2015    19      6       2.51908         252.2614
2015    19      7       3.080274        262.6233
2015    20      0       3.112564        262.802
2015    20      1       2.595804        254.5105
2015    20      2       2.519185        253.0305
2015    20      3       2.565892        254.3229
2015    20      4       2.520856        252.7211
2015    20      5       2.499652        251.999
2015    20      6       3.343521        265.9811
2015    20      7       3.693091        269.9629
2015    21      0       3.819214        271.0543
2015    21      1       3.333495        266.6965
2015    21      2       2.881248        260.6048
2015    21      3       2.717621        256.7671
2015    21      4       2.062744        239.9467
2015    21      5       1.124456        187.4274
2015    21      6       0.8434627       159.8592
2015    21      7       1.036448        180.33
2015    22      0       1.027529        179.6703
2015    22      1       0.8161957       156.5429
2015    22      2       0.8687018       162.6092
2015    22      3       1.230848        196.6365
2015    22      4       1.085437        183.8839
2015    22      5       0.8172546       155.8516
2015    22      6       0.9444698       170.2178
2015    22      7       1.239087        197.0239
2015    23      0       1.361889        205.6526
2015    23      1       1.191282        192.7157
2015    23      2       1.062713        181.2661
2015    23      3       1.213701        193.5333
2015    23      4       1.451855        209.8628
2015    23      5       1.657968        221.229
2015    23      6       2.025485        237.5488
2015    23      7       2.463332        251.5772
2015    24      0       2.610874        255.5638
2015    24      1       2.569773        254.9482
2015    24      2       2.515867        253.9212
2015    24      3       2.492458        253.5623
2015    24      4       2.275775        247.6628
2015    24      5       2.223412        245.8583
2015    24      6       2.277034        248.0549
2015    24      7       2.344727        250.8561
2015    25      0       2.355999        251.2336
2015    25      1       2.260211        248.9443
2015    25      2       2.273444        249.2862
2015    25      3       2.335064        251.5362
2015    25      4       2.149284        245.5056
2015    25      5       2.061745        242.0305
2015    25      6       1.876449        235.1323
2015    25      7       1.918735        237.6434
2015    26      0       1.78635         232.2054
2015    26      1       1.630008        223.6133
2015    26      2       1.847563        233.712
2015    26      3       2.125192        245.0773
2015    26      4       2.745439        259.4278
2015    26      5       2.382748        251.6068
2015    26      6       2.071959        242.6176
2015    26      7       2.409192        253.5877
2015    27      0       2.479713        255.1889
2015    27      1       2.842705        261.0176
2015    27      2       2.967384        262.3811
2015    27      3       3.043397        262.1936
2015    27      4       2.116772        242.4711
2015    27      5       1.800241        230.7332
2015    27      6       2.345388        249.3309
2015    27      7       2.862215        259.9989
2015    28      0       2.536925        254.0086
2015    28      1       2.067816        240.8094
2015    28      2       2.162743        243.7379
2015    28      3       2.351543        249.1134
2015    28      4       2.089765        241.4034
2015    28      5       1.95681         236.2106
2015    28      6       2.012166        238.5661
2015    28      7       2.287622        248.0145
2015    29      0       2.565271        254.4209
2015    29      1       2.324615        248.2151
2015    29      2       2.531669        252.6027
2015    29      3       2.383135        249.27
2015    29      4       2.753105        256.3595
2015    29      5       3.049013        261.2085
2015    29      6       3.455107        266.6531
2015    29      7       3.542156        267.8916
2015    30      0       3.226645        264.0773
2015    30      1       3.077566        262.3275
2015    30      2       3.302322        265.1552
2015    30      3       3.352205        265.1494
2015    30      4       2.897569        259.4486
2015    30      5       2.669569        255.4057
2015    30      6       3.259454        264.0938
2015    30      7       3.303717        264.9797
2015    31      0       3.00878         261.4826
2015    31      1       2.91764         259.8215
2015    31      2       3.181765        263.2008
2015    31      3       3.380635        266.0288
2015    31      4       3.090356        262.3988
2015    31      5       3.265799        264.6564
2015    31      6       3.828707        269.9882
2015    31      7       3.929664        271.6102
2016    1       0       2.65167         254.507
2016    1       1       2.220486        244.5548
2016    1       2       2.719407        256.8576
2016    1       3       2.595168        254.4824
2016    1       4       2.268174        245.3038
2016    1       5       1.84871         229.3275
2016    1       6       2.363336        245.9463
2016    1       7       3.106061        261.4145
2016    2       0       3.115957        261.3764
2016    2       1       2.906882        259.4727
2016    2       2       3.258           265.6946
2016    2       3       2.076355        240.7493
2016    2       4       1.832258        229.7845
2016    2       5       2.369093        246.4019
2016    2       6       2.487813        251.3383
2016    2       7       2.240082        245.1397
2016    3       0       2.217094        244.4553
2016    3       1       1.827562        230.5212
2016    3       2       1.677832        223.3403
2016    3       3       1.49245         213.2313
2016    3       4       1.158867        189.5119
2016    3       5       0.9594704       171.0125
2016    3       6       1.245359        196.5178
2016    3       7       1.350216        204.782
2016    4       0       1.040867        179.9895
2016    4       1       0.6534949       135.1343
2016    4       2       0.7558625       148.4237
2016    4       3       1.024151        177.7496
2016    4       4       1.026075        178.001
2016    4       5       0.7355765       145.839
2016    4       6       0.9607168       171.7707
2016    4       7       0.9824197       174.1686
2016    5       0       0.8855157       163.7664
2016    5       1       1.227383        194.6777
2016    5       2       1.725705        225.7411
2016    5       3       1.733471        226.5391
2016    5       4       1.385203        207.0554
2016    5       5       1.112881        186.3173
2016    5       6       1.004665        176.785
2016    5       7       1.128758        188.648
2016    6       0       1.124773        188.6114
2016    6       1       1.098707        185.7193
2016    6       2       1.473071        213.6536
2016    6       3       1.787027        230.5078
2016    6       4       1.531736        217.391
2016    6       5       1.141872        189.4459
2016    6       6       1.067998        183.1461
2016    6       7       1.195151        194.2873
2016    7       0       1.09957         185.8896
2016    7       1       1.054822        181.6632
2016    7       2       1.00825         176.3238
2016    7       3       1.022338        177.9414
2016    7       4       0.9843293       174.3802
2016    7       5       1.226723        196.0206
2016    7       6       1.199401        193.8681
2016    7       7       1.111738        186.741
2016    8       0       1.279873        200.9206
2016    8       1       1.29583         202.3923
2016    8       2       1.248145        198.5311
2016    8       3       1.169179        191.5986
2016    8       4       0.930123        168.7835
2016    8       5       0.8419492       158.884
2016    8       6       1.095741        184.9153
2016    8       7       1.288195        200.8309
2016    9       0       1.212989        195.4188
2016    9       1       1.065363        182.8972
2016    9       2       1.184434        193.0231
2016    9       3       1.291467        201.2327
2016    9       4       1.231953        197.6075
2016    9       5       1.022211        179.5281
2016    9       6       0.9989327       177.1611
2016    9       7       1.073183        184.5162
2016    10      0       0.9293439       170.5786
2016    10      1       0.7589778       151.068
2016    10      2       0.9699204       175.0539
2016    10      3       1.337279        206.4484
2016    10      4       1.414337        211.9649
2016    10      5       1.563566        220.5171
2016    10      6       1.831884        233.9362
2016    10      7       1.921035        238.3661
2016    11      0       1.689982        228.1321
2016    11      1       1.576947        222.1259
2016    11      2       1.449213        214.3701
2016    11      3       1.079394        185.5779
2016    11      4       0.8334275       159.8606
2016    11      5       0.7149874       144.8288
2016    11      6       0.8373012       160.0645
2016    11      7       0.7951004       155.0713
2016    12      0       0.778569        153.025
2016    12      1       0.7821553       153.2538
2016    12      2       0.8392621       159.8548
2016    12      3       0.8729873       163.2741
2016    12      4       0.8752105       162.5817
2016    12      5       0.7646381       149.433
2016    12      6       0.6759031       138.0153
2016    12      7       0.5931941       126.7506
2016    13      0       0.4949994       111.6849
2016    13      1       0.4584181       105.2242
2016    13      2       0.5282069       116.5026
2016    13      3       0.6973236       140.9527
2016    13      4       0.7445912       147.0476
2016    13      5       0.7376394       146.459
2016    13      6       0.7316007       146.0052
2016    13      7       0.7557912       149.4087
2016    14      0       0.7360884       146.7618
2016    14      1       0.6535482       135.6513
2016    14      2       0.6524667       135.1662
2016    14      3       0.7632955       149.4399
2016    14      4       0.6962324       140.8416
2016    14      5       0.6240212       131.3005
2016    14      6       0.7266151       145.3073
2016    14      7       0.8671994       162.2134
2016    15      0       0.9766036       174.0603
2016    15      1       1.212324        196.4855
2016    15      2       1.330307        205.5768
2016    15      3       1.286949        201.6815
2016    15      4       1.230242        197.3315
2016    15      5       1.049032        180.7435
2016    15      6       1.416489        211.1324
2016    15      7       1.560305        219.4652
2016    16      0       1.425029        211.4974
2016    16      1       1.323565        204.537
2016    16      2       1.3742          207.2422
2016    16      3       1.414347        209.6351
2016    16      4       1.375873        206.7519
2016    16      5       1.108391        186.117
2016    16      6       1.198949        194.7897
2016    16      7       1.197115        195.1369
2016    17      0       1.202179        195.4937
2016    17      1       1.146808        190.399
2016    17      2       1.321274        203.3397
2016    17      3       1.483523        214.2507
2016    17      4       1.525262        216.5502
2016    17      5       1.701214        225.5866
2016    17      6       2.056043        240.3783
2016    17      7       2.199272        246.1593
2016    18      0       2.370245        251.5233
2016    18      1       2.603131        256.5509
2016    18      2       2.497466        253.8228
2016    18      3       2.211897        246.3499
2016    18      4       2.484498        252.2513
2016    18      5       1.758834        226.2635
2016    18      6       1.63196         220.9332
2016    18      7       1.729089        227.7371
2016    19      0       2.391204        251.6862
2016    19      1       2.657883        256.6191
2016    19      2       2.325219        248.4978
2016    19      3       2.204394        245.71
2016    19      4       1.731299        227.4445
2016    19      5       1.441547        211.2575
2016    19      6       2.122514        242.8681
2016    19      7       2.837902        260.3003
2016    20      0       2.92717         261.8888
2016    20      1       2.795076        259.3619
2016    20      2       2.977678        262.282
2016    20      3       2.319985        250.0607
2016    20      4       1.654728        224.4108
2016    20      5       1.482077        213.6092
2016    20      6       2.064436        240.7858
2016    20      7       2.620867        256.1551
2016    21      0       2.394042        251.2583
2016    21      1       1.55523         218.6154
2016    21      2       1.569679        219.8266
2016    21      3       1.839453        233.0835
2016    21      4       1.818927        231.5423
2016    21      5       1.748608        227.8355
2016    21      6       1.845243        232.5963
2016    21      7       2.058379        241.4239
2016    22      0       2.163869        245.0105
2016    22      1       2.137858        244.1719
2016    22      2       2.036213        241.1964
2016    22      3       1.751978        229.5754
2016    22      4       1.598824        221.3264
2016    22      5       1.890292        234.4081
2016    22      6       2.03542         240.4486
2016    22      7       2.3268          250.6028
2016    23      0       2.763632        260.2563
2016    23      1       2.68051         258.0543
2016    23      2       2.284262        249.3699
2016    23      3       2.186171        246.5658
2016    23      4       1.743266        229.4631
2016    23      5       1.657991        224.351
2016    23      6       2.005875        240.1382
2016    23      7       2.279155        249.7619
2016    24      0       2.31441         250.9161
2016    24      1       2.046154        242.1378
2016    24      2       2.527484        255.7742
2016    24      3       2.472977        254.8734
2016    24      4       2.147581        245.7171
2016    24      5       2.140896        244.7535
2016    24      6       2.909871        262.1076
2016    24      7       3.750084        271.2508
2016    25      0       3.359618        266.7082
2016    25      1       2.909113        261.41
2016    25      2       2.35098         250.0071
2016    25      3       2.539866        253.8511
2016    25      4       2.626119        255.3546
2016    25      5       2.450287        251.2806
2016    25      6       2.499162        252.5094
2016    25      7       2.458417        251.7653
2016    26      0       2.18855         245.7001
2016    26      1       2.970842        262.9016
2016    26      2       3.836295        271.7575
2016    26      3       3.678567        270.1293
2016    26      4       3.175289        263.7752
2016    26      5       2.553035        252.051
2016    26      6       2.133438        242.0044
2016    26      7       2.455828        251.7321
2016    27      0       2.932725        261.4709
2016    27      1       2.847761        260.069
2016    27      2       2.506514        253.1478
2016    27      3       2.198818        244.4647
2016    27      4       1.904617        234.06
2016    27      5       1.80418         229.8704
2016    27      6       2.105548        242.2516
2016    27      7       2.09771         243.2996
2016    28      0       2.136891        244.5752
2016    28      1       1.865234        234.6436
2016    28      2       1.755476        229.934
2016    28      3       1.632622        223.1886
2016    28      4       1.770324        230.0851
2016    28      5       2.01964         240.4075
2016    28      6       2.139538        244.3898
2016    28      7       2.085087        243.3539
2016    29      0       2.36989         252.5389
2016    29      1       3.130091        264.69
2016    29      2       1.995416        238.675
2016    29      3       1.918033        236.876
2016    29      4       2.156871        245.1744
2016    29      5       1.808294        231.4358
2016    29      6       2.173163        245.0388
2016    29      7       1.842302        233.4002
2016    30      0       2.262503        248.1827
2016    30      1       2.093323        242.7131
2016    30      2       1.832484        233.8238
2016    30      3       2.247058        248.3169
2016    30      4       2.004415        240.1086
2016    30      5       1.789407        231.3286
2016    30      6       2.087091        243.2883
2016    30      7       2.574918        256.7934
2016    31      0       2.621309        258.5424
2016    31      1       3.091693        265.5493
2016    31      2       2.66889         258.371
2016    31      3       2.296383        249.3968
2016    31      4       1.831044        232.8592
2016    31      5       1.745133        228.4225
2016    31      6       2.055819        240.7712
2016    31      7       2.481172        252.9157
2017    1       0       1.090711        183.7396
2017    1       1       1.016079        176.6988
2017    1       2       1.282064        199.4707
2017    1       3       1.282277        199.866
2017    1       4       1.211389        193.5405
2017    1       5       1.234431        193.7304
2017    1       6       1.307781        200.0021
2017    1       7       1.200732        193.7419
2017    2       0       1.458941        211.7292
2017    2       1       1.58585         218.6225
2017    2       2       1.427261        209.1317
2017    2       3       1.496433        214.1282
2017    2       4       1.15795         189.3853
2017    2       5       0.8422093       156.9322
2017    2       6       1.072539        181.1526
2017    2       7       1.238199        194.8851
2017    3       0       1.579835        216.1834
2017    3       1       1.281835        198.5625
2017    3       2       1.744101        225.8489
2017    3       3       1.90457         232.2558
2017    3       4       1.214862        193.0186
2017    3       5       1.064115        179.7964
2017    3       6       1.16842         189.2315
2017    3       7       1.260243        197.0442
2017    4       0       1.444305        209.6512
2017    4       1       1.564233        216.8788
2017    4       2       1.571103        217.0091
2017    4       3       1.576584        216.8342
2017    4       4       1.4202          207.7248
2017    4       5       1.128053        186.2439
2017    4       6       1.111082        184.881
2017    4       7       1.366782        204.3834
2017    5       0       1.674441        222.7613
2017    5       1       1.895997        232.9595
2017    5       2       1.933313        234.126
2017    5       3       1.684436        223.578
2017    5       4       1.323189        202.0033
2017    5       5       1.195206        193.2417
2017    5       6       1.476463        213.5253
2017    5       7       1.76253         228.7371
2017    6       0       2.059734        240.8427
2017    6       1       1.964682        238.2716
2017    6       2       1.957014        238.0764
2017    6       3       1.8067          232.2624
2017    6       4       1.453592        213.3818
2017    6       5       1.271997        200.95
2017    6       6       1.501115        216.4766
2017    6       7       1.946823        237.9134
2017    7       0       2.517173        254.8022
2017    7       1       2.400088        251.1326
2017    7       2       1.888184        232.9286
2017    7       3       1.343365        202.1108
2017    7       4       1.505558        211.4867
2017    7       5       1.772872        225.842
2017    7       6       1.980624        235.8052
2017    7       7       2.126325        242.103
2017    8       0       2.11685         243.1356
2017    8       1       2.521373        252.8528
2017    8       2       2.432639        250.8016
2017    8       3       2.110898        242.1808
2017    8       4       2.049804        239.4901
2017    8       5       1.83989         230.8189
2017    8       6       1.983742        236.4102
2017    8       7       2.20702         244.6108
2017    9       0       2.532066        253.2258
2017    9       1       2.745958        256.5659
2017    9       2       2.341212        248.3585
2017    9       3       1.886583        233.9137
2017    9       4       1.843066        232.0578
2017    9       5       1.747276        227.8374
2017    9       6       2.057156        239.7887
2017    9       7       2.33771         248.8195
2017    10      0       2.649431        255.9618
2017    10      1       2.235059        246.4391
2017    10      2       2.079609        241.2526
2017    10      3       1.548029        218.227
2017    10      4       1.249914        198.9994
2017    10      5       1.196941        195.1821
2017    10      6       1.447141        212.9485
2017    10      7       1.659455        225.3206
2017    11      0       2.10694         244.372
2017    11      1       2.439539        253.4772
2017    11      2       2.348554        250.4474
2017    11      3       1.848578        233.7217
2017    11      4       1.24898         199.0043
2017    11      5       1.140382        189.9333
2017    11      6       1.626889        222.9684
2017    11      7       2.090974        242.8724
2017    12      0       2.168051        245.5401
2017    12      1       2.131162        243.4732
2017    12      2       2.270764        247.3556
2017    12      3       1.824516        232.2902
2017    12      4       1.315593        203.367
2017    12      5       0.7570521       148.5788
2017    12      6       1.360036        205.8215
2017    12      7       2.269828        247.1763
2017    13      0       2.496255        252.6782
2017    13      1       2.055689        239.6962
2017    13      2       1.800754        229.5529
2017    13      3       1.785416        228.8671
2017    13      4       1.740804        226.7508
2017    13      5       2.011719        237.4517
2017    13      6       2.936441        260.1455
2017    13      7       3.358428        266.6368
2017    14      0       2.879995        260.425
2017    14      1       2.485468        252.9447
2017    14      2       2.808803        259.0846
2017    14      3       3.05901         262.814
2017    14      4       2.896795        259.4317
2017    14      5       2.728833        255.4098
2017    14      6       2.48169         251.0888
2017    14      7       2.729692        256.4801
2017    15      0       2.448834        251.0715
2017    15      1       2.253356        246.3472
2017    15      2       2.248           246.076
2017    15      3       2.373522        249.1078
2017    15      4       2.344555        247.5384
2017    15      5       2.179867        242.7004
2017    15      6       2.222616        244.6993
2017    15      7       2.354539        249.2615
2017    16      0       2.609928        255.9338
2017    16      1       3.002283        261.7979
2017    16      2       2.955459        260.7439
2017    16      3       2.457923        252.4337
2017    16      4       2.287201        247.8624
2017    16      5       2.35572         249.4153
2017    16      6       2.697912        257.0895
2017    16      7       2.879185        260.8308
2017    17      0       2.791661        259.6326
2017    17      1       2.325524        249.4911
2017    17      2       2.325367        249.8028
2017    17      3       2.674398        256.6187
2017    17      4       2.330161        247.9052
2017    17      5       1.971719        236.984
2017    17      6       2.557961        254.8023
2017    17      7       3.235265        265.9365
2017    18      0       3.533998        268.6581
2017    18      1       3.043317        262.943
2017    18      2       2.592433        255.6635
2017    18      3       2.218544        246.5036
2017    18      4       1.884101        234.5607
2017    18      5       1.823041        231.8094
2017    18      6       2.263665        247.6374
2017    18      7       2.966548        262.9477
2017    19      0       3.25606         266.8589
2017    19      1       3.725686        270.6403
2017    19      2       3.811831        271.0085
2017    19      3       2.841338        260.7353
2017    19      4       1.542496        218.706
2017    19      5       0.7849581       153.7881
2017    19      6       1.2554          200.1837
2017    19      7       1.785428        232.4828
2017    20      0       2.180323        247.3468
2017    20      1       1.833947        234.429
2017    20      2       1.557099        221.0256
2017    20      3       1.346961        207.6072
2017    20      4       1.038399        181.5325
2017    20      5       0.9226996       169.0654
2017    20      6       1.541412        219.4079
2017    20      7       2.039002        242.72
2017    21      0       2.15004         246.4824
2017    21      1       1.941422        238.8339
2017    21      2       1.76399         231.274
2017    21      3       1.811371        233.1449
2017    21      4       1.481904        215.5253
2017    21      5       1.327152        205.0522
2017    21      6       1.728851        229.3898
2017    21      7       2.210968        248.8692
2017    22      0       2.538065        257.4683
2017    22      1       2.609653        258.4335
2017    22      2       2.506217        256.013
2017    22      3       2.473032        254.9279
2017    22      4       2.525063        255.9599
2017    22      5       2.415291        252.8064
2017    22      6       2.688313        258.4683
2017    22      7       2.846351        261.9932
2017    23      0       3.024287        265.0705
2017    23      1       3.287158        267.7048
2017    23      2       3.574892        269.3922
2017    23      3       3.834219        271.1104
2017    23      4       2.980854        262.4393
2017    23      5       2.206288        244.8965
2017    23      6       2.964796        261.7784
2017    23      7       3.40731         267.9842
2017    24      0       3.785537        271.1325
2017    24      1       3.620688        269.6025
2017    24      2       3.313023        266.5269
2017    24      3       3.081686        263.2291
2017    24      4       2.434937        251.3965
2017    24      5       2.107468        242.258
2017    24      6       2.508006        253.7512
2017    24      7       2.96435         263.2728
2017    25      0       3.277133        267.5361
2017    25      1       3.298783        267.693
2017    25      2       2.759815        260.0344
2017    25      3       2.357983        251.6215
2017    25      4       2.596887        257.2749
2017    25      5       2.999077        263.9675
2017    25      6       3.581878        270.6558
2017    25      7       3.898904        273.5054
2017    26      0       3.56545         271.3132
2017    26      1       3.087125        266.3823
2017    26      2       3.057474        265.5053
2017    26      3       2.806949        261.8601
2017    26      4       2.975839        263.8288
2017    26      5       3.214312        266.3664
2017    26      6       3.349996        268.3961
2017    26      7       3.448091        270.3572
2017    27      0       3.324177        269.6289
2017    27      1       3.592615        271.9006
2017    27      2       3.399046        270.2288
2017    27      3       2.922247        264.7137
2017    27      4       2.886354        263.1863
2017    27      5       3.000186        264.0152
2017    27      6       3.170538        266.3481
2017    27      7       3.658661        270.8642
2017    28      0       3.469413        268.9399
2017    28      1       2.914903        261.0883
2017    28      2       2.789943        258.4741
2017    28      3       3.131342        262.6583
2017    28      4       2.955236        260.1351
2017    28      5       2.75584         257.3957
2017    28      6       2.831915        259.4495
2017    28      7       3.205115        265.3433
2017    29      0       3.217459        265.5467
2017    29      1       2.715043        257.6623
2017    29      2       2.426238        251.1773
2017    29      3       1.878675        233.5788
2017    29      4       1.574583        218.5628
2017    29      5       1.701051        224.6999
2017    29      6       2.296257        247.3599
2017    29      7       2.377498        250.2698
2017    30      0       2.517147        253.5685
2017    30      1       2.521327        253.2093
2017    30      2       2.036217        239.9375
2017    30      3       1.821502        231.3269
2017    30      4       1.756226        227.9667
2017    30      5       1.757504        228.0594
2017    30      6       2.791256        258.2034
2017    30      7       3.375734        266.3932
2017    31      0       3.417171        266.7155
2017    31      1       3.106857        262.9726
2017    31      2       2.731558        256.6627
2017    31      3       2.50257         252.0368
2017    31      4       2.17003         243.5135
2017    31      5       2.378628        249.2984
2017    31      6       3.26346         264.7573
2017    31      7       3.789057        269.8634
2018    1       0       1.069791        181.302
2018    1       1       0.7149743       142.3381
2018    1       2       0.8026661       152.9856
2018    1       3       0.9945202       173.8378
2018    1       4       1.095912        183.1534
2018    1       5       0.9965402       173.9026
2018    1       6       0.9730724       172.2013
2018    1       7       1.028612        177.8507
2018    2       0       1.036328        178.4789
2018    2       1       0.9314659       168.0604
2018    2       2       0.9135449       165.9513
2018    2       3       1.02944         177.5631
2018    2       4       1.122945        186.0373
2018    2       5       1.172278        190.0788
2018    2       6       1.578452        218.5808
2018    2       7       1.742582        227.2565
2018    3       0       1.535567        216.7127
2018    3       1       1.376209        206.8657
2018    3       2       1.288175        201.1874
2018    3       3       1.412926        209.8004
2018    3       4       1.281408        199.8002
2018    3       5       1.209097        193.0695
2018    3       6       1.640351        220.91
2018    3       7       1.930266        234.6498
2018    4       0       1.628424        222.3515
2018    4       1       1.548923        217.8358
2018    4       2       1.578382        219.3113
2018    4       3       1.625615        221.5408
2018    4       4       1.628103        220.7089
2018    4       5       1.747646        225.9522
2018    4       6       1.905646        233.358
2018    4       7       2.090108        241.3103
2018    5       0       2.540957        254.1146
2018    5       1       2.542209        254.1774
2018    5       2       2.762156        256.9873
2018    5       3       2.676653        255.0891
2018    5       4       2.150533        242.2031
2018    5       5       2.010418        237.5595
2018    5       6       2.516724        251.7058
2018    5       7       2.923775        259.9696
2018    6       0       2.341235        248.2268
2018    6       1       1.750852        226.8402
2018    6       2       2.028596        237.204
2018    6       3       2.151871        241.4278
2018    6       4       1.998548        236.31
2018    6       5       2.16627         242.5918
2018    6       6       2.582154        253.4469
2018    6       7       2.812473        258.2922
2018    7       0       2.522894        252.8814
2018    7       1       2.102654        241.7034
2018    7       2       1.750958        228.0298
2018    7       3       1.510966        215.2232
2018    7       4       1.2651          198.6652
2018    7       5       1.261777        197.869
2018    7       6       1.822616        230.8014
2018    7       7       2.165443        244.0229
2018    8       0       2.885435        260.2319
2018    8       1       1.995486        239.3342
2018    8       2       1.79767         231.1058
2018    8       3       1.630705        223.3797
2018    8       4       1.80502         230.8418
2018    8       5       1.814134        231.1552
2018    8       6       2.412523        250.3148
2018    8       7       2.466683        252.0578
2018    9       0       2.685239        257.1628
2018    9       1       1.977852        238.3636
2018    9       2       1.786309        230.1125
2018    9       3       1.6449          222.0809
2018    9       4       1.798901        228.7049
2018    9       5       2.090269        240.1166
2018    9       6       2.418125        249.892
2018    9       7       2.297706        247.2109
2018    10      0       2.007434        238.0195
2018    10      1       1.45933         211.7904
2018    10      2       1.097978        185.1282
2018    10      3       0.7751426       151.3381
2018    10      4       0.7280077       145.587
2018    10      5       0.9223184       168.3708
2018    10      6       1.490206        214.0757
2018    10      7       1.984696        237.8546
2018    11      0       2.504583        253.2776
2018    11      1       2.880197        259.7005
2018    11      2       2.6677          255.9065
2018    11      3       2.34495         248.7157
2018    11      4       2.224846        244.8555
2018    11      5       1.85987         231.5871
2018    11      6       2.11033         240.8639
2018    11      7       2.477804        251.1766
2018    12      0       2.470261        251.4934
2018    12      1       2.528076        253.0174
2018    12      2       2.174992        242.9731
2018    12      3       1.667836        221.7977
2018    12      4       1.690899        223.1513
2018    12      5       1.68807         223.7338
2018    12      6       2.560241        253.0165
2018    12      7       3.158577        263.5498
2018    13      0       3.088984        263.1899
2018    13      1       2.860902        259.9097
2018    13      2       2.881892        260.0876
2018    13      3       2.454989        251.8752
2018    13      4       2.155589        243.8906
2018    13      5       2.267149        246.9842
2018    13      6       3.1004          263.5738
2018    13      7       3.427988        267.9124
2018    14      0       3.245787        265.9943
2018    14      1       2.584897        254.8373
2018    14      2       1.983178        237.7816
2018    14      3       1.80411         230.7626
2018    14      4       1.407521        208.8198
2018    14      5       1.134876        187.8282
2018    14      6       1.72043         227.7466
2018    14      7       2.779029        260.1727
2018    15      0       3.718872        270.4027
2018    15      1       3.240729        265.5332
2018    15      2       2.505664        253.8066
2018    15      3       1.546519        218.7517
2018    15      4       1.82326         234.429
2018    15      5       1.471633        214.366
2018    15      6       1.80692         231.4135
2018    15      7       2.57565         255.2662
2018    16      0       3.160571        264.37
2018    16      1       3.062451        262.5885
2018    16      2       2.904775        260.4202
2018    16      3       2.184805        244.5458
2018    16      4       1.656224        222.9213
2018    16      5       1.571492        218.3902
2018    16      6       2.342559        249.286
2018    16      7       3.413534        267.5596
2018    17      0       3.816989        270.7935
2018    17      1       3.934725        271.562
2018    17      2       3.630456        269.0117
2018    17      3       3.107061        263.3551
2018    17      4       2.773631        258.4844
2018    17      5       2.961223        261.7334
2018    17      6       3.619858        269.5419
2018    17      7       3.754744        271.2633
2018    18      0       3.504989        269.5737
2018    18      1       2.951953        263.532
2018    18      2       2.559802        256.2548
2018    18      3       2.555426        255.9954
2018    18      4       1.996178        239.773
2018    18      5       1.881353        234.6831
2018    18      6       2.079503        242.6432
2018    18      7       2.217138        247.6698
2018    19      0       2.27424         249.767
2018    19      1       2.353623        251.5548
2018    19      2       2.554972        256.3627
2018    19      3       2.640941        258.5889
2018    19      4       2.438461        253.9155
2018    19      5       2.313301        250.1532
2018    19      6       2.622396        257.8424
2018    19      7       3.389126        269.3567
2018    20      0       3.636389        271.0534
2018    20      1       3.337187        268.0942
2018    20      2       2.753806        261.0245
2018    20      3       1.822511        235.2077
2018    20      4       2.296248        251.5783
2018    20      5       2.11639         246.2086
2018    20      6       2.144498        246.8709
2018    20      7       2.426064        255.2453
2018    21      0       2.551367        258.3875
2018    21      1       2.814958        263.153
2018    21      2       3.07099         266.7842
2018    21      3       3.798013        273.2128
2018    21      4       3.396981        269.0354
2018    21      5       2.828056        261.1027
2018    21      6       2.340362        251.1065
2018    21      7       2.342368        252.0915
2018    22      0       2.215521        248.6083
2018    22      1       1.827704        233.8585
2018    22      2       1.599371        222.9431
2018    22      3       1.441124        213.6987
2018    22      4       1.183947        194.8607
2018    22      5       0.9441566       172.6851
2018    22      6       1.406603        212.2036
2018    22      7       1.862604        236.962
2018    23      0       2.133846        247.0033
2018    23      1       2.314932        251.7512
2018    23      2       2.527071        256.8411
2018    23      3       2.30844         251.9625
2018    23      4       1.968062        240.2912
2018    23      5       1.80279         232.6275
2018    23      6       2.396047        252.5912
2018    23      7       2.718291        259.7782
2018    24      0       2.700377        259.9447
2018    24      1       2.836195        262.6112
2018    24      2       3.454554        268.379
2018    24      3       2.739655        259.249
2018    24      4       2.52475         255.2943
2018    24      5       2.425884        253.0299
2018    24      6       2.497409        255.3341
2018    24      7       2.851995        262.8869
2018    25      0       2.934561        264.6694
2018    25      1       2.484598        256.5217
2018    25      2       2.673751        259.3512
2018    25      3       2.64287         258.1192
2018    25      4       2.484583        255.2782
2018    25      5       2.49125         255.77
2018    25      6       2.988044        264.8772
2018    25      7       3.694409        272.8904
2018    26      0       3.24275         269.2494
2018    26      1       3.144898        267.8846
2018    26      2       3.699772        272.0119
2018    26      3       2.194044        248.7856
2018    26      4       1.767809        232.0355
2018    26      5       1.871301        235.8286
2018    26      6       2.818249        261.447
2018    26      7       3.234917        267.7124
2018    27      0       4.053305        273.6042
2018    27      1       3.608501        269.8377
2018    27      2       2.793176        260.1822
2018    27      3       2.844845        260.6087
2018    27      4       2.497235        253.8412
2018    27      5       2.015303        239.7697
2018    27      6       2.661454        256.3161
2018    27      7       2.439097        251.8625
2018    28      0       2.602679        256.3606
2018    28      1       3.385661        266.4725
2018    28      2       2.814319        258.5859
2018    28      3       1.79341         231.0491
2018    28      4       1.660125        224.8901
2018    28      5       1.637904        223.5444
2018    28      6       1.766473        230.5951
2018    28      7       1.937955        238.3697
2018    29      0       1.935329        238.5396
2018    29      1       2.045146        242.2298
2018    29      2       2.514447        254.9991
2018    29      3       2.527801        254.9261
2018    29      4       1.633816        223.8985
2018    29      5       1.5867          221.47
2018    29      6       1.733774        229.6146
2018    29      7       1.918551        238.2174
2018    30      0       2.207507        247.9989
2018    30      1       2.762814        259.3553
2018    30      2       2.374695        251.3451
2018    30      3       1.884459        235.2067
2018    30      4       1.683776        225.9466
2018    30      5       1.482169        214.9573
2018    30      6       1.76262         230.818
2018    30      7       2.297188        250.4344
2018    31      0       2.460738        254.0334
2018    31      1       1.983057        240.2501
2018    31      2       2.003581        240.5966
2018    31      3       2.01216         240.6767
2018    31      4       1.99509         240.3596
2018    31      5       2.092093        243.2025
2018    31      6       2.382912        251.5304
2018    31      7       2.349154        251.1507
