####################################################################################################
# Month: 08Aug                                                                                     #
# Station: YAN                                                                                     #
# Frequency: 345 GHz                                                                               #
# Columns are: year    day     segment         tau     Tb (K)                                      #
####################################################################################################
2009    1       0       0.4642742       102.7666
2009    1       1       0.3928097       90.98872
2009    1       2       0.3485107       82.67726
2009    1       3       0.2554255       64.7734
2009    1       4       0.1527681       42.73501
2009    1       5       0.1719798       47.01158
2009    1       6       0.220177        57.24807
2009    1       7       0.1806047       48.76135
2009    2       0       0.164013        44.87738
2009    2       1       0.1515387       41.86565
2009    2       2       0.09933399      30.17801
2009    2       3       0.06808175      23.03093
2009    2       4       0.0655462       22.51962
2009    2       5       0.107369        33.22082
2009    2       6       0.2820384       71.11885
2009    2       7       0.4287297       98.11567
2009    3       0       0.4135801       95.76067
2009    3       1       0.3026155       75.49697
2009    3       2       0.3527879       84.71802
2009    3       3       0.5417041       115.9321
2009    3       4       0.5490497       117.0202
2009    3       5       0.7416978       143.3245
2009    3       6       0.9051265       161.4072
2009    3       7       0.9635332       167.2989
2009    4       0       0.9590891       167.1344
2009    4       1       0.8112511       151.2798
2009    4       2       0.7024242       137.8168
2009    4       3       0.6573083       131.6078
2009    4       4       0.5487271       116.2222
2009    4       5       0.5679946       119.2311
2009    4       6       0.7463024       142.9482
2009    4       7       0.7958347       149.0801
2009    5       0       0.6463963       130.4831
2009    5       1       0.5633747       118.5986
2009    5       2       0.4118258       94.37339
2009    5       3       0.3228729       78.31026
2009    5       4       0.2758506       69.17661
2009    5       5       0.2962993       73.14237
2009    5       6       0.4489676       100.1705
2009    5       7       0.6174317       125.4321
2009    6       0       0.5521159       116.3659
2009    6       1       0.4206545       95.89563
2009    6       2       0.3456756       82.71999
2009    6       3       0.3284536       79.23777
2009    6       4       0.2463478       63.18937
2009    6       5       0.2085999       55.38808
2009    6       6       0.5283205       111.4224
2009    6       7       0.8245362       150.0024
2009    7       0       0.9917788       167.3612
2009    7       1       0.9676302       165.4474
2009    7       2       0.7797168       145.3078
2009    7       3       0.8663165       154.8396
2009    7       4       0.752298        141.4961
2009    7       5       1.050464        170.8415
2009    7       6       0.995039        166.6196
2009    7       7       0.8510701       152.4299
2009    8       0       0.6819068       132.2099
2009    8       1       0.5054878       107.6355
2009    8       2       0.4460769       98.41199
2009    8       3       0.4377939       97.03493
2009    8       4       0.3569671       83.10495
2009    8       5       0.2393051       60.71811
2009    8       6       0.1809392       48.61272
2009    8       7       0.2058657       53.821
2009    9       0       0.1706082       46.35277
2009    9       1       0.1306036       37.50057
2009    9       2       0.1227681       35.71446
2009    9       3       0.1684066       45.71813
2009    9       4       0.251378        62.73145
2009    9       5       0.4067981       91.28702
2009    9       6       0.5595117       115.5308
2009    9       7       0.6221237       124.6031
2009    10      0       0.6031185       121.7141
2009    10      1       0.5369962       112.203
2009    10      2       0.5517741       114.5654
2009    10      3       0.6339193       126.1674
2009    10      4       0.7608201       142.0319
2009    10      5       0.8673002       154.0696
2009    10      6       0.8504729       153.0664
2009    10      7       0.8060386       148.3556
2009    11      0       0.7642298       142.9419
2009    11      1       0.7625383       142.8592
2009    11      2       0.6450727       128.5224
2009    11      3       0.8528454       151.7903
2009    11      4       0.8825109       155.0605
2009    11      5       0.9150438       158.5886
2009    11      6       1.029767        169.6479
2009    11      7       1.037184        170.6795
2009    12      0       0.9114788       158.8454
2009    12      1       0.7994001       146.6884
2009    12      2       0.6910419       133.5541
2009    12      3       0.5927443       120.608
2009    12      4       0.498488        106.6312
2009    12      5       0.5386353       112.7898
2009    12      6       0.5900628       120.5626
2009    12      7       0.673013        131.8149
2009    13      0       0.5632185       115.8254
2009    13      1       0.4687975       101.2823
2009    13      2       0.4761888       102.702
2009    13      3       0.4704338       102.2195
2009    13      4       0.4091643       92.60595
2009    13      5       0.4289847       96.19202
2009    13      6       0.5795291       119.6
2009    13      7       0.7028534       136.498
2009    14      0       0.5666436       117.7989
2009    14      1       0.4563953       101.2564
2009    14      2       0.3560525       84.32118
2009    14      3       0.2166686       57.09258
2009    14      4       0.1482816       42.1077
2009    14      5       0.2770433       68.9361
2009    14      6       0.4014769       91.45841
2009    14      7       0.3083114       75.00112
2009    15      0       0.225719        58.74622
2009    15      1       0.2217635       58.00972
2009    15      2       0.2200921       57.77481
2009    15      3       0.1716786       47.55919
2009    15      4       0.1227549       36.56276
2009    15      5       0.1674338       46.60642
2009    15      6       0.1441747       41.39985
2009    15      7       0.09469671      29.8565
2009    16      0       0.08004514      26.14093
2009    16      1       0.07161403      24.06188
2009    16      2       0.06332224      21.9946
2009    16      3       0.06552558      22.56445
2009    16      4       0.05583453      20.16347
2009    16      5       0.06543745      22.69185
2009    16      6       0.08568782      27.67549
2009    16      7       0.06339246      22.08655
2009    17      0       0.06076538      21.47033
2009    17      1       0.07537105      25.07797
2009    17      2       0.05643678      20.27778
2009    17      3       0.06171311      21.66202
2009    17      4       0.07691802      25.35575
2009    17      5       0.1735414       47.79806
2009    17      6       0.2307696       59.97773
2009    17      7       0.209885        55.59449
2009    18      0       0.1905379       51.65001
2009    18      1       0.1968138       53.04899
2009    18      2       0.1369933       39.83037
2009    18      3       0.1048247       32.32926
2009    18      4       0.08256867      26.94543
2009    18      5       0.1294371       38.11605
2009    18      6       0.2534864       64.58814
2009    18      7       0.334406        79.85399
2009    19      0       0.3375847       80.75588
2009    19      1       0.3000863       73.90914
2009    19      2       0.2112311       56.08041
2009    19      3       0.1510871       42.93236
2009    19      4       0.1011225       31.2727
2009    19      5       0.1231899       36.49773
2009    19      6       0.1746395       47.9359
2009    19      7       0.2869024       70.60246
2009    20      0       0.3208046       77.0385
2009    20      1       0.2487084       63.51324
2009    20      2       0.1386148       40.09228
2009    20      3       0.08183234      26.6059
2009    20      4       0.05792081      20.59923
2009    20      5       0.06114198      21.45577
2009    20      6       0.1468328       41.83103
2009    20      7       0.2887953       71.27225
2009    21      0       0.2715187       67.95463
2009    21      1       0.1576319       44.2163
2009    21      2       0.1160068       34.8219
2009    21      3       0.07397147      24.77214
2009    21      4       0.07221567      24.25229
2009    21      5       0.1671395       46.37653
2009    21      6       0.2535622       64.50869
2009    21      7       0.2243655       58.60754
2009    22      0       0.1768757       48.4827
2009    22      1       0.1829319       49.70379
2009    22      2       0.1658178       45.82137
2009    22      3       0.0736621       24.36513
2009    22      4       0.1501393       42.17418
2009    22      5       0.3153686       75.54013
2009    22      6       0.2647948       65.98099
2009    22      7       0.1393881       39.86646
2009    23      0       0.06985548      23.46348
2009    23      1       0.06146671      21.34667
2009    23      2       0.06376501      21.93821
2009    23      3       0.06712548      22.72958
2009    23      4       0.06631468      22.5109
2009    23      5       0.06888558      23.16378
2009    23      6       0.07592184      24.88075
2009    23      7       0.06690473      22.62639
2009    24      0       0.06219238      21.42781
2009    24      1       0.06305624      21.71804
2009    24      2       0.06151834      21.36069
2009    24      3       0.06082337      21.13585
2009    24      4       0.06258127      21.57618
2009    24      5       0.1149223       34.38116
2009    24      6       0.1791014       48.74884
2009    24      7       0.2149116       56.41239
2009    25      0       0.2176147       57.16028
2009    25      1       0.2252841       58.70532
2009    25      2       0.2600249       65.78217
2009    25      3       0.3714693       86.89478
2009    25      4       0.4088657       93.13601
2009    25      5       0.3616039       84.95172
2009    25      6       0.4066311       92.82886
2009    25      7       0.4988569       107.937
2009    26      0       0.5795053       119.5352
2009    26      1       0.8859312       157.4089
2009    26      2       1.051196        173.8514
2009    26      3       1.041185        172.8823
2009    26      4       0.944266        163.6271
2009    26      5       0.9241885       161.811
2009    26      6       0.9394632       163.4374
2009    26      7       1.018119        171.4049
2009    27      0       1.211901        187.2924
2009    27      1       1.071805        175.226
2009    27      2       0.844989        151.6301
2009    27      3       0.6298902       125.7207
2009    27      4       0.5541869       115.8086
2009    27      5       0.621164        125.4492
2009    27      6       0.7118963       136.9885
2009    27      7       0.7017615       135.71
2009    28      0       0.5823576       119.7814
2009    28      1       0.383976        88.39278
2009    28      2       0.3789763       87.25509
2009    28      3       0.3975311       90.25525
2009    28      4       0.3762523       86.58397
2009    28      5       0.3758526       86.54053
2009    28      6       0.4464585       98.54954
2009    28      7       0.5075021       108.5966
2009    29      0       0.4493004       99.71461
2009    29      1       0.2805672       69.64366
2009    29      2       0.307998        74.69928
2009    29      3       0.4595528       100.8813
2009    29      4       0.5638233       116.5836
2009    29      5       0.58929         120.3361
2009    29      6       0.6178377       124.5603
2009    29      7       0.6911189       134.639
2009    30      0       0.6984692       135.6973
2009    30      1       0.6500531       129.5718
2009    30      2       0.6017818       122.9559
2009    30      3       0.549117        115.0641
2009    30      4       0.4591804       100.8255
2009    30      5       0.4917336       106.1346
2009    30      6       0.5681552       118.0441
2009    30      7       0.6037652       123.4568
2009    31      0       0.5924633       121.6903
2009    31      1       0.5172267       110.9197
2009    31      2       0.521051        111.7005
2009    31      3       0.5543169       116.3336
2009    31      4       0.6080965       124.0983
2009    31      5       0.7823478       146.3112
2009    31      6       0.8817443       157.589
2009    31      7       0.896483        159.1417
2010    1       0       0.07079948      23.79688
2010    1       1       0.08436986      27.16437
2010    1       2       0.110289        33.38348
2010    1       3       0.09709547      30.25074
2010    1       4       0.1060193       32.32652
2010    1       5       0.1956293       52.44679
2010    1       6       0.3106271       75.45254
2010    1       7       0.4009001       91.93033
2010    2       0       0.4447101       99.23873
2010    2       1       0.5451015       114.5977
2010    2       2       0.7127237       137.3181
2010    2       3       0.5899605       120.6011
2010    2       4       0.3721037       86.30529
2010    2       5       0.4975836       107.3219
2010    2       6       0.7597533       142.4315
2010    2       7       0.7559104       142.0352
2010    3       0       0.8018897       147.8052
2010    3       1       1.000008        168.4925
2010    3       2       1.039906        172.3105
2010    3       3       0.7556103       142.7948
2010    3       4       1.058754        174.6486
2010    3       5       1.121391        178.4867
2010    3       6       0.8362155       150.1487
2010    3       7       0.2794151       68.03455
2010    4       0       0.1291837       36.79412
2010    4       1       0.1174492       34.08598
2010    4       2       0.1086918       32.08492
2010    4       3       0.1057423       31.5613
2010    4       4       0.09796419      29.85471
2010    4       5       0.1262005       36.76018
2010    4       6       0.3332731       80.2964
2010    4       7       0.6133257       125.938
2010    5       0       0.7513039       144.0409
2010    5       1       0.5642863       119.0553
2010    5       2       0.4245147       96.91751
2010    5       3       0.3527029       84.16297
2010    5       4       0.2939439       72.91714
2010    5       5       0.2604944       66.29269
2010    5       6       0.2880605       71.74414
2010    5       7       0.3407964       81.89966
2010    6       0       0.2697468       68.15491
2010    6       1       0.3281756       79.35252
2010    6       2       0.3027877       74.66946
2010    6       3       0.2654593       67.27964
2010    6       4       0.1941076       52.36965
2010    6       5       0.1042349       31.99079
2010    6       6       0.137649        39.76723
2010    6       7       0.1606136       44.78445
2010    7       0       0.1359389       39.18479
2010    7       1       0.1511286       42.56024
2010    7       2       0.1630234       45.05516
2010    7       3       0.1489767       41.81473
2010    7       4       0.1140847       33.737
2010    7       5       0.09472107      29.09728
2010    7       6       0.1302555       37.47847
2010    7       7       0.1470709       41.31624
2010    8       0       0.106714        32.02073
2010    8       1       0.08687755      27.42393
2010    8       2       0.08606378      27.28952
2010    8       3       0.09034243      28.38904
2010    8       4       0.08079884      26.04767
2010    8       5       0.08052261      25.99917
2010    8       6       0.120699        35.61027
2010    8       7       0.134421        38.7928
2010    9       0       0.09706824      30.11279
2010    9       1       0.09396398      29.47139
2010    9       2       0.09279586      29.22922
2010    9       3       0.08622538      27.62958
2010    9       4       0.05963882      20.9498
2010    9       5       0.05130369      18.79907
2010    9       6       0.09959467      30.86494
2010    9       7       0.1502037       42.66014
2010    10      0       0.1367344       39.53404
2010    10      1       0.1193251       35.52434
2010    10      2       0.1268683       37.27088
2010    10      3       0.1528251       43.22014
2010    10      4       0.2642683       66.36901
2010    10      5       0.341108        81.0733
2010    10      6       0.4814512       105.1171
2010    10      7       0.5825824       120.6585
2010    11      0       0.6350439       128.0457
2010    11      1       0.5661651       118.585
2010    11      2       0.5114383       110.3584
2010    11      3       0.5216322       111.8892
2010    11      4       0.4708395       103.5428
2010    11      5       0.4623601       101.9741
2010    11      6       0.3966318       90.85844
2010    11      7       0.2720832       67.86696
2010    12      0       0.2404137       61.70272
2010    12      1       0.2110682       55.65153
2010    12      2       0.1686499       46.59556
2010    12      3       0.1065019       32.40095
2010    12      4       0.1067556       32.36288
2010    12      5       0.139378        39.84516
2010    12      6       0.2153674       56.33259
2010    12      7       0.4206084       94.89773
2010    13      0       0.6428773       128.6865
2010    13      1       0.5687105       118.6601
2010    13      2       0.3515807       83.46233
2010    13      3       0.2147825       56.78228
2010    13      4       0.14376         41.13877
2010    13      5       0.1319354       38.48606
2010    13      6       0.3568172       84.31484
2010    13      7       0.5239368       112.2041
2010    14      0       0.4708982       103.9835
2010    14      1       0.3613284       85.29327
2010    14      2       0.3636918       85.64164
2010    14      3       0.3691828       86.59346
2010    14      4       0.3285017       79.17809
2010    14      5       0.2983286       73.45045
2010    14      6       0.4177479       95.05759
2010    14      7       0.5877921       121.6436
2010    15      0       0.4687982       103.9167
2010    15      1       0.2579825       66.01203
2010    15      2       0.2115876       56.29601
2010    15      3       0.1627398       45.71198
2010    15      4       0.1285584       37.85398
2010    15      5       0.130394        38.1742
2010    15      6       0.2319428       60.19629
2010    15      7       0.3398831       81.20935
2010    16      0       0.3308167       79.53286
2010    16      1       0.2204854       57.50378
2010    16      2       0.151038        42.03117
2010    16      3       0.1270206       36.47124
2010    16      4       0.1303001       37.22659
2010    16      5       0.1581438       43.51722
2010    16      6       0.2443895       62.23476
2010    16      7       0.3519965       82.80484
2010    17      0       0.4007974       91.27658
2010    17      1       0.3129004       75.31667
2010    17      2       0.2593025       64.95441
2010    17      3       0.236629        60.33402
2010    17      4       0.1765097       47.6971
2010    17      5       0.1389156       39.47372
2010    17      6       0.1997026       53.05023
2010    17      7       0.3214266       77.15749
2010    18      0       0.3567888       83.62911
2010    18      1       0.2044749       54.03974
2010    18      2       0.12443         36.50213
2010    18      3       0.08550146      27.32075
2010    18      4       0.0626671       21.65935
2010    18      5       0.05606162      19.99814
2010    18      6       0.07568236      24.92942
2010    18      7       0.1265279       36.94128
2010    19      0       0.160092        44.5505
2010    19      1       0.1419479       40.50101
2010    19      2       0.1034355       31.51093
2010    19      3       0.08764002      27.68564
2010    19      4       0.08062587      25.94192
2010    19      5       0.09004732      28.25742
2010    19      6       0.1157539       34.44091
2010    19      7       0.2101824       55.17016
2010    20      0       0.2567825       64.70967
2010    20      1       0.1987596       52.8393
2010    20      2       0.1090101       32.8989
2010    20      3       0.07456047      24.6596
2010    20      4       0.06713663      22.70367
2010    20      5       0.0681216       23.00055
2010    20      6       0.2062973       54.48151
2010    20      7       0.2951647       72.36239
2010    21      0       0.3505808       82.62549
2010    21      1       0.3978225       90.97841
2010    21      2       0.4451383       98.85971
2010    21      3       0.4650635       101.9454
2010    21      4       0.3417524       81.05961
2010    21      5       0.3527824       83.20357
2010    21      6       0.4508492       99.86179
2010    21      7       0.5746085       118.4154
2010    22      0       0.6804377       132.8674
2010    22      1       0.6572995       130.1225
2010    22      2       0.5481337       115.2353
2010    22      3       0.458775        101.5037
2010    22      4       0.4386348       98.33248
2010    22      5       0.4973205       107.8003
2010    22      6       0.5182745       110.9422
2010    22      7       0.6393545       128.063
2010    23      0       0.6977881       135.7271
2010    23      1       0.5600451       117.0147
2010    23      2       0.4498577       99.9469
2010    23      3       0.3699285       86.43968
2010    23      4       0.3405174       81.11354
2010    23      5       0.4188579       95.00065
2010    23      6       0.4803769       105.36
2010    23      7       0.6202394       126.1247
2010    24      0       0.6274661       127.5162
2010    24      1       0.4382766       99.31347
2010    24      2       0.2643857       67.5363
2010    24      3       0.1736131       48.3874
2010    24      4       0.1476631       42.42227
2010    24      5       0.1809307       49.8059
2010    24      6       0.3607373       85.61342
2010    24      7       0.4189903       95.91896
2010    25      0       0.4291329       97.47949
2010    25      1       0.3630528       85.6951
2010    25      2       0.3708225       87.00927
2010    25      3       0.4045761       93.01748
2010    25      4       0.4332415       98.11379
2010    25      5       0.3804833       89.01689
2010    25      6       0.376932        88.46275
2010    25      7       0.429457        97.59017
2010    26      0       0.4866396       106.5461
2010    26      1       0.4702633       103.7741
2010    26      2       0.4520628       100.6807
2010    26      3       0.4663722       102.837
2010    26      4       0.4821462       105.2936
2010    26      5       0.4570508       101.2135
2010    26      6       0.5272029       112.4887
2010    26      7       0.7146091       138.6979
2010    27      0       0.8747195       157.5027
2010    27      1       0.8702727       157.2483
2010    27      2       0.7235646       140.1091
2010    27      3       0.5535555       117.1124
2010    27      4       0.4902425       107.2602
2010    27      5       0.5459359       115.6778
2010    27      6       0.620086        126.4326
2010    27      7       0.768561        144.8681
2010    28      0       0.9105991       159.9209
2010    28      1       0.9872762       167.2657
2010    28      2       0.8465217       151.1844
2010    28      3       0.4786636       103.0943
2010    28      4       0.4671352       101.7794
2010    28      5       0.6434665       128.59
2010    28      6       0.8086926       149.3826
2010    28      7       0.7469546       141.1921
2010    29      0       0.4658594       101.87
2010    29      1       0.4237925       95.14276
2010    29      2       0.4780089       103.7177
2010    29      3       0.3693379       85.85171
2010    29      4       0.3426646       81.03807
2010    29      5       0.3976831       90.90082
2010    29      6       0.5962824       121.6506
2010    29      7       0.6429595       127.8881
2010    30      0       0.4435089       98.9576
2010    30      1       0.5065657       109.1161
2010    30      2       0.5959989       122.4077
2010    30      3       0.6633296       131.5499
2010    30      4       0.7376277       140.6314
2010    30      5       0.6868123       134.2404
2010    30      6       0.6550408       130.3337
2010    30      7       0.6559014       130.1261
2010    31      0       0.6833483       133.6543
2010    31      1       0.6390195       128.3036
2010    31      2       0.5110309       110.0349
2010    31      3       0.4720413       103.6807
2010    31      4       0.5698618       118.4106
2010    31      5       0.578615        119.4941
2010    31      6       0.4279847       96.46284
2010    31      7       0.3797138       87.91306
2011    1       0       0.3923567       88.62846
2011    1       1       0.3887647       88.31835
2011    1       2       0.4080013       91.59845
2011    1       3       0.3864039       88.21303
2011    1       4       0.3475068       81.46833
2011    1       5       0.3378634       79.05831
2011    1       6       0.3449731       80.72218
2011    1       7       0.3606267       83.82628
2011    2       0       0.3509313       82.11795
2011    2       1       0.342229        80.38925
2011    2       2       0.3008775       72.72213
2011    2       3       0.2571403       64.41537
2011    2       4       0.2394522       60.93143
2011    2       5       0.3179298       76.76846
2011    2       6       0.3374342       80.46281
2011    2       7       0.3155956       76.52468
2011    3       0       0.2551802       64.68655
2011    3       1       0.2381315       61.49623
2011    3       2       0.2546099       64.79038
2011    3       3       0.2810501       70.17673
2011    3       4       0.3280013       79.50618
2011    3       5       0.5055135       109.7593
2011    3       6       0.7661034       146.054
2011    3       7       1.022834        173.5102
2011    4       0       1.250282        191.6556
2011    4       1       1.194196        186.8389
2011    4       2       1.431936        203.1528
2011    4       3       1.033112        172.3596
2011    4       4       0.8802389       155.8753
2011    4       5       1.074913        174.4405
2011    4       6       1.118504        179.2911
2011    4       7       1.039144        172.1821
2011    5       0       1.017686        170.7666
2011    5       1       1.113364        179.2919
2011    5       2       1.082199        176.4945
2011    5       3       1.055004        173.7331
2011    5       4       1.007591        169.124
2011    5       5       1.082946        175.8996
2011    5       6       1.060862        174.0893
2011    5       7       1.030904        171.7453
2011    6       0       1.030029        171.9144
2011    6       1       0.8718903       156.2393
2011    6       2       0.7312433       139.6227
2011    6       3       0.6197496       124.8396
2011    6       4       0.5301835       111.2839
2011    6       5       0.5203239       109.5771
2011    6       6       0.6528295       128.5
2011    6       7       0.8399366       151.1695
2011    7       0       0.8100729       148.5606
2011    7       1       0.7161404       137.6636
2011    7       2       0.6724486       131.986
2011    7       3       0.6330123       126.6954
2011    7       4       0.6163711       124.315
2011    7       5       0.7035537       136.418
2011    7       6       0.8405473       152.4028
2011    7       7       0.8673912       155.3441
2011    8       0       0.9459342       163.5647
2011    8       1       0.80639         149.0261
2011    8       2       0.6924982       135.0872
2011    8       3       0.5257612       111.6943
2011    8       4       0.4772552       104.3383
2011    8       5       0.5004631       107.7289
2011    8       6       0.6874049       133.9592
2011    8       7       0.7571006       142.6487
2011    9       0       0.6664148       131.6021
2011    9       1       0.5280586       112.3625
2011    9       2       0.3709657       86.61096
2011    9       3       0.3190201       77.07255
2011    9       4       0.3067113       74.72638
2011    9       5       0.3539837       83.43306
2011    9       6       0.4800478       104.9919
2011    9       7       0.6739627       133.1164
2011    10      0       0.7513805       143.0954
2011    10      1       0.689776        135.5214
2011    10      2       0.562293        118.1601
2011    10      3       0.620955        126.2076
2011    10      4       0.5837228       120.8993
2011    10      5       0.6177014       125.1381
2011    10      6       0.7580846       143.1599
2011    10      7       0.7910061       147.3018
2011    11      0       0.6495383       129.7728
2011    11      1       0.47527         104.0808
2011    11      2       0.3672147       85.41828
2011    11      3       0.3284622       78.28203
2011    11      4       0.3015129       73.03117
2011    11      5       0.2732466       67.50777
2011    11      6       0.5544858       115.1552
2011    11      7       0.8625632       153.2661
2011    12      0       0.706288        135.3372
2011    12      1       0.4210036       94.14305
2011    12      2       0.2822496       69.31709
2011    12      3       0.2285085       58.62725
2011    12      4       0.2719629       67.266
2011    12      5       0.4392757       97.28113
2011    12      6       0.6941832       134.3263
2011    12      7       0.8580309       154.0315
2011    13      0       1.002004        168.3363
2011    13      1       0.9247044       160.8202
2011    13      2       0.8393624       151.7862
2011    13      3       0.7574587       141.9748
2011    13      4       0.5435773       113.8056
2011    13      5       0.4736145       103.2778
2011    13      6       0.5242349       111.2795
2011    13      7       0.7338987       139.8453
2011    14      0       0.8409929       152.4347
2011    14      1       0.7471161       141.8405
2011    14      2       0.6280649       126.4423
2011    14      3       0.5754334       118.9557
2011    14      4       0.4523833       100.272
2011    14      5       0.5142169       110.1485
2011    14      6       0.7991019       148.037
2011    14      7       0.9878173       167.8712
2011    15      0       0.9617472       165.7778
2011    15      1       0.8341717       152.5377
2011    15      2       0.6851354       134.5226
2011    15      3       0.5329744       113.2756
2011    15      4       0.4937357       107.0801
2011    15      5       0.6229257       125.9422
2011    15      6       0.6945364       135.7256
2011    15      7       0.7276133       139.9433
2011    16      0       0.677048        133.3687
2011    16      1       0.5565969       116.7635
2011    16      2       0.5930818       122.5376
2011    16      3       0.6154283       125.9517
2011    16      4       0.5751174       119.978
2011    16      5       0.5740005       119.8015
2011    16      6       0.5381702       114.2225
2011    16      7       0.5292826       113.1324
2011    17      0       0.6374852       128.9616
2011    17      1       0.6673515       132.8939
2011    17      2       0.5370047       114.3357
2011    17      3       0.4552949       101.1834
2011    17      4       0.3889043       89.68731
2011    17      5       0.4060206       92.57564
2011    17      6       0.4580577       101.0846
2011    17      7       0.4870768       105.8258
2011    18      0       0.4288343       96.40448
2011    18      1       0.3480706       82.56325
2011    18      2       0.3179681       76.98813
2011    18      3       0.3095635       75.31108
2011    18      4       0.2457076       62.64019
2011    18      5       0.2666949       66.73194
2011    18      6       0.3461534       81.51238
2011    18      7       0.3809975       87.48436
2011    19      0       0.406525        91.72927
2011    19      1       0.4826415       103.841
2011    19      2       0.4886139       104.5966
2011    19      3       0.4064604       91.36147
2011    19      4       0.3735113       86.01782
2011    19      5       0.4231005       94.76887
2011    19      6       0.5091924       108.8492
2011    19      7       0.626402        126.0279
2011    20      0       0.7183084       137.8435
2011    20      1       0.6702975       131.8168
2011    20      2       0.5681475       117.47
2011    20      3       0.452292        99.5316
2011    20      4       0.3797219       87.26869
2011    20      5       0.4208936       94.32185
2011    20      6       0.5464173       114.5977
2011    20      7       0.6961882       135.522
2011    21      0       0.7410175       141.3376
2011    21      1       0.7096993       137.4964
2011    21      2       0.7977974       148.5215
2011    21      3       0.7303087       139.3183
2011    21      4       0.3564007       83.42324
2011    21      5       0.3454367       81.47193
2011    21      6       0.3479781       81.71705
2011    21      7       0.2269194       58.03887
2011    22      0       0.1399069       39.10311
2011    22      1       0.1291735       36.43768
2011    22      2       0.1224531       34.75658
2011    22      3       0.1144377       33.12753
2011    22      4       0.1082762       31.87771
2011    22      5       0.1080698       32.22955
2011    22      6       0.1182456       34.8428
2011    22      7       0.1423999       40.58096
2011    23      0       0.1754817       47.91189
2011    23      1       0.2018429       53.63786
2011    23      2       0.2046712       54.36261
2011    23      3       0.2087798       55.29104
2011    23      4       0.2246994       58.64754
2011    23      5       0.4379079       97.70688
2011    23      6       0.7768068       145.1465
2011    23      7       0.7957831       147.242
2011    24      0       0.8170851       149.0982
2011    24      1       0.7807505       145.2374
2011    24      2       0.6065663       122.8435
2011    24      3       0.4218658       94.58264
2011    24      4       0.3497379       81.96569
2011    24      5       0.4171207       93.77822
2011    24      6       0.5060056       107.9412
2011    24      7       0.5051166       107.8564
2011    25      0       0.5255262       111.1722
2011    25      1       0.5663425       117.3318
2011    25      2       0.6066721       123.073
2011    25      3       0.5927884       121.0773
2011    25      4       0.5380882       113.3351
2011    25      5       0.7816299       145.8908
2011    25      6       0.9538875       164.8159
2011    25      7       1.035788        172.6555
2011    26      0       0.9959385       168.9082
2011    26      1       0.792479        147.7081
2011    26      2       0.6012877       122.7695
2011    26      3       0.5316064       112.5609
2011    26      4       0.5615183       116.8581
2011    26      5       0.572778        118.6827
2011    26      6       0.6300529       127.2617
2011    26      7       0.7682871       145.3195
2011    27      0       0.7806416       146.9241
2011    27      1       0.6454884       129.9589
2011    27      2       0.574771        120.0995
2011    27      3       0.5042119       109.6156
2011    27      4       0.4153869       95.48522
2011    27      5       0.5024818       109.6045
2011    27      6       0.6428672       129.8274
2011    27      7       0.7572133       144.5981
2011    28      0       0.8478599       155.5197
2011    28      1       0.7790579       147.5612
2011    28      2       0.5853045       122.2384
2011    28      3       0.4164811       95.56272
2011    28      4       0.2716317       68.77099
2011    28      5       0.2821158       70.91385
2011    28      6       0.3511269       83.99927
2011    28      7       0.5249369       112.8496
2011    29      0       0.635616        129.2346
2011    29      1       0.5964962       123.9973
2011    29      2       0.5041075       110.0004
2011    29      3       0.4572694       102.4554
2011    29      4       0.4227915       96.64501
2011    29      5       0.5815617       120.925
2011    29      6       0.8538054       155.2851
2011    29      7       1.004558        170.4425
2011    30      0       1.066599        176.5788
2011    30      1       0.7322804       141.4512
2011    30      2       0.4183828       95.762
2011    30      3       0.5299658       113.5535
2011    30      4       0.5681301       118.9923
2011    30      5       0.6211232       126.2871
2011    30      6       0.8033015       149.5815
2011    30      7       0.9004484       160.5651
2011    31      0       1.053455        175.0819
2011    31      1       0.8743361       157.5033
2011    31      2       0.7093593       137.85
2011    31      3       0.715846        138.3559
2011    31      4       0.5342865       113.0251
2011    31      5       0.4949985       107.0683
2011    31      6       0.8245387       151.5819
2011    31      7       0.9411976       163.9138
2012    1       0       1.085679        175.5506
2012    1       1       1.020731        170.2796
2012    1       2       1.153069        180.9702
2012    1       3       1.104248        176.6903
2012    1       4       1.046775        172.1939
2012    1       5       0.9894088       167.8059
2012    1       6       0.8549621       153.8084
2012    1       7       0.7973164       147.8469
2012    2       0       0.9813158       167.273
2012    2       1       0.9129287       160.59
2012    2       2       0.7438471       141.9147
2012    2       3       0.8494884       154.4763
2012    2       4       0.6225026       126.6506
2012    2       5       0.4871199       106.8798
2012    2       6       0.7064716       137.1742
2012    2       7       0.7663922       144.1863
2012    3       0       0.6129499       124.8351
2012    3       1       0.3966243       91.18189
2012    3       2       0.2213745       57.6297
2012    3       3       0.1501929       42.40063
2012    3       4       0.12035         35.65655
2012    3       5       0.1420836       40.67048
2012    3       6       0.33523         79.87465
2012    3       7       0.5706662       117.6856
2012    4       0       0.4887268       105.8724
2012    4       1       0.2702806       67.68478
2012    4       2       0.1495          42.22292
2012    4       3       0.1060716       32.21871
2012    4       4       0.08751489      27.7329
2012    4       5       0.1005861       30.89276
2012    4       6       0.238887        60.97261
2012    4       7       0.3495543       82.15707
2012    5       0       0.1959226       51.91069
2012    5       1       0.09825466      30.34192
2012    5       2       0.07349407      24.47882
2012    5       3       0.08274359      26.77356
2012    5       4       0.1677492       46.24852
2012    5       5       0.6442031       127.6134
2012    5       6       1.081944        174.9493
2012    5       7       1.175548        183.6219
2012    6       0       0.9171812       159.8651
2012    6       1       0.492867        106.308
2012    6       2       0.1587482       44.37631
2012    6       3       0.08046603      26.29464
2012    6       4       0.09100539      28.79838
2012    6       5       0.0918845       29.11957
2012    6       6       0.1770558       48.59055
2012    6       7       0.2472396       63.35333
2012    7       0       0.110084        33.41709
2012    7       1       0.07802225      25.52628
2012    7       2       0.06962385      23.52337
2012    7       3       0.06279237      21.87084
2012    7       4       0.05309981      19.39457
2012    7       5       0.0583051       20.7272
2012    7       6       0.1376846       39.64513
2012    7       7       0.1792046       48.74116
2012    8       0       0.08678542      27.49346
2012    8       1       0.08689117      27.42786
2012    8       2       0.07182759      23.80752
2012    8       3       0.05846229      20.52723
2012    8       4       0.05446607      19.52004
2012    8       5       0.05903021      20.69326
2012    8       6       0.1254671       36.7136
2012    8       7       0.1550716       43.43282
2012    9       0       0.08374896      26.79964
2012    9       1       0.08300552      26.70111
2012    9       2       0.07015724      23.63974
2012    9       3       0.05969235      21.0759
2012    9       4       0.06077423      21.34028
2012    9       5       0.06642425      22.77946
2012    9       6       0.1591425       44.51364
2012    9       7       0.2333284       60.20114
2012    10      0       0.1729635       47.66538
2012    10      1       0.09659676      30.16305
2012    10      2       0.07809392      25.71476
2012    10      3       0.08239906      26.62428
2012    10      4       0.08104115      26.32126
2012    10      5       0.08543244      27.38675
2012    10      6       0.1599103       44.58904
2012    10      7       0.2523164       63.96668
2012    11      0       0.3006606       73.45044
2012    11      1       0.237109        61.07474
2012    11      2       0.1784971       48.74266
2012    11      3       0.1344965       38.99433
2012    11      4       0.120037        35.65555
2012    11      5       0.1655367       45.907
2012    11      6       0.2017019       53.69232
2012    11      7       0.2563619       64.81963
2012    12      0       0.2718801       67.91929
2012    12      1       0.2144778       56.423
2012    12      2       0.1392338       40.02591
2012    12      3       0.1035988       31.76372
2012    12      4       0.09782693      30.36724
2012    12      5       0.1457375       41.38936
2012    12      6       0.2271112       58.66733
2012    12      7       0.3679972       85.18104
2012    13      0       0.3678211       85.39854
2012    13      1       0.3165012       76.11395
2012    13      2       0.3134425       75.39167
2012    13      3       0.3684625       85.39657
2012    13      4       0.3227353       77.2847
2012    13      5       0.2922213       71.69295
2012    13      6       0.3996023       91.11998
2012    13      7       0.5662267       117.5288
2012    14      0       0.5819889       119.9607
2012    14      1       0.4318463       97.07247
2012    14      2       0.2911586       71.80727
2012    14      3       0.1842354       50.01623
2012    14      4       0.1315702       38.19864
2012    14      5       0.1907771       51.36503
2012    14      6       0.2753522       68.49991
2012    14      7       0.290501        71.4995
2012    15      0       0.2059064       54.8289
2012    15      1       0.1632668       45.6065
2012    15      2       0.1684168       46.67667
2012    15      3       0.1957429       52.59057
2012    15      4       0.1945904       52.41123
2012    15      5       0.3838077       89.16821
2012    15      6       0.7108388       138.2253
2012    15      7       0.9400351       163.3139
2012    16      0       0.9635469       164.8141
2012    16      1       0.9051153       159.1614
2012    16      2       0.8719279       156.1849
2012    16      3       0.7765304       145.4094
2012    16      4       0.5234844       111.4511
2012    16      5       0.4361454       97.383
2012    16      6       0.5415409       113.9557
2012    16      7       0.5739013       118.6479
2012    17      0       0.3301042       78.98655
2012    17      1       0.2138833       56.34441
2012    17      2       0.1663285       45.95829
2012    17      3       0.1146099       34.05004
2012    17      4       0.06511226      22.32302
2012    17      5       0.05836604      20.6527
2012    17      6       0.08146349      26.39273
2012    17      7       0.0879105       27.95317
2012    18      0       0.09612827      29.89657
2012    18      1       0.1656133       45.8878
2012    18      2       0.1979018       52.91972
2012    18      3       0.2140778       56.21283
2012    18      4       0.219017        57.15455
2012    18      5       0.4639889       100.9797
2012    18      6       0.4821902       103.798
2012    18      7       0.2925753       71.39558
2012    19      0       0.1600082       44.54236
2012    19      1       0.1240233       35.95573
2012    19      2       0.1852885       48.78307
2012    19      3       0.2189426       55.48135
2012    19      4       0.2031861       52.39202
2012    19      5       0.1650157       45.12001
2012    19      6       0.1521692       42.6925
2012    19      7       0.1464653       41.43299
2012    20      0       0.07623902      25.14029
2012    20      1       0.04385931      17.0262
2012    20      2       0.0411013       16.301
2012    20      3       0.0429358       16.77782
2012    20      4       0.04407475      17.08808
2012    20      5       0.07803284      25.84066
2012    20      6       0.2307329       59.93156
2012    20      7       0.3193282       77.21715
2012    21      0       0.3605745       85.01129
2012    21      1       0.285381        71.067
2012    21      2       0.2221144       58.31808
2012    21      3       0.1901413       51.52695
2012    21      4       0.169226        47.03142
2012    21      5       0.415972        94.74355
2012    21      6       0.6749888       132.8655
2012    21      7       0.9426435       163.4216
2012    22      0       1.154783        181.2586
2012    22      1       1.132221        179.3442
2012    22      2       1.009433        168.6459
2012    22      3       1.071128        174.1772
2012    22      4       1.094845        176.4369
2012    22      5       1.027814        170.2697
2012    22      6       0.8564012       154.117
2012    22      7       0.7582897       143.4088
2012    23      0       0.7547671       142.7634
2012    23      1       0.749072        141.8309
2012    23      2       0.8302359       150.5783
2012    23      3       0.718106        137.354
2012    23      4       0.5694829       117.9293
2012    23      5       0.6064747       122.959
2012    23      6       0.6917076       134.5225
2012    23      7       0.656873        130.5111
2012    24      0       0.5737162       119.2941
2012    24      1       0.6928707       135.1527
2012    24      2       0.9881983       167.3418
2012    24      3       1.193637        184.9483
2012    24      4       1.093017        177.7594
2012    24      5       0.8525258       155.1204
2012    24      6       0.8417862       154.1265
2012    24      7       0.9564294       165.8471
2012    25      0       1.063277        175.4711
2012    25      1       0.8579139       155.5285
2012    25      2       0.9431269       164.9669
2012    25      3       1.259591        191.6211
2012    25      4       1.351007        197.4532
2012    25      5       1.058902        174.6673
2012    25      6       1.011192        170.4426
2012    25      7       1.268105        191.7039
2012    26      0       1.338397        196.1279
2012    26      1       1.238405        189.6304
2012    26      2       1.039217        173.4786
2012    26      3       0.8977092       159.5577
2012    26      4       0.856558        155.0431
2012    26      5       0.8424038       153.5096
2012    26      6       0.9478225       164.4866
2012    26      7       1.006368        170.3528
2012    27      0       0.9949943       169.1981
2012    27      1       0.8712597       156.7789
2012    27      2       0.8360665       153.1001
2012    27      3       0.8777306       157.4748
2012    27      4       0.796217        148.2115
2012    27      5       0.7253334       139.8635
2012    27      6       0.7712481       145.3659
2012    27      7       0.8138347       150.4601
2012    28      0       0.8124927       150.584
2012    28      1       0.7213362       139.9522
2012    28      2       0.6004055       123.6893
2012    28      3       0.5675683       118.8221
2012    28      4       0.5082338       109.8199
2012    28      5       0.4403446       98.90364
2012    28      6       0.4116304       93.90395
2012    28      7       0.4537223       100.9251
2012    29      0       0.354394        83.96447
2012    29      1       0.2733996       68.40903
2012    29      2       0.2294807       59.4824
2012    29      3       0.1741193       47.82198
2012    29      4       0.1749115       47.99396
2012    29      5       0.1837067       49.88739
2012    29      6       0.3008709       73.73656
2012    29      7       0.357971        84.27413
2012    30      0       0.2413261       61.89709
2012    30      1       0.144099        40.8986
2012    30      2       0.1039607       31.56722
2012    30      3       0.1028486       31.31965
2012    30      4       0.1319051       38.06126
2012    30      5       0.2171338       56.56532
2012    30      6       0.4120686       93.10417
2012    30      7       0.6823399       132.8822
2012    31      0       0.7739397       144.1303
2012    31      1       0.5207687       110.5494
2012    31      2       0.3407497       80.69002
2012    31      3       0.2837853       69.85706
2012    31      4       0.2532479       63.81364
2012    31      5       0.287451        70.57437
2012    31      6       0.5025094       107.6633
2012    31      7       0.7162765       137.4494
2013    1       0       0.5769895       119.3251
2013    1       1       0.5900003       121.402
2013    1       2       0.5684309       118.2546
2013    1       3       0.5492578       115.1641
2013    1       4       0.457839        100.9647
2013    1       5       0.4140659       93.72224
2013    1       6       0.5026564       108.1677
2013    1       7       0.6329568       127.1322
2013    2       0       0.7426079       141.2673
2013    2       1       0.7763661       145.4299
2013    2       2       0.8228146       150.9361
2013    2       3       0.85289         154.3134
2013    2       4       0.7265094       139.5631
2013    2       5       0.7973128       147.7739
2013    2       6       0.916973        160.6968
2013    2       7       0.8772361       157.0096
2013    3       0       1.017165        170.8869
2013    3       1       1.002047        169.2571
2013    3       2       1.010872        170.0052
2013    3       3       0.9972727       168.5355
2013    3       4       0.8977291       158.4578
2013    3       5       0.8668159       154.7462
2013    3       6       0.8597697       153.8199
2013    3       7       0.8303681       151.0514
2013    4       0       0.7766737       144.5598
2013    4       1       0.7269849       138.2841
2013    4       2       0.7028309       135.1431
2013    4       3       0.6994774       134.6639
2013    4       4       0.7214515       137.5302
2013    4       5       0.8252628       149.9656
2013    4       6       1.006986        169.5149
2013    4       7       0.9574186       165.4024
2013    5       0       0.9227097       162.1899
2013    5       1       0.6907914       135.5298
2013    5       2       0.571008        119.0058
2013    5       3       0.5641582       117.8052
2013    5       4       0.486875        106.2005
2013    5       5       0.5800902       120.1488
2013    5       6       0.7675258       144.4119
2013    5       7       0.883566        157.1288
2013    6       0       0.7965579       147.4334
2013    6       1       0.4626232       101.6636
2013    6       2       0.452765        100.1403
2013    6       3       0.5387947       113.8489
2013    6       4       0.4739562       103.9768
2013    6       5       0.5409507       114.2435
2013    6       6       0.9649533       165.0022
2013    6       7       1.154047        181.6518
2013    7       0       1.031298        171.1056
2013    7       1       0.859251        154.4119
2013    7       2       0.7119639       137.3311
2013    7       3       0.7269288       138.8897
2013    7       4       0.7819374       145.348
2013    7       5       0.8854445       156.3333
2013    7       6       0.9529953       163.1416
2013    7       7       0.9361328       161.3644
2013    8       0       0.8754668       155.0326
2013    8       1       0.7443064       140.4157
2013    8       2       0.6936318       134.1549
2013    8       3       0.6324549       126.0096
2013    8       4       0.6138658       122.7483
2013    8       5       0.6216086       123.7639
2013    8       6       0.6270253       124.7216
2013    8       7       0.5743883       117.5654
2013    9       0       0.5405325       112.4047
2013    9       1       0.5829546       118.1689
2013    9       2       0.5684834       116.3862
2013    9       3       0.5167221       108.7143
2013    9       4       0.4707871       102.0974
2013    9       5       0.4927608       105.8517
2013    9       6       0.5044033       107.8351
2013    9       7       0.3835335       88.1392
2013    10      0       0.309897        74.83805
2013    10      1       0.238803        61.13027
2013    10      2       0.2498215       63.29873
2013    10      3       0.358876        83.45645
2013    10      4       0.4228977       94.34621
2013    10      5       0.4095486       91.66103
2013    10      6       0.4101102       91.97379
2013    10      7       0.4405541       96.93581
2013    11      0       0.4817795       102.3085
2013    11      1       0.4596425       99.24729
2013    11      2       0.448287        97.92955
2013    11      3       0.3998583       90.37455
2013    11      4       0.3665659       84.42646
2013    11      5       0.3432022       80.29868
2013    11      6       0.3742007       86.08042
2013    11      7       0.4088711       92.26193
2013    12      0       0.3768921       86.56989
2013    12      1       0.3357528       79.51683
2013    12      2       0.3418016       81.00647
2013    12      3       0.3304341       79.45141
2013    12      4       0.3043691       74.61543
2013    12      5       0.3165625       76.99711
2013    12      6       0.3481685       82.92984
2013    12      7       0.4773855       105.1778
2013    13      0       0.6031112       124.0773
2013    13      1       0.5755443       120.3221
2013    13      2       0.5010342       109.4102
2013    13      3       0.4927402       108.1805
2013    13      4       0.4652571       103.7541
2013    13      5       0.5226682       113.0509
2013    13      6       0.7357468       142.9206
2013    13      7       0.9308544       164.7303
2013    14      0       1.031236        174.2052
2013    14      1       0.9000827       161.425
2013    14      2       0.6876079       136.82
2013    14      3       0.5495602       117.1064
2013    14      4       0.4074846       93.74107
2013    14      5       0.4298615       97.52208
2013    14      6       0.6803377       135.0541
2013    14      7       0.8556861       156.214
2013    15      0       0.9606214       167.0667
2013    15      1       0.8478885       155.4372
2013    15      2       0.8606746       157.0473
2013    15      3       1.328408        196.1002
2013    15      4       1.313968        194.7413
2013    15      5       1.302609        193.0478
2013    15      6       1.227717        187.6841
2013    15      7       1.064302        175.3954
2013    16      0       0.9548149       165.145
2013    16      1       0.8085309       149.9712
2013    16      2       0.6333895       128.2733
2013    16      3       0.5575437       117.4823
2013    16      4       0.4380623       98.72199
2013    16      5       0.3795509       88.77102
2013    16      6       0.4507549       100.9804
2013    16      7       0.5907259       122.1609
2013    17      0       0.7568568       144.7409
2013    17      1       0.6542908       131.5042
2013    17      2       0.5308842       113.6318
2013    17      3       0.4554263       101.5072
2013    17      4       0.412887        94.40126
2013    17      5       0.4459809       100.1282
2013    17      6       0.4584251       102.1142
2013    17      7       0.5888582       122.0512
2013    18      0       0.6531482       131.0603
2013    18      1       0.5357117       114.4216
2013    18      2       0.4566253       101.6949
2013    18      3       0.3836894       89.22191
2013    18      4       0.310622        75.83575
2013    18      5       0.2905173       72.00668
2013    18      6       0.3653505       85.98039
2013    18      7       0.445873        99.83525
2013    19      0       0.3295291       79.48832
2013    19      1       0.1743798       47.93331
2013    19      2       0.1337927       38.68969
2013    19      3       0.1197229       35.41635
2013    19      4       0.1013718       31.05946
2013    19      5       0.1133755       34.01714
2013    19      6       0.1929471       51.87828
2013    19      7       0.2518802       64.20817
2013    20      0       0.2176886       57.39291
2013    20      1       0.1306857       38.22929
2013    20      2       0.1086504       33.0088
2013    20      3       0.1055006       32.19841
2013    20      4       0.08969215      28.29706
2013    20      5       0.1080016       32.78246
2013    20      6       0.3018882       74.04547
2013    20      7       0.4892439       106.361
2013    21      0       0.6465363       129.0669
2013    21      1       0.6708471       132.5426
2013    21      2       0.7166732       138.5045
2013    21      3       0.6690828       132.6204
2013    21      4       0.6041883       123.8466
2013    21      5       0.7242526       139.4385
2013    21      6       0.9278433       162.1015
2013    21      7       0.9562742       165.2866
2013    22      0       1.035909        172.3957
2013    22      1       0.963423        165.2788
2013    22      2       0.9131486       160.1806
2013    22      3       0.8943156       158.0397
2013    22      4       0.6964585       135.5174
2013    22      5       0.7032222       135.8888
2013    22      6       0.7416705       140.6627
2013    22      7       0.8483167       152.3682
2013    23      0       0.6885853       133.4503
2013    23      1       0.5914785       120.7055
2013    23      2       0.6093464       122.9671
2013    23      3       0.5953374       121.1845
2013    23      4       0.60172         121.9639
2013    23      5       0.670901        131.3875
2013    23      6       0.6808216       133.2817
2013    23      7       0.769901        144.0097
2013    24      0       0.6376223       127.2326
2013    24      1       0.5803855       119.2765
2013    24      2       0.6061605       123.1273
2013    24      3       0.6144989       124.0246
2013    24      4       0.5681504       116.9936
2013    24      5       0.5559487       115.6066
2013    24      6       0.5859589       119.8264
2013    24      7       0.5056707       107.9527
2013    25      0       0.3963164       89.89439
2013    25      1       0.2662813       65.58746
2013    25      2       0.19078         50.02606
2013    25      3       0.1567533       42.69087
2013    25      4       0.1482162       40.87168
2013    25      5       0.1687897       45.04658
2013    25      6       0.1829092       48.15619
2013    25      7       0.1950209       50.80567
2013    26      0       0.2055179       53.18358
2013    26      1       0.2707489       66.16454
2013    26      2       0.3098657       73.4858
2013    26      3       0.3038834       72.11056
2013    26      4       0.3146643       74.01976
2013    26      5       0.3283522       76.49029
2013    26      6       0.3315034       77.00017
2013    26      7       0.3553388       81.49535
2013    27      0       0.4167992       92.00342
2013    27      1       0.4114923       91.6188
2013    27      2       0.4453258       96.53328
2013    27      3       0.4940794       104.34
2013    27      4       0.6632738       128.4805
2013    27      5       0.7309738       136.6337
2013    27      6       0.8391374       149.1666
2013    27      7       0.9030299       156.6379
2013    28      0       0.8355985       149.6018
2013    28      1       0.8218475       147.9579
2013    28      2       0.8915139       155.2078
2013    28      3       0.8776551       153.8279
2013    28      4       0.7986818       145.4898
2013    28      5       0.834863        149.634
2013    28      6       0.862022        153.0931
2013    28      7       0.9674561       164.3232
2013    29      0       0.9337867       160.7626
2013    29      1       0.8323187       150.1075
2013    29      2       0.6548862       128.9554
2013    29      3       0.6487423       128.0005
2013    29      4       0.6263041       124.6732
2013    29      5       0.599007        121.3541
2013    29      6       0.668557        131.0638
2013    29      7       0.679275        132.971
2013    30      0       0.5806449       119.2948
2013    30      1       0.5641987       116.6536
2013    30      2       0.4464139       98.92529
2013    30      3       0.3222012       77.45823
2013    30      4       0.2505935       63.75015
2013    30      5       0.2926046       71.98117
2013    30      6       0.4090634       92.86578
2013    30      7       0.5800714       119.3882
2013    31      0       0.671051        132.5637
2013    31      1       0.6306533       127.5433
2013    31      2       0.4430019       99.40734
2013    31      3       0.3615131       85.32484
2013    31      4       0.336325        80.52393
2013    31      5       0.4033216       92.10557
2013    31      6       0.5320673       112.3176
2013    31      7       0.6030451       123.1637
2014    1       0       0.5077727       108.9999
2014    1       1       0.4360377       97.54204
2014    1       2       0.2426119       62.21227
2014    1       3       0.1289936       37.678
2014    1       4       0.1089702       32.97597
2014    1       5       0.1274072       37.2638
2014    1       6       0.2469829       62.96148
2014    1       7       0.3885483       89.10518
2014    2       0       0.3789175       87.43255
2014    2       1       0.303857        74.01548
2014    2       2       0.2797871       69.53701
2014    2       3       0.2625055       66.18676
2014    2       4       0.2650135       66.63839
2014    2       5       0.2680651       67.23372
2014    2       6       0.3028752       73.7455
2014    2       7       0.6592723       129.1011
2014    3       0       0.756499        141.1904
2014    3       1       0.4814082       104.5187
2014    3       2       0.3163925       76.5562
2014    3       3       0.2920079       71.52171
2014    3       4       0.2992768       72.72267
2014    3       5       0.321066        77.06268
2014    3       6       0.5045502       108.4565
2014    3       7       0.5612031       116.8132
2014    4       0       0.5137488       109.676
2014    4       1       0.413088        93.17623
2014    4       2       0.3519926       82.34487
2014    4       3       0.2907748       70.77571
2014    4       4       0.2436233       61.31164
2014    4       5       0.2533787       63.64205
2014    4       6       0.4811225       104.9873
2014    4       7       0.7601604       143.3024
2014    5       0       0.7810403       145.3823
2014    5       1       0.5209442       109.9179
2014    5       2       0.4500948       99.35999
2014    5       3       0.4538072       100.3566
2014    5       4       0.366162        85.40765
2014    5       5       0.2833883       70.07999
2014    5       6       0.3979564       91.03118
2014    5       7       0.4552964       100.6468
2014    6       0       0.4611411       101.7128
2014    6       1       0.3555031       83.74819
2014    6       2       0.3135505       75.88854
2014    6       3       0.2913592       71.46444
2014    6       4       0.2551055       64.29041
2014    6       5       0.3447188       81.45701
2014    6       6       0.5362547       112.8582
2014    6       7       0.6647604       131.165
2014    7       0       0.7192378       137.7307
2014    7       1       0.7984606       146.9816
2014    7       2       0.7855627       146.1481
2014    7       3       0.8979702       158.6903
2014    7       4       1.202992        185.1599
2014    7       5       1.124949        178.7433
2014    7       6       0.9651153       165.1387
2014    7       7       1.026587        171.7097
2014    8       0       1.132738        181.2334
2014    8       1       1.065294        175.583
2014    8       2       1.07717         176.6564
2014    8       3       0.8355632       152.5177
2014    8       4       0.6875643       134.4388
2014    8       5       0.6768876       133.0065
2014    8       6       0.8420965       153.068
2014    8       7       1.006315        170.0394
2014    9       0       1.002488        169.4837
2014    9       1       1.073039        176.4296
2014    9       2       1.045503        173.7876
2014    9       3       0.9238754       161.6276
2014    9       4       0.8925572       158.2577
2014    9       5       0.8937635       158.6822
2014    9       6       0.8726905       156.7598
2014    9       7       0.9290084       162.5793
2014    10      0       0.8589512       155.301
2014    10      1       0.6981734       136.4313
2014    10      2       0.6334171       127.7541
2014    10      3       0.5739821       119.1788
2014    10      4       0.5449334       114.6719
2014    10      5       0.6555334       130.1762
2014    10      6       0.7797671       145.7582
2014    10      7       0.9140282       160.5671
2014    11      0       1.051063        173.0114
2014    11      1       1.117396        178.1425
2014    11      2       1.150307        180.6476
2014    11      3       1.076369        174.9158
2014    11      4       0.7681419       143.5888
2014    11      5       0.6692871       131.0358
2014    11      6       0.7695569       143.6752
2014    11      7       0.8980507       158.2986
2014    12      0       0.9828913       166.8539
2014    12      1       0.7747731       144.6893
2014    12      2       0.6408176       127.8309
2014    12      3       0.669736        131.4846
2014    12      4       0.6565924       129.6965
2014    12      5       0.714638        137.4106
2014    12      6       0.8737555       155.4232
2014    12      7       0.8933645       157.903
2014    13      0       0.7744912       144.7122
2014    13      1       0.5544855       115.8768
2014    13      2       0.4447014       98.74783
2014    13      3       0.797018        145.6393
2014    13      4       0.7926745       145.0916
2014    13      5       0.5693817       117.2105
2014    13      6       0.7138668       136.9729
2014    13      7       0.9358636       161.9225
2014    14      0       0.9499405       163.881
2014    14      1       0.9538838       164.5086
2014    14      2       1.126318        179.1027
2014    14      3       1.1484          180.5052
2014    14      4       0.9645585       164.797
2014    14      5       0.6114849       124.5077
2014    14      6       0.7776152       145.5339
2014    14      7       0.9823434       166.3899
2014    15      0       0.8939471       157.219
2014    15      1       0.779664        144.5357
2014    15      2       0.704055        135.5414
2014    15      3       0.8268752       149.4974
2014    15      4       0.9074796       157.815
2014    15      5       0.9583619       163.1153
2014    15      6       0.981652        165.5629
2014    15      7       1.058014        172.9356
2014    16      0       0.9829916       166.1587
2014    16      1       0.8149818       149.1131
2014    16      2       0.7241255       138.5196
2014    16      3       0.6952452       134.7764
2014    16      4       0.625432        125.7162
2014    16      5       0.4810413       104.4072
2014    16      6       0.4809507       104.4131
2014    16      7       0.5886754       120.4415
2014    17      0       0.6107715       123.7145
2014    17      1       0.5345691       113.0442
2014    17      2       0.4077229       92.95153
2014    17      3       0.3453835       81.86009
2014    17      4       0.2952526       72.43148
2014    17      5       0.3444621       81.46591
2014    17      6       0.4954284       106.7837
2014    17      7       0.6809923       133.0769
2014    18      0       0.7494659       141.6853
2014    18      1       0.6813374       133.2695
2014    18      2       0.5585896       116.7422
2014    18      3       0.5413337       113.9179
2014    18      4       0.4921167       106.2652
2014    18      5       0.6634283       129.7929
2014    18      6       0.72544         138.2543
2014    18      7       0.6757184       132.6012
2014    19      0       0.6521805       129.233
2014    19      1       0.6005959       122.0322
2014    19      2       0.5513137       115.188
2014    19      3       0.5050513       108.2877
2014    19      4       0.4753494       103.5517
2014    19      5       0.6631386       130.3419
2014    19      6       0.8761958       155.5206
2014    19      7       0.8381087       151.9934
2014    20      0       0.8679468       155.2928
2014    20      1       0.801605        147.9801
2014    20      2       0.7500366       141.8815
2014    20      3       0.692389        134.7407
2014    20      4       0.5690656       118.1523
2014    20      5       0.5291595       112.1602
2014    20      6       0.55239         115.5191
2014    20      7       0.5795327       119.4153
2014    21      0       0.5408201       113.7478
2014    21      1       0.4753373       103.8105
2014    21      2       0.3541356       83.35847
2014    21      3       0.2467064       63.07922
2014    21      4       0.1725897       47.54295
2014    21      5       0.1312969       38.23103
2014    21      6       0.2264428       58.77734
2014    21      7       0.3815548       87.9025
2014    22      0       0.4540403       100.0927
2014    22      1       0.4376427       97.48457
2014    22      2       0.3144488       76.00269
2014    22      3       0.2484683       63.19595
2014    22      4       0.2323828       59.76248
2014    22      5       0.2034796       53.72197
2014    22      6       0.2045238       53.97226
2014    22      7       0.2747187       67.9878
2014    23      0       0.3301203       78.70342
2014    23      1       0.3156628       76.15078
2014    23      2       0.266404        66.80184
2014    23      3       0.2108878       55.44434
2014    23      4       0.1960855       52.29487
2014    23      5       0.2124115       55.73576
2014    23      6       0.2244594       58.31071
2014    23      7       0.2954106       72.55951
2014    24      0       0.3825849       88.64369
2014    24      1       0.3767434       87.76755
2014    24      2       0.3565975       84.07748
2014    24      3       0.2978113       73.13106
2014    24      4       0.2543824       64.65643
2014    24      5       0.24394         62.60185
2014    24      6       0.3052628       74.74546
2014    24      7       0.4337277       97.56608
2014    25      0       0.5112586       109.9193
2014    25      1       0.4153276       94.36691
2014    25      2       0.3868239       89.53869
2014    25      3       0.3469838       82.3241
2014    25      4       0.322724        77.83083
2014    25      5       0.3638358       85.46345
2014    25      6       0.4717201       103.8837
2014    25      7       0.607422        124.032
2014    26      0       0.6905196       135.0629
2014    26      1       0.65566         130.3896
2014    26      2       0.6964683       135.4659
2014    26      3       0.7212624       138.6626
2014    26      4       0.7485892       142.2706
2014    26      5       0.8794599       156.9874
2014    26      6       0.7677178       144.4572
2014    26      7       0.6869608       134.1043
2014    27      0       0.6881581       134.1067
2014    27      1       0.6612729       130.9246
2014    27      2       0.6601349       130.8453
2014    27      3       0.7808739       145.5408
2014    27      4       1.018292        169.379
2014    27      5       0.966218        163.9991
2014    27      6       0.711055        136.0154
2014    27      7       0.6371282       126.8141
2014    28      0       0.6391148       127.0658
2014    28      1       0.5581312       116.1366
2014    28      2       0.5787864       118.688
2014    28      3       0.6497383       127.894
2014    28      4       0.7213379       137.6086
2014    28      5       0.8302637       151.2397
2014    28      6       1.035863        172.9449
2014    28      7       1.132977        182.2488
2014    29      0       1.240993        190.8495
2014    29      1       1.351876        198.5173
2014    29      2       1.237232        189.7462
2014    29      3       1.267136        190.8859
2014    29      4       1.196501        185.881
2014    29      5       1.151569        183.2751
2014    29      6       1.185985        185.8842
2014    29      7       1.229232        189.5784
2014    30      0       1.359577        198.3393
2014    30      1       1.306924        194.7109
2014    30      2       1.236215        189.5731
2014    30      3       1.168497        184.2317
2014    30      4       1.214021        187.711
2014    30      5       1.144359        181.9333
2014    30      6       1.18514         186.1064
2014    30      7       1.395479        200.9975
2014    31      0       1.314708        194.543
2014    31      1       1.157926        182.2848
2014    31      2       1.051592        173.3007
2014    31      3       0.9176834       160.5392
2014    31      4       0.870199        155.7042
2014    31      5       0.9764904       167.2229
2014    31      6       1.189261        186.2383
2014    31      7       1.288959        193.6218
2015    1       0       0.813028        149.8097
2015    1       1       0.555858        116.6654
2015    1       2       0.318096        77.06274
2015    1       3       0.2314291       60.14752
2015    1       4       0.2055257       54.65945
2015    1       5       0.1825054       49.71465
2015    1       6       0.2720772       68.11191
2015    1       7       0.4473718       99.33032
2015    2       0       0.5516243       115.8151
2015    2       1       0.522528        111.9039
2015    2       2       0.461588        102.4484
2015    2       3       0.423965        96.13946
2015    2       4       0.3908079       90.47716
2015    2       5       0.4089292       93.65645
2015    2       6       0.504466        109.162
2015    2       7       0.6914778       135.614
2015    3       0       0.8514848       154.3499
2015    3       1       0.7240299       139.5887
2015    3       2       0.5155692       110.6708
2015    3       3       0.3910205       90.48932
2015    3       4       0.3355901       80.41407
2015    3       5       0.2806933       69.9718
2015    3       6       0.3060723       74.75641
2015    3       7       0.4688306       102.8518
2015    4       0       0.5688317       118.2872
2015    4       1       0.4970504       107.8576
2015    4       2       0.386413        89.76721
2015    4       3       0.3097295       75.69459
2015    4       4       0.2394733       61.74672
2015    4       5       0.2612672       65.96853
2015    4       6       0.363101        85.01903
2015    4       7       0.4616611       101.6264
2015    5       0       0.3418336       81.59524
2015    5       1       0.2309628       60.28858
2015    5       2       0.2187607       57.67911
2015    5       3       0.1778284       48.9774
2015    5       4       0.2290047       59.78292
2015    5       5       0.3430217       81.42874
2015    5       6       0.3926072       89.82112
2015    5       7       0.3945953       90.14659
2015    6       0       0.3094943       75.1294
2015    6       1       0.2028893       54.07436
2015    6       2       0.1600102       44.87734
2015    6       3       0.1611394       44.82385
2015    6       4       0.1694199       46.64441
2015    6       5       0.1945811       52.30249
2015    6       6       0.2964358       72.89817
2015    6       7       0.385885        89.263
2015    7       0       0.388393        89.76493
2015    7       1       0.2790651       69.75573
2015    7       2       0.165874        46.08352
2015    7       3       0.1520591       42.84132
2015    7       4       0.1299296       37.85933
2015    7       5       0.1636567       45.64165
2015    7       6       0.2577392       65.44595
2015    7       7       0.4589741       101.3738
2015    8       0       0.5522818       115.8394
2015    8       1       0.4785079       104.687
2015    8       2       0.3225666       77.9588
2015    8       3       0.1956371       52.52643
2015    8       4       0.1677106       46.38335
2015    8       5       0.1767782       48.43502
2015    8       6       0.2585491       65.19897
2015    8       7       0.3538259       82.9298
2015    9       0       0.3486864       81.98297
2015    9       1       0.2415918       61.55966
2015    9       2       0.1080646       32.54304
2015    9       3       0.05980987      20.98831
2015    9       4       0.05423305      19.65457
2015    9       5       0.04489733      17.31968
2015    9       6       0.04404764      17.1213
2015    9       7       0.05040221      18.74869
2015    10      0       0.05060562      18.69637
2015    10      1       0.05214757      19.13731
2015    10      2       0.07822613      25.6544
2015    10      3       0.07696199      25.24509
2015    10      4       0.09568849      29.81806
2015    10      5       0.2612592       65.70583
2015    10      6       0.3148758       75.89197
2015    10      7       0.179815        48.92935
2015    11      0       0.1421627       40.77173
2015    11      1       0.3569481       83.92537
2015    11      2       0.7943721       147.122
2015    11      3       0.852793        153.6384
2015    11      4       0.6117326       124.2505
2015    11      5       0.7297526       137.9161
2015    11      6       0.5726674       117.8338
2015    11      7       0.4368251       97.32682
2015    12      0       0.2478856       63.22812
2015    12      1       0.17499         48.08688
2015    12      2       0.1296134       37.87083
2015    12      3       0.1475842       41.86975
2015    12      4       0.1718536       47.25067
2015    12      5       0.3173481       76.27766
2015    12      6       0.426639        95.50168
2015    12      7       0.4806104       103.9774
2015    13      0       0.4479797       99.21804
2015    13      1       0.5389012       113.1083
2015    13      2       0.8140545       148.5804
2015    13      3       0.7959657       146.3865
2015    13      4       0.6291485       125.5417
2015    13      5       0.7106353       135.7412
2015    13      6       0.6825981       132.5033
2015    13      7       0.4137276       93.26162
2015    14      0       0.2188494       57.39264
2015    14      1       0.1774484       48.60143
2015    14      2       0.1762863       48.2609
2015    14      3       0.139132        39.94651
2015    14      4       0.09795215      30.32075
2015    14      5       0.1390951       39.86
2015    14      6       0.1885004       50.53668
2015    14      7       0.215547        56.19014
2015    15      0       0.2136108       55.76784
2015    15      1       0.207173        54.50992
2015    15      2       0.1952174       51.96252
2015    15      3       0.2007177       53.1117
2015    15      4       0.2548866       64.09881
2015    15      5       0.3797421       87.34643
2015    15      6       0.5684199       117.642
2015    15      7       0.6890473       134.3522
2015    16      0       0.796284        147.2193
2015    16      1       0.9065704       159.2695
2015    16      2       1.029864        171.1387
2015    16      3       0.8423708       152.8282
2015    16      4       0.657192        130.7109
2015    16      5       0.7244221       139.5105
2015    16      6       0.69361         135.5626
2015    16      7       0.7131972       138.1319
2015    17      0       0.6859904       134.5383
2015    17      1       0.6892061       134.684
2015    17      2       0.4816029       105.5765
2015    17      3       0.4720684       103.6077
2015    17      4       0.434064        97.34976
2015    17      5       0.4363319       97.67919
2015    17      6       0.5243164       111.7662
2015    17      7       0.5939028       122.2568
2015    18      0       0.5747988       119.6152
2015    18      1       0.7870477       146.3356
2015    18      2       0.8738407       156.0524
2015    18      3       0.7923353       147.1751
2015    18      4       0.8194446       149.9624
2015    18      5       0.8719161       155.5806
2015    18      6       0.8690116       155.6155
2015    18      7       0.8803409       156.8493
2015    19      0       0.9431268       163.5513
2015    19      1       0.8115227       149.221
2015    19      2       0.7959207       146.8523
2015    19      3       0.6141905       123.748
2015    19      4       0.5114678       108.7882
2015    19      5       0.3823617       87.70631
2015    19      6       0.4581986       100.0799
2015    19      7       0.4859829       104.5358
2015    20      0       0.4571106       99.99732
2015    20      1       0.4086329       92.20357
2015    20      2       0.4071423       92.15016
2015    20      3       0.4290477       95.96101
2015    20      4       0.5322435       111.7907
2015    20      5       0.9134252       159.4333
2015    20      6       1.088615        175.7694
2015    20      7       1.044421        172.3268
2015    21      0       1.020112        170.3832
2015    21      1       0.8135263       149.1534
2015    21      2       0.7172948       137.7166
2015    21      3       0.6003495       122.3404
2015    21      4       0.6666486       130.9778
2015    21      5       0.7725291       143.6578
2015    21      6       0.818416        148.9383
2015    21      7       1.011674        168.5141
2015    22      0       0.9687112       164.1141
2015    22      1       0.7999545       146.3817
2015    22      2       0.5963623       120.6897
2015    22      3       0.3572127       82.61064
2015    22      4       0.2908159       70.25598
2015    22      5       0.277157        67.76
2015    22      6       0.3262538       76.89009
2015    22      7       0.3934703       88.82483
2015    23      0       0.403539        89.99692
2015    23      1       0.3641655       82.66484
2015    23      2       0.3275303       76.3452
2015    23      3       0.3405586       78.52065
2015    23      4       0.3338955       77.01182
2015    23      5       0.3018975       71.88693
2015    23      6       0.3328222       78.02374
2015    23      7       0.4442766       97.11588
2015    24      0       0.376073        85.96127
2015    24      1       0.3661181       84.36245
2015    24      2       0.397004        89.81488
2015    24      3       0.6325536       125.3621
2015    24      4       0.6338387       125.6192
2015    24      5       0.768192        142.8223
2015    24      6       0.8930338       157.5017
2015    24      7       0.8641054       154.2584
2015    25      0       0.6555965       129.1702
2015    25      1       0.6120825       123.3004
2015    25      2       0.7041046       135.0096
2015    25      3       0.7281484       136.7745
2015    25      4       0.6876979       132.1031
2015    25      5       0.5409608       112.6351
2015    25      6       0.5192755       110.0108
2015    25      7       0.5274832       112.1827
2015    26      0       0.4980516       107.9646
2015    26      1       0.4272173       96.70987
2015    26      2       0.3889248       90.12028
2015    26      3       0.4082726       93.30566
2015    26      4       0.3361121       80.43476
2015    26      5       0.2119254       56.01619
2015    26      6       0.1720082       47.56022
2015    26      7       0.2026894       54.16346
2015    27      0       0.1804985       49.58285
2015    27      1       0.1652584       46.28208
2015    27      2       0.08743287      28.24219
2015    27      3       0.05465695      19.98137
2015    27      4       0.05002604      18.75107
2015    27      5       0.1002639       31.28679
2015    27      6       0.232397        60.49042
2015    27      7       0.5124565       110.3754
2015    28      0       0.7597457       144.3381
2015    28      1       0.8889172       158.9108
2015    28      2       0.8019575       149.3648
2015    28      3       0.6979724       136.6513
2015    28      4       0.4766536       104.5839
2015    28      5       0.2726666       68.16995
2015    28      6       0.429432        96.62454
2015    28      7       0.5379914       113.928
2015    29      0       0.4577478       101.3857
2015    29      1       0.5092046       109.513
2015    29      2       0.4409253       98.63326
2015    29      3       0.321918        77.90549
2015    29      4       0.2603849       66.10327
2015    29      5       0.333806        80.41801
2015    29      6       0.6462094       129.8859
2015    29      7       0.7944409       148.1715
2015    30      0       0.5021754       108.8797
2015    30      1       0.3067021       75.12848
2015    30      2       0.3298036       79.482
2015    30      3       0.2638656       66.77139
2015    30      4       0.2200731       57.91536
2015    30      5       0.2702423       68.22923
2015    30      6       0.4969952       108.1397
2015    30      7       0.6580709       131.0919
2015    31      0       0.5489887       115.9726
2015    31      1       0.3655773       86.1359
2015    31      2       0.2176433       57.55495
2015    31      3       0.1503129       42.93873
2015    31      4       0.1446596       41.58821
2015    31      5       0.1912572       51.83381
2015    31      6       0.3106856       75.89209
2015    31      7       0.4871156       106.5343
2016    1       0       0.8168582       149.7026
2016    1       1       0.5944228       121.4048
2016    1       2       0.2404822       61.46799
2016    1       3       0.1076847       32.81621
2016    1       4       0.09586         29.82452
2016    1       5       0.1103949       33.28728
2016    1       6       0.2233478       58.12282
2016    1       7       0.3742924       86.89561
2016    2       0       0.3837032       88.56892
2016    2       1       0.2583514       64.91093
2016    2       2       0.2576391       64.76698
2016    2       3       0.2525054       63.67282
2016    2       4       0.2423765       61.9601
2016    2       5       0.2662967       66.92739
2016    2       6       0.4055941       92.71782
2016    2       7       0.6062518       123.8093
2016    3       0       0.6934227       135.5224
2016    3       1       0.5682042       118.3023
2016    3       2       0.45782         101.5072
2016    3       3       0.4577517       101.5509
2016    3       4       0.3775355       87.93
2016    3       5       0.3471808       82.48602
2016    3       6       0.5106553       109.9805
2016    3       7       0.6301771       127.5055
2016    4       0       0.6605257       131.5382
2016    4       1       0.4597971       101.9849
2016    4       2       0.2760691       68.97472
2016    4       3       0.2419919       62.09023
2016    4       4       0.2464633       62.92016
2016    4       5       0.3402245       81.11105
2016    4       6       0.5944133       121.9165
2016    4       7       0.7290755       139.7531
2016    5       0       0.6190692       125.5451
2016    5       1       0.4514025       100.3925
2016    5       2       0.5094713       109.6086
2016    5       3       0.569015        118.2952
2016    5       4       0.572786        118.7851
2016    5       5       0.6078849       123.8753
2016    5       6       0.7151695       138.3618
2016    5       7       0.8018863       148.9692
2016    6       0       0.8092257       150.2641
2016    6       1       0.8197772       152.1284
2016    6       2       0.7916744       149.2272
2016    6       3       0.6322356       129.0642
2016    6       4       0.4060427       93.87432
2016    6       5       0.4841872       106.7179
2016    6       6       0.5315342       113.9249
2016    6       7       0.5533938       117.0987
2016    7       0       0.5287052       112.7927
2016    7       1       0.480603        105.4221
2016    7       2       0.5240987       112.682
2016    7       3       0.4815824       106.1998
2016    7       4       0.3441491       82.45501
2016    7       5       0.4068656       93.61157
2016    7       6       0.5287321       113.3171
2016    7       7       0.5775879       120.6037
2016    8       0       0.5670433       119.1523
2016    8       1       0.6146672       125.995
2016    8       2       0.7178752       139.9371
2016    8       3       0.7807284       147.5409
2016    8       4       0.8099443       150.6252
2016    8       5       0.7439082       142.4014
2016    8       6       0.6597286       131.4755
2016    8       7       0.5896299       121.8
2016    9       0       0.4354039       98.13327
2016    9       1       0.3081994       75.65392
2016    9       2       0.2917041       72.49373
2016    9       3       0.2730424       68.62922
2016    9       4       0.2969047       73.12956
2016    9       5       0.4259911       96.32183
2016    9       6       0.4550817       101.2117
2016    9       7       0.4283219       96.72658
2016    10      0       0.2768283       69.57443
2016    10      1       0.2480696       63.82224
2016    10      2       0.2618491       66.44868
2016    10      3       0.2349497       60.88951
2016    10      4       0.2748436       68.90736
2016    10      5       0.2582505       65.57508
2016    10      6       0.3262551       78.5215
2016    10      7       0.2744427       68.68637
2016    11      0       0.145412        41.54206
2016    11      1       0.1124407       34.17654
2016    11      2       0.1814028       49.75161
2016    11      3       0.2705349       68.45873
2016    11      4       0.2677588       67.89497
2016    11      5       0.3347047       80.4072
2016    11      6       0.4296157       96.79895
2016    11      7       0.45383         100.6287
2016    12      0       0.3299988       79.56067
2016    12      1       0.3155445       76.71131
2016    12      2       0.3637104       85.41174
2016    12      3       0.4197298       95.04874
2016    12      4       0.4654639       102.6912
2016    12      5       0.6565503       130.7239
2016    12      6       0.9118518       161.2398
2016    12      7       1.178729        185.2232
2016    13      0       1.28381         192.6867
2016    13      1       0.9996594       170.0707
2016    13      2       0.7721041       145.7153
2016    13      3       0.9275938       162.0801
2016    13      4       1.046244        173.5238
2016    13      5       1.211996        187.6364
2016    13      6       1.203501        186.6304
2016    13      7       1.133853        181.1688
2016    14      0       0.7949754       147.9189
2016    14      1       0.5324632       113.2806
2016    14      2       0.4260293       95.96757
2016    14      3       0.3844893       88.49438
2016    14      4       0.3338153       79.39952
2016    14      5       0.3739667       87.30583
2016    14      6       0.490393        107.0533
2016    14      7       0.6456613       129.8509
2016    15      0       0.7106142       138.6333
2016    15      1       0.5931452       122.9472
2016    15      2       0.4189911       95.51055
2016    15      3       0.3866105       89.49139
2016    15      4       0.4025735       92.0727
2016    15      5       0.5266508       111.9414
2016    15      6       0.6366391       128.1816
2016    15      7       0.8055877       149.4909
2016    16      0       0.7306222       140.6768
2016    16      1       0.5849955       121.5254
2016    16      2       0.4627653       102.7476
2016    16      3       0.4047154       92.78392
2016    16      4       0.3568234       84.14134
2016    16      5       0.4651386       102.2868
2016    16      6       0.7162204       137.5292
2016    16      7       0.9538768       163.8479
2016    17      0       0.8595834       153.5357
2016    17      1       0.6028836       122.1492
2016    17      2       0.5392251       112.9879
2016    17      3       0.5107918       108.7934
2016    17      4       0.518964        110.2883
2016    17      5       0.710466        137.0449
2016    17      6       0.7820363       145.4593
2016    17      7       0.7731944       144.4897
2016    18      0       0.7447238       141.2831
2016    18      1       0.7397005       140.7828
2016    18      2       0.6854195       134.0466
2016    18      3       0.7264342       139.1947
2016    18      4       0.7671909       144.4122
2016    18      5       0.9193686       161.0509
2016    18      6       1.171601        184.2497
2016    18      7       1.029497        172.008
2016    19      0       0.7649908       143.5689
2016    19      1       0.5836679       119.9232
2016    19      2       0.50401         107.8818
2016    19      3       0.4830047       104.2166
2016    19      4       0.4988353       106.2381
2016    19      5       0.3972581       90.22999
2016    19      6       0.4329985       96.54272
2016    19      7       0.5369459       112.7392
2016    20      0       0.4640287       101.1973
2016    20      1       0.4513231       99.48343
2016    20      2       0.468624        102.2885
2016    20      3       0.421088        94.3162
2016    20      4       0.3674803       85.38562
2016    20      5       0.4434568       98.55083
2016    20      6       0.5496357       115.2312
2016    20      7       0.8018503       148.1946
2016    21      0       0.8890351       157.502
2016    21      1       0.8825263       156.9115
2016    21      2       0.8442467       152.9756
2016    21      3       1.09401         175.4121
2016    21      4       0.987186        166.3072
2016    21      5       0.8952462       158.1816
2016    21      6       1.200613        185.4071
2016    21      7       1.182043        184.4244
2016    22      0       1.100086        177.806
2016    22      1       1.020018        170.2795
2016    22      2       0.9171352       160.2793
2016    22      3       0.7085882       136.9153
2016    22      4       0.4956164       107.7425
2016    22      5       0.4327286       97.72365
2016    22      6       0.5288532       112.9865
2016    22      7       0.7680254       145.1592
2016    23      0       0.9125364       161.53
2016    23      1       0.8986489       160.0074
2016    23      2       0.6812561       134.4627
2016    23      3       0.5233447       112.0266
2016    23      4       0.4472882       99.39994
2016    23      5       0.4731968       103.2878
2016    23      6       0.6831101       133.5506
2016    23      7       0.8210663       150.5229
2016    24      0       0.838996        152.9681
2016    24      1       0.7037169       137.2255
2016    24      2       0.6444253       129.2188
2016    24      3       0.6370796       127.9523
2016    24      4       0.6356651       127.3981
2016    24      5       0.6924768       134.7393
2016    24      6       0.6706435       131.8342
2016    24      7       0.8134559       149.7556
2016    25      0       0.9355701       161.8344
2016    25      1       0.721012        138.1153
2016    25      2       0.5872088       120.6057
2016    25      3       0.4738041       103.5726
2016    25      4       0.4179978       94.31565
2016    25      5       0.4224062       95.04919
2016    25      6       0.5432933       114.4273
2016    25      7       0.7483692       141.9701
2016    26      0       0.8789767       156.5724
2016    26      1       0.7144882       137.4853
2016    26      2       0.5499617       114.7574
2016    26      3       0.5613902       116.0703
2016    26      4       0.5135719       108.9918
2016    26      5       0.5099765       108.39
2016    26      6       0.734177        139.087
2016    26      7       0.9736269       165.0512
2016    27      0       0.9843327       165.526
2016    27      1       0.9404474       161.1003
2016    27      2       0.9091795       158.2912
2016    27      3       0.5138705       108.8728
2016    27      4       0.3814425       87.34744
2016    27      5       0.3008894       73.18878
2016    27      6       0.3186093       76.74102
2016    27      7       0.3912836       89.08609
2016    28      0       0.2250674       57.6452
2016    28      1       0.1396944       39.61127
2016    28      2       0.1359615       38.79432
2016    28      3       0.09485731      29.43397
2016    28      4       0.08580633      27.45469
2016    28      5       0.08300548      26.91587
2016    28      6       0.1138983       34.23455
2016    28      7       0.08087292      26.31453
2016    29      0       0.08347344      26.85724
2016    29      1       0.07438747      24.74405
2016    29      2       0.05710657      20.45469
2016    29      3       0.04919644      18.42532
2016    29      4       0.04186736      16.50023
2016    29      5       0.08265724      26.9273
2016    29      6       0.1612744       45.0418
2016    29      7       0.2409474       61.69978
2016    30      0       0.2260968       58.83867
2016    30      1       0.1413959       40.75052
2016    30      2       0.09982766      31.05614
2016    30      3       0.07981569      26.1729
2016    30      4       0.07461219      24.87558
2016    30      5       0.1695962       46.93489
2016    30      6       0.3580316       84.16358
2016    30      7       0.5969195       122.203
2016    31      0       0.6338434       127.6738
2016    31      1       0.5901371       121.767
2016    31      2       0.7146889       137.9375
2016    31      3       0.8588165       153.1504
2016    31      4       0.9619429       162.9302
2016    31      5       0.850478        152.5276
2016    31      6       0.8424299       152.1833
2016    31      7       0.9169454       159.6225
2017    1       0       0.3678592       86.47908
2017    1       1       0.3320561       79.97374
2017    1       2       0.2890037       71.73877
2017    1       3       0.2221147       58.18911
2017    1       4       0.2214352       57.91537
2017    1       5       0.2982857       73.12935
2017    1       6       0.3636938       84.89709
2017    1       7       0.4451886       98.63272
2017    2       0       0.4549293       100.7094
2017    2       1       0.3657705       85.69033
2017    2       2       0.2323085       60.30936
2017    2       3       0.1156584       34.87149
2017    2       4       0.07877323      25.96312
2017    2       5       0.1278948       37.74802
2017    2       6       0.2045594       54.76245
2017    2       7       0.4198796       95.85588
2017    3       0       0.4483503       100.9372
2017    3       1       0.236658        61.80314
2017    3       2       0.2348732       61.50794
2017    3       3       0.2798886       70.54752
2017    3       4       0.2356637       61.49706
2017    3       5       0.3861165       90.57918
2017    3       6       0.9691591       167.4172
2017    3       7       0.866932        156.9567
2017    4       0       0.4626017       103.0501
2017    4       1       0.2348502       61.02975
2017    4       2       0.1997778       53.6094
2017    4       3       0.1790253       49.18183
2017    4       4       0.145622        41.92929
2017    4       5       0.1751976       48.63685
2017    4       6       0.3129666       76.80686
2017    4       7       0.4091688       94.21355
2017    5       0       0.4399048       99.38851
2017    5       1       0.3989408       92.33264
2017    5       2       0.3100623       76.14997
2017    5       3       0.2588853       66.18523
2017    5       4       0.2678075       67.93644
2017    5       5       0.3377057       81.2897
2017    5       6       0.3918117       91.0154
2017    5       7       0.5795342       120.5932
2017    6       0       0.563791        118.5515
2017    6       1       0.3129363       76.26975
2017    6       2       0.2453963       62.43937
2017    6       3       0.2463324       62.43951
2017    6       4       0.208996        54.56358
2017    6       5       0.137095        38.84836
2017    6       6       0.2161881       56.35906
2017    6       7       0.3606091       84.48844
2017    7       0       0.4494647       99.97182
2017    7       1       0.396958        91.14922
2017    7       2       0.2498302       63.62513
2017    7       3       0.1860009       50.28905
2017    7       4       0.1458826       41.37014
2017    7       5       0.1556052       43.60814
2017    7       6       0.2148937       56.32137
2017    7       7       0.3533641       82.89041
2017    8       0       0.4183193       94.39707
2017    8       1       0.3893745       89.604
2017    8       2       0.3517488       82.99806
2017    8       3       0.338842        80.63862
2017    8       4       0.2677011       67.23349
2017    8       5       0.2324973       60.12054
2017    8       6       0.3218801       77.4365
2017    8       7       0.4401412       97.92013
2017    9       0       0.5716398       118.0595
2017    9       1       0.5913904       120.838
2017    9       2       0.4972851       107.0123
2017    9       3       0.3895965       89.24505
2017    9       4       0.3006504       72.89168
2017    9       5       0.2632498       65.50524
2017    9       6       0.322764        77.08555
2017    9       7       0.4349051       96.74632
2017    10      0       0.5945312       120.9573
2017    10      1       0.5386679       113.0021
2017    10      2       0.3053502       74.01006
2017    10      3       0.2379267       60.81376
2017    10      4       0.1659533       45.64415
2017    10      5       0.2085286       54.66948
2017    10      6       0.2439879       61.93606
2017    10      7       0.2195399       56.99516
2017    11      0       0.1035734       31.52686
2017    11      1       0.07855954      25.51106
2017    11      2       0.08885031      28.0539
2017    11      3       0.08995781      28.25457
2017    11      4       0.08088499      26.09932
2017    11      5       0.1003366       30.72049
2017    11      6       0.1233181       36.06362
2017    11      7       0.097481        30.1401
2017    12      0       0.06328788      21.7654
2017    12      1       0.0566546       20.11112
2017    12      2       0.05991545      20.91912
2017    12      3       0.05892971      20.72919
2017    12      4       0.05617412      20.01052
2017    12      5       0.06175407      21.33434
2017    12      6       0.07450373      24.51068
2017    12      7       0.0631178       21.64496
2017    13      0       0.05868904      20.53371
2017    13      1       0.0661916       22.46493
2017    13      2       0.06453061      21.9096
2017    13      3       0.1004336       30.76616
2017    13      4       0.08409582      27.0672
2017    13      5       0.1939714       52.13779
2017    13      6       0.3325786       79.27261
2017    13      7       0.3599982       84.08831
2017    14      0       0.3276178       78.53639
2017    14      1       0.3252036       78.25349
2017    14      2       0.3324517       79.73966
2017    14      3       0.2798225       69.69184
2017    14      4       0.3094244       75.12452
2017    14      5       0.5238779       111.0674
2017    14      6       0.6608621       130.6931
2017    14      7       0.6638939       131.1086
2017    15      0       0.6834101       133.4969
2017    15      1       0.697812        135.4561
2017    15      2       0.6604402       130.707
2017    15      3       0.5088109       109.434
2017    15      4       0.2971239       73.24293
2017    15      5       0.2245566       58.64666
2017    15      6       0.2220764       58.03031
2017    15      7       0.2210002       57.7568
2017    16      0       0.1958673       52.76025
2017    16      1       0.2030339       54.28553
2017    16      2       0.2060289       54.89259
2017    16      3       0.128459        37.58626
2017    16      4       0.09315391      29.11596
2017    16      5       0.1339592       38.73149
2017    16      6       0.1700729       46.84503
2017    16      7       0.2364406       61.06031
2017    17      0       0.4124884       94.1516
2017    17      1       0.6242528       127.0217
2017    17      2       0.6306726       127.726
2017    17      3       0.4155459       94.44818
2017    17      4       0.2505828       63.9157
2017    17      5       0.1847433       50.23011
2017    17      6       0.1905048       51.36221
2017    17      7       0.1855835       50.29442
2017    18      0       0.1819129       49.52459
2017    18      1       0.1883482       50.88543
2017    18      2       0.271645        67.17361
2017    18      3       0.234729        60.53493
2017    18      4       0.2506951       63.84619
2017    18      5       0.2927417       70.62161
2017    18      6       0.3452656       79.50404
2017    18      7       0.1836243       48.67831
2017    19      0       0.100577        30.73333
2017    19      1       0.06243533      21.90866
2017    19      2       0.06293025      22.07452
2017    19      3       0.05457703      19.88546
2017    19      4       0.05272572      19.31832
2017    19      5       0.06048294      21.32169
2017    19      6       0.08054991      26.30095
2017    19      7       0.0812547       26.50966
2017    20      0       0.07370524      24.69061
2017    20      1       0.07814117      25.73805
2017    20      2       0.08124084      26.4653
2017    20      3       0.08182378      26.63079
2017    20      4       0.0767961       25.4224
2017    20      5       0.07683678      25.50241
2017    20      6       0.1228015       36.52209
2017    20      7       0.2854973       70.8842
2017    21      0       0.3339105       80.47323
2017    21      1       0.2300333       60.22868
2017    21      2       0.2081242       55.43622
2017    21      3       0.2267621       59.43527
2017    21      4       0.2521335       64.43222
2017    21      5       0.4125331       93.28673
2017    21      6       0.59019         120.3287
2017    21      7       0.6527896       129.3429
2017    22      0       0.5836709       120.37
2017    22      1       0.7041445       136.8792
2017    22      2       0.6050369       123.7279
2017    22      3       0.4151174       94.56932
2017    22      4       0.2489997       63.81754
2017    22      5       0.2309029       60.1739
2017    22      6       0.3281454       79.00994
2017    22      7       0.4060418       92.57549
2017    23      0       0.4023996       92.28589
2017    23      1       0.3196881       77.61534
2017    23      2       0.2071362       55.28115
2017    23      3       0.1979672       53.20053
2017    23      4       0.1739765       47.98582
2017    23      5       0.1969882       52.96449
2017    23      6       0.2879737       71.43223
2017    23      7       0.4437277       98.82487
2017    24      0       0.5164136       110.1747
2017    24      1       0.5987679       121.956
2017    24      2       0.6078611       123.3425
2017    24      3       0.6077108       123.6333
2017    24      4       0.7029118       136.5394
2017    24      5       0.6980972       135.3247
2017    24      6       0.8450157       151.7798
2017    24      7       0.7929418       145.9163
2017    25      0       0.5889343       119.5718
2017    25      1       0.4411644       97.22941
2017    25      2       0.3666166       85.17341
2017    25      3       0.3197867       76.74123
2017    25      4       0.271691        67.77932
2017    25      5       0.3061667       74.45761
2017    25      6       0.3183651       76.63884
2017    25      7       0.3393686       80.78099
2017    26      0       0.3460449       82.28482
2017    26      1       0.4253852       96.36034
2017    26      2       0.6206511       126.1331
2017    26      3       0.8515945       154.6385
2017    26      4       1.048353        173.3681
2017    26      5       0.9540752       164.376
2017    26      6       0.8070274       148.7216
2017    26      7       0.8143975       149.7201
2017    27      0       0.8614661       154.8502
2017    27      1       0.7172309       137.9897
2017    27      2       0.4802006       104.7694
2017    27      3       0.3987547       91.19552
2017    27      4       0.5595035       116.8065
2017    27      5       0.6564047       130.1162
2017    27      6       0.6639005       131.0718
2017    27      7       0.6288579       126.175
2017    28      0       0.717557        137.8108
2017    28      1       0.7421082       140.6053
2017    28      2       0.7777403       145.3595
2017    28      3       1.067236        174.0721
2017    28      4       1.093524        175.6037
2017    28      5       1.070801        173.9981
2017    28      6       1.147991        180.4703
2017    28      7       1.012957        168.4356
2017    29      0       0.841462        150.4251
2017    29      1       0.8271545       147.975
2017    29      2       0.8401734       150.1298
2017    29      3       0.7940562       145.3761
2017    29      4       0.6708977       131.2881
2017    29      5       0.8279785       149.6993
2017    29      6       0.9713415       164.1499
2017    29      7       0.9894482       166.4203
2017    30      0       0.9899162       166.2686
2017    30      1       0.8111789       148.1201
2017    30      2       0.6447854       127.5844
2017    30      3       0.541776        113.0441
2017    30      4       0.6109486       123.2009
2017    30      5       0.6946141       134.8164
2017    30      6       0.974015        165.9652
2017    30      7       1.041798        172.6975
2017    31      0       1.095381        177.1976
2017    31      1       0.8782216       156.8486
2017    31      2       0.7454622       141.4457
2017    31      3       0.7213292       138.3485
2017    31      4       0.734699        139.9486
2017    31      5       0.7316291       139.4824
2017    31      6       0.8297508       150.8442
2017    31      7       0.9617822       164.5269
