####################################################################################################
# Month: 02Feb                                                                                     #
# Station: ORG                                                                                     #
# Frequency: 230 GHz                                                                               #
# Columns are: year    day     tau     Tb (K)                                                      #
####################################################################################################
2009    1       0.13609238      36.992885
2009    2       0.33747262      79.287355
2009    3       0.1789377       48.19675375
2009    4       0.15209475      42.04742125
2009    5       0.23535804      58.61234875
2009    6       0.32913514      75.47755875
2009    7       0.23857259      58.98652375
2009    8       0.21637402      54.98466
2009    9       0.32862514      74.97100625
2009    10      0.15400945      40.14339375
2009    11      0.30396855      69.71789
2009    12      0.21262242      52.54994375
2009    13      0.25662006      60.99040375
2009    14      0.25598334      60.34200625
2009    15      0.25761506      61.7154125
2009    16      0.23371426      56.977845
2009    17      0.32742426      74.5082125
2009    18      0.18046786      46.51625625
2009    19      0.10997449      31.20469
2009    20      0.14318871      38.88667
2009    21      0.1658782       44.450495
2009    22      0.33407729      75.60772375
2009    23      0.54284215      112.60086375
2009    24      0.32547134      75.5141575
2009    25      0.25240252      60.51967375
2009    26      0.38422202      85.643865
2009    27      0.11299932      31.66042375
2009    28      0.19604706      48.910915
2010    1       0.2224286       55.56835625
2010    2       0.36187321      81.974715
2010    3       0.3498887       79.3506
2010    4       0.31123147      72.42987875
2010    5       0.48649261      103.4416825
2010    6       0.33268474      75.18497875
2010    7       0.37913166      85.26314375
2010    8       0.24358877      59.936785
2010    9       0.21370238      53.86496875
2010    10      0.17612557      46.267095
2010    11      0.44757396      97.0110225
2010    12      0.30493326      70.74598
2010    13      0.40555751      90.08228875
2010    14      0.2506993       61.57628125
2010    15      0.34412176      79.46754125
2010    16      0.35458728      81.47431125
2010    17      0.22906569      57.63637625
2010    18      0.21126326      53.5340475
2010    19      0.16859871      44.29845375
2010    20      0.20938362      51.651755
2010    21      0.2291274       55.54756
2010    22      0.10766888      30.3036225
2010    23      0.1043984       29.93972
2010    24      0.5019234       105.04394625
2010    25      0.273959        64.4882175
2010    26      0.31694928      73.10771625
2010    27      0.4299981       94.184535
2010    28      0.24120426      59.430545
2011    1       0.11545777      31.48575125
2011    2       0.06877606      21.4919625
2011    3       0.21850562      55.39655125
2011    4       0.33539296      78.66527625
2011    5       0.37280322      84.735885
2011    6       0.43827232      96.7202325
2011    7       0.2242882       54.9047775
2011    8       0.30615249      70.74206
2011    9       0.14946741      39.65783625
2011    10      0.1451363       39.31534625
2011    11      0.22533936      56.59763
2011    12      0.17815922      46.61833125
2011    13      0.12264489      34.7852325
2011    14      0.19201852      48.61485125
2011    15      0.26240546      64.888955
2011    16      0.40182352      88.82538375
2011    17      0.2476476       58.40658625
2011    18      0.24785356      59.46058375
2011    19      0.41661096      90.41413375
2011    20      0.29943044      69.75634875
2011    21      0.21355506      52.88426375
2011    22      0.19184725      48.92532125
2011    23      0.13010125      35.61902875
2011    24      0.26929315      63.2620075
2011    25      0.31112595      71.18149375
2011    26      0.18245418      45.7040525
2011    27      0.14231319      38.4664275
2011    28      0.14181252      38.5150825
2012    1       0.29798854      68.91436125
2012    2       0.11087514      31.249885
2012    3       0.08257166      25.14557125
2012    4       0.09141712      27.43131875
2012    5       0.09209448      27.49798875
2012    6       0.08530423      25.8766275
2012    7       0.12224365      33.86057
2012    8       0.4053306       89.7924625
2012    9       0.43258916      95.72906625
2012    10      0.23231946      58.40138375
2012    11      0.39899382      88.94556
2012    12      0.30880441      71.62169625
2012    13      0.39363884      85.82651625
2012    14      0.28994981      67.72042125
2012    15      0.24004397      57.498305
2012    16      0.1169791       32.70584875
2012    17      0.24488251      60.9855075
2012    18      0.36686415      82.80271875
2012    19      0.1757873       45.09018
2012    20      0.290368        67.90915375
2012    21      0.51927695      108.76591875
2012    22      0.3464798       79.01624625
2012    23      0.22662112      54.8404975
2012    24      0.22611324      56.94387875
2012    25      0.21752114      54.5236875
2012    26      0.09787991      27.814725
2012    27      0.15058064      39.4345725
2012    28      0.14624708      38.72019625
2012    29      0.3322254       75.46203
2013    1       0.16674226      44.50292625
2013    2       0.11269936      32.46500875
2013    3       0.14813456      40.0738075
2013    4       0.22956587      57.23705125
2013    5       0.24051315      58.98002125
2013    6       0.16548635      43.07016
2013    7       0.17915041      45.96093875
2013    8       0.27970694      66.1838625
2013    9       0.12906407      35.19455
2013    10      0.21949474      54.287555
2013    11      0.17242459      45.0364525
2013    12      0.2473964       60.77751
2013    13      0.31026864      73.99275875
2013    14      0.25548026      62.41906
2013    15      0.20753259      53.4896525
2013    16      0.11671809      33.45999125
2013    17      0.14339697      38.161005
2013    18      0.18176033      46.082305
2013    19      0.37745028      83.56817625
2013    20      0.18253398      46.3487475
2013    21      0.19401171      48.98839625
2013    22      0.3371666       76.93219375
2013    23      0.36734306      80.4120825
2013    24      0.1685265       43.6993725
2013    25      0.23882996      58.77383625
2013    26      0.15999451      41.835225
2013    27      0.15336643      40.4521675
2013    28      0.42697929      92.59245625
2014    1       0.20763208      52.09264125
2014    2       0.13857052      37.5782225
2014    3       0.2573941       61.9681925
2014    4       0.21268989      52.64574
2014    5       0.159654        41.46675625
2014    6       0.28915944      67.680865
2014    7       0.42114224      90.46906125
2014    8       0.45887401      97.76258125
2014    9       0.3731955       83.06948875
2014    10      0.33944736      76.7985775
2014    11      0.25324291      61.7448625
2014    12      0.61820742      123.16580125
2014    13      0.50337179      105.87589
2014    14      0.76863005      143.585125
2014    15      0.64875151      126.5366425
2014    16      0.30810521      71.67553
2014    17      0.09145086      27.08003125
2014    18      0.2175204       53.791535
2014    19      0.31544538      72.79087625
2014    20      0.25772729      61.89743
2014    21      0.27383169      65.15668125
2014    22      0.19862609      50.5388775
2014    23      0.18384792      48.0771125
2014    24      0.47908449      102.10523625
2014    25      0.4166222       93.4498625
2014    26      0.32683292      77.22667875
2014    27      0.51715998      107.87378875
2014    28      0.38547915      85.02982375
2015    1       0.29385655      69.57593875
2015    2       0.58676041      119.54072
2015    3       0.52873045      110.3509875
2015    4       0.33280828      75.627805
2015    5       0.22599751      56.32482625
2015    6       0.29303434      69.79622375
2015    7       0.54771015      113.0382425
2015    8       0.33706665      78.4995675
2015    9       0.54538941      112.08124375
2015    10      0.22820856      56.36690625
2015    11      0.24512372      60.85598125
2015    12      0.3177941       76.30255125
2015    13      0.21083928      53.540805
2015    14      0.29943769      72.23218375
2015    15      0.09890339      29.01026875
2015    16      0.14175234      38.7924875
2015    17      0.25764914      63.57572
2015    18      0.23642306      60.59838125
2015    19      0.23808182      60.40439625
2015    20      0.18052382      47.31753875
2015    21      0.19950738      50.30394375
2015    22      0.18339274      46.456095
2015    23      0.05898722      19.1725425
2015    24      0.16427006      43.3144475
2015    25      0.2337386       58.2971925
2015    26      0.35694624      81.0487975
2015    27      0.40313988      88.64645625
2015    28      0.35949311      80.76589625
2016    1       0.11389214      31.305075
2016    2       0.13519408      36.32718
2016    3       0.17042354      44.35364125
2016    4       0.3117184       70.7427725
2016    5       0.25050275      61.62825125
2016    6       0.29931499      71.2019975
2016    7       0.43033676      95.989745
2016    8       0.23769651      60.44242875
2016    9       0.100839        30.08639125
2016    10      0.15453567      42.11213875
2016    11      0.42106546      94.55952125
2016    12      0.28791219      69.447915
2016    13      0.21926764      54.6974175
2016    14      0.47825002      100.91571125
2016    15      0.35520256      82.2013975
2016    16      0.21134891      54.64547625
2016    17      0.26321578      64.43149125
2016    18      0.34696416      79.60496
2016    19      0.25232216      61.0476375
2016    20      0.20823466      52.21998
2016    21      0.22975514      57.1683825
2016    22      0.20492948      51.01934375
2016    23      0.12564834      35.3337325
2016    24      0.29032857      69.64312375
2016    25      0.31144388      74.68983
2016    26      0.29347646      71.63763125
2016    27      0.30181649      71.7543575
2016    28      0.37821689      85.72091125
2016    29      0.23310046      57.2985
2017    1       0.24963684      59.70011125
2017    2       0.32090442      74.3047225
2017    3       0.4521446       98.30293375
2017    4       0.44658018      97.614455
2017    5       0.43400274      94.2775525
2017    6       0.3966062       88.36204125
2017    7       0.70290664      135.2024125
2017    8       0.41325771      90.39433625
2017    9       0.64002961      127.8734125
2017    10      0.45928262      98.175785
2017    11      0.24443006      58.49787625
2017    12      0.06975746      21.86700875
2017    13      0.17716324      46.37216875
2017    14      0.09384328      28.3772725
2017    15      0.12358156      34.22030875
2017    16      0.56636604      117.839275
2017    17      0.37824221      84.7512225
2017    18      0.56338766      115.33049875
2017    19      0.41539191      90.34986125
2017    20      0.42655299      93.3982675
2017    21      0.42576634      92.7815125
2017    22      0.30806734      71.08457125
2017    23      0.28885074      67.0646875
2017    24      0.16918309      42.87575875
2017    25      0.1482379       38.8533
2017    26      0.16472522      42.2524875
2017    27      0.25603736      60.55906
2017    28      0.25015225      59.7696925
2018    1       0.53199616      110.9952875
2018    2       0.4022287       89.96697
2018    3       0.30717134      73.22669625
2018    4       0.29023336      70.718485
2018    5       0.30265109      71.585305
2018    6       0.18722499      48.5231
2018    7       0.3491365       81.552135
2018    8       0.31915849      76.463555
2018    9       0.2716877       66.003965
2018    10      0.23564533      56.82396625
2018    11      0.11257005      30.84337875
2018    12      0.30371499      70.44783125
2018    13      0.11311806      31.76269875
2018    14      0.2286861       55.15050125
2018    15      0.16814912      42.695965
2018    16      0.18993111      48.818315
2018    17      0.28364659      68.18937375
2018    18      0.34388157      78.85948125
2018    19      0.18970936      47.2375
2018    20      0.08700979      24.9630825
2018    21      0.16552529      42.24575625
2018    22      0.24338062      57.94335375
2018    23      0.13543746      35.78314
2018    24      0.2072748       50.8673575
2018    25      0.18837729      47.5174375
2018    26      0.35836588      79.92232375
2018    27      0.11147878      30.845455
2018    28      0.18809852      47.4367525
