####################################################################################################
# Month: 11Nov                                                                                     #
# Station: NZ                                                                                      #
# Frequency: 230 GHz                                                                               #
# Columns are: year    day     tau     Tb (K)                                                      #
####################################################################################################
2009    1       0.54742659      113.6923275
2009    2       0.29688334      72.21007375
2009    3       0.37897589      85.8637525
2009    4       0.11386111      32.66916125
2009    5       0.24615076      59.4258525
2009    6       0.22831446      57.40222125
2009    7       0.37754584      86.1335375
2009    8       0.51468986      105.5664625
2009    9       0.20323892      51.54552125
2009    10      0.44395741      97.4849425
2009    11      0.25140736      60.40432375
2009    12      0.47247971      101.59607375
2009    13      0.338082        78.75160625
2009    14      0.51131544      110.10913625
2009    15      0.3318638       77.587045
2009    16      0.26397841      64.2204675
2009    17      0.3371          78.69068625
2009    18      0.41436836      92.62912125
2009    19      0.48811784      106.07279375
2009    20      0.55701062      118.09261125
2009    21      0.4041096       87.6473875
2009    22      0.59623244      115.0298725
2009    23      0.49483361      101.06227
2009    24      0.33446144      78.32911625
2009    25      0.30790854      71.90618
2009    26      0.34676934      80.14822125
2009    27      0.58298694      117.460565
2009    28      0.23643969      59.58253
2009    29      0.54330552      113.62694625
2009    30      0.71101513      138.9149875
2010    1       0.22259495      57.70470875
2010    2       0.15032535      41.7427825
2010    3       0.23176934      55.20034375
2010    4       0.31632745      71.46302125
2010    5       0.30847081      69.72611125
2010    6       0.25571398      63.37817375
2010    7       0.35445636      83.2135275
2010    8       0.25576264      63.82298375
2010    9       0.23718159      59.418795
2010    10      0.5838598       117.28099625
2010    11      0.62596951      125.42118125
2010    12      0.38324216      87.5189075
2010    13      0.61218938      125.68695625
2010    14      0.15127817      40.43066875
2010    15      0.68024262      128.862635
2010    16      0.7197444       140.0276975
2010    17      0.46371908      101.91639
2010    18      0.53507385      112.43070375
2010    19      0.76339754      143.201825
2010    20      0.52974394      109.651015
2010    21      0.43009021      91.01002375
2010    22      0.24252642      58.32976875
2010    23      0.20266306      52.34054125
2010    24      0.52110464      108.6772275
2010    25      0.51267096      109.6116225
2010    26      0.76153476      147.01485
2010    27      0.61821204      113.6840975
2010    28      0.14310315      39.8384825
2010    29      0.35349007      83.6469375
2010    30      0.50635168      102.49142625
2011    1       0.82485129      151.344975
2011    2       0.59227023      117.561165
2011    3       0.38541048      86.58384625
2011    4       0.30158184      69.54970375
2011    5       0.46713764      100.4807325
2011    6       0.65682874      131.194925
2011    7       0.55485852      115.7144225
2011    8       0.3926732       88.84038875
2011    9       0.42698269      86.199485
2011    10      0.07760949      24.24848875
2011    11      0.70625006      136.5677875
2011    12      0.4881253       105.494185
2011    13      0.5355118       111.02782125
2011    14      0.35717181      78.94215625
2011    15      0.30886686      71.67011
2011    16      0.20896528      52.94096375
2011    17      0.27698831      65.6626625
2011    18      0.31615177      73.506865
2011    19      0.6182999       123.55545125
2011    20      1.11245508      181.88755
2011    21      0.37840771      82.20942625
2011    22      0.38334041      81.44510375
2011    23      0.40018441      88.23956375
2011    24      0.3939437       89.96335125
2011    25      0.28820111      69.118385
2011    26      0.43253734      97.79166125
2011    27      0.5732146       120.75375375
2011    28      0.56341186      107.71837875
2011    29      0.17728782      47.18618
2011    30      0.08251416      25.62279875
2012    1       0.43337511      96.142435
2012    2       0.53454435      109.20808875
2012    3       0.34207736      76.61516
2012    4       0.30761231      72.108385
2012    5       0.23859117      56.722215
2012    6       0.18453634      47.9806975
2012    7       0.26806014      65.07392375
2012    8       0.22672843      57.52920125
2012    9       0.17217528      45.8216175
2012    10      0.46599511      101.02258125
2012    11      0.45674498      94.03382
2012    12      0.23957993      58.869835
2012    13      0.37412276      84.8431625
2012    14      0.47044825      102.11167625
2012    15      0.73044511      138.2669375
2012    16      0.54427426      113.3781875
2012    17      0.603662        119.07884
2012    18      0.35919874      82.17254625
2012    19      0.42733361      94.93783375
2012    20      0.31001979      73.36302625
2012    21      0.23098579      58.6181625
2012    22      0.28944688      69.603175
2012    23      0.36999152      83.39876375
2012    24      0.45146115      98.3809125
2012    25      0.36144892      84.13109625
2012    26      0.27077534      63.65528
2012    27      0.17611045      46.19295875
2012    28      0.30846404      73.14700625
2012    29      0.48815165      102.0939475
2012    30      0.55626319      116.4435125
2013    1       0.34368615      78.45357875
2013    2       0.29105082      70.2912925
2013    3       0.33717294      78.69409625
2013    4       0.46665589      101.14107875
2013    5       0.59797631      120.26856875
2013    6       0.30631031      72.88486125
2013    7       0.22339142      57.68217375
2013    8       0.59005552      121.44453
2013    9       0.50782612      107.04707
2013    10      0.47236415      102.87009875
2013    11      0.25100508      63.13298625
2013    12      0.12153511      35.19439
2013    13      0.240407        61.58318625
2013    14      0.37244418      86.31348875
2013    15      0.50528019      107.7111925
2013    16      0.31985803      76.489015
2013    17      0.38898329      86.77706625
2013    18      0.35073542      81.1797325
2013    19      0.28877436      70.601395
2013    20      0.5743769       119.775175
2013    21      0.54342321      102.87648625
2013    22      0.34958342      82.4006775
2013    23      0.44569148      99.2833775
2013    24      0.63323178      119.42419125
2013    25      0.85655161      154.2659375
2013    26      0.61636994      125.7148125
2013    27      0.55288424      116.18343
2013    28      0.6773812       129.56755125
2013    29      0.58679251      121.27782875
2013    30      0.42485849      93.50305625
2014    1       0.37981074      87.4605
2014    2       0.43416081      95.74274625
2014    3       0.36184365      81.13845875
2014    4       0.29201246      67.86614125
2014    5       0.32755524      74.0003225
2014    6       0.22234171      55.29094625
2014    7       0.32911328      77.399775
2014    8       0.54303399      111.4075875
2014    9       0.4195717       93.2414325
2014    10      0.44238854      98.2969925
2014    11      0.41134868      90.2196075
2014    12      0.39652095      87.52415
2014    13      0.40335564      89.2239175
2014    14      0.5185849       109.59232375
2014    15      0.36546664      82.386115
2014    16      0.30724679      73.54950875
2014    17      0.52910845      109.23212
2014    18      0.44013565      94.92578
2014    19      0.33926844      75.52366875
2014    20      0.57994105      120.000475
2014    21      0.76568606      146.1826875
2014    22      0.51651624      104.36362125
2014    23      0.40114309      89.98491125
2014    24      0.46512974      102.7078225
2014    25      0.64617072      121.03492125
2014    26      0.405531        91.58747625
2014    27      0.45653939      98.90505625
2014    28      0.54017422      110.3923975
2014    29      0.40802695      91.30281
2014    30      0.47896198      101.44768375
2015    1       0.13544158      38.18369375
2015    2       0.1952235       48.4617325
2015    3       0.49060642      103.87831125
2015    4       0.09928459      29.0562025
2015    5       0.20314448      52.40966125
2015    6       0.21014468      54.6654675
2015    7       0.60055505      120.5148375
2015    8       0.73519585      139.344855
2015    9       0.50884589      110.66117
2015    10      0.71324945      139.2748
2015    11      0.40761905      87.727195
2015    12      0.16560988      43.74590875
2015    13      0.2921773       68.91531125
2015    14      0.66578355      132.3018375
2015    15      0.42741248      92.3878875
2015    16      0.4164381       93.75633625
2015    17      0.313399        71.35108
2015    18      0.17012894      45.0705825
2015    19      0.41430314      92.74364875
2015    20      0.28919579      68.92675125
2015    21      0.52032919      109.98766375
2015    22      0.2870043       69.7655225
2015    23      0.37998638      88.63906125
2015    24      0.46258189      102.2325675
2015    25      0.35803876      79.90608125
2015    26      0.41828376      91.744735
2015    27      0.37351014      85.2086525
2015    28      0.22575349      56.1063275
2015    29      0.24851556      62.06961375
2015    30      0.21407996      54.94346125
2016    1       0.54053319      113.41335
2016    2       0.57526972      117.10991625
2016    3       0.4629311       98.516955
2016    4       0.55267558      113.38680625
2016    5       0.61561919      123.07082875
2016    6       0.49857464      103.11112625
2016    7       0.57312962      115.42370375
2016    8       0.52847326      113.4267075
2016    9       0.1894053       49.21093375
2016    10      0.34945032      78.88477125
2016    11      0.7950683       145.772175
2016    12      0.524109        110.75283
2016    13      0.41658928      92.38021
2016    14      0.7600953       141.995925
2016    15      0.77673825      144.0649625
2016    16      0.67980156      131.95705
2016    17      0.46353002      97.22094
2016    18      0.3930721       90.73667125
2016    19      0.29435318      70.21862375
2016    20      0.42858032      95.44801
2016    21      0.42209658      95.77065
2016    22      0.40967049      93.06690375
2016    23      0.70953844      140.2821125
2016    24      0.62631518      126.22913625
2016    25      0.43948775      97.2484375
2016    26      0.41814304      92.54104625
2016    27      0.31462516      72.58289875
2016    28      0.48009854      104.16898
2016    29      0.27179446      65.83445625
2016    30      0.38491606      86.88067125
2017    1       0.36636126      85.45588125
2017    2       0.57866221      117.88119875
2017    3       0.50239054      106.24788125
2017    4       0.27835886      67.16629875
2017    5       0.26719026      63.0091625
2017    6       0.26738123      62.78104875
2017    7       0.50140185      105.6575325
2017    8       0.26211108      64.29470625
2017    9       0.16911732      44.64823625
2017    10      0.3445671       78.97412875
2017    11      0.25565843      63.7501525
2017    12      0.34806782      77.4556825
2017    13      0.17347496      46.47302375
2017    14      0.23944955      60.9550875
2017    15      0.34509566      80.93005
2017    16      0.28273846      69.034965
2017    17      0.48121881      103.00879375
2017    18      0.17297781      46.84244
2017    19      0.2332431       59.54487625
2017    20      0.51246595      109.42207125
2017    21      0.32346294      78.70502375
2017    22      0.48053384      107.33585875
2017    23      0.62970395      128.52411875
2017    24      0.62921125      128.31215
2017    25      0.70112078      137.1926125
2017    26      0.72049356      139.390375
2017    27      0.67358392      132.60212625
2017    28      0.62078941      125.8981125
2017    29      0.7694175       145.7684625
2017    30      0.70995535      135.9616275
2018    1       0.18096571      46.62459375
2018    2       0.68863751      130.69415625
2018    3       0.40398195      90.040595
2018    4       0.32892509      76.67281375
2018    5       0.29125159      70.70959625
2018    6       0.42467822      95.416775
2018    7       0.64457676      129.24372875
2018    8       1.16741746      185.08755
2018    9       0.35974021      79.72881625
2018    10      0.31878314      75.45538125
2018    11      0.37550525      85.14036375
2018    12      0.43969478      93.7635525
2018    13      0.18886539      49.851765
2018    14      0.14560464      40.00897375
2018    15      0.17050425      44.53768125
2018    16      0.45648564      100.4531625
2018    17      0.40176808      90.28530375
2018    18      0.42838418      92.3271375
2018    19      0.47956415      101.37815875
2018    20      0.343059        76.89359625
2018    21      0.41932182      94.2454325
2018    22      0.39825588      89.563655
2018    23      0.70801882      136.83579875
2018    24      1.11659738      183.0775875
2018    25      0.93268101      163.5893375
2018    26      0.51001935      108.6050975
2018    27      0.43106031      95.100125
2018    28      0.6416273       126.7316625
2018    29      0.53360185      111.18878125
2018    30      0.62934938      126.9333925
