####################################################################################################
# Month: 11Nov                                                                                     #
# Station: LLA                                                                                     #
# Frequency: 345 GHz                                                                               #
# Columns are: year    day     tau     Tb (K)                                                      #
####################################################################################################
2009    1       0.56787919      114.89312125
2009    2       0.43682658      94.71733
2009    3       0.51978171      110.0981425
2009    4       0.38518192      87.44610125
2009    5       0.45235311      98.570225
2009    6       0.42855921      93.74123375
2009    7       0.23999114      59.8618575
2009    8       0.11901733      35.1473775
2009    9       0.13013718      37.19909
2009    10      0.13971671      39.46387125
2009    11      0.12736358      37.199815
2009    12      0.16102968      44.23383125
2009    13      0.4643831       97.32230125
2009    14      0.69411312      128.85864625
2009    15      0.89691186      152.4742125
2009    16      0.35170205      80.7649075
2009    17      0.3077326       71.5845825
2009    18      0.3578708       82.05267125
2009    19      0.25592618      62.88364625
2009    20      0.62697661      124.73556375
2009    21      0.21954018      55.7007825
2009    22      0.21269829      54.62556375
2009    23      0.28720176      69.277035
2009    24      0.92083391      156.78977875
2009    25      0.71017658      134.2533725
2009    26      0.88520931      156.4325375
2009    27      0.93257541      158.4225125
2009    28      0.50774685      103.2428875
2009    29      0.45031035      91.1325375
2009    30      0.65129999      124.6924675
2010    1       0.15897416      43.710395
2010    2       0.19424749      51.44077
2010    3       0.234928        59.15496375
2010    4       0.27211616      63.0153175
2010    5       0.19448744      50.010105
2010    6       0.13567455      38.57903375
2010    7       0.31768458      74.72247625
2010    8       0.26314068      64.90654875
2010    9       0.12829485      37.155065
2010    10      0.12779249      36.69376375
2010    11      0.10129369      30.60820625
2010    12      0.10193319      31.02297625
2010    13      0.10794447      32.27395375
2010    14      0.13795547      38.67249625
2010    15      0.1942111       50.60117875
2010    16      0.16424096      44.043975
2010    17      0.21184559      53.82853
2010    18      0.20707291      53.07719375
2010    19      0.12116502      34.76001875
2010    20      0.17407912      44.92241
2010    21      0.11327502      33.30822625
2010    22      0.18006525      46.64309875
2010    23      0.20784182      53.3190875
2010    24      0.19065008      49.55653875
2010    25      0.13492745      37.99009875
2010    26      0.1551671       42.88443375
2010    27      0.15486635      42.24971625
2010    28      0.1705206       45.91234
2010    29      0.10258299      30.93446875
2010    30      0.09849498      29.9757625
2011    1       0.36135381      82.48170875
2011    2       0.23417422      58.64770375
2011    3       0.36409405      83.70909
2011    4       0.42731076      90.05832875
2011    5       0.79897059      142.850005
2011    6       0.61517085      121.49258125
2011    7       0.36569774      82.65676125
2011    8       0.30350879      72.42956875
2011    9       0.19379552      49.45828875
2011    10      0.33067174      73.52811
2011    11      0.22235194      57.084435
2011    12      0.2972941       70.4126025
2011    13      0.28341668      67.83639875
2011    14      0.17086473      46.25495375
2011    15      0.32214535      76.34586
2011    16      0.31713428      75.3228275
2011    17      0.28689096      70.082785
2011    18      0.28604568      68.76147
2011    19      0.54654268      111.32898625
2011    20      0.43435475      93.78185375
2011    21      0.11922355      34.52495375
2011    22      0.15983407      43.67712125
2011    23      0.23778325      59.11804
2011    24      0.33820865      77.79678625
2011    25      0.3582595       82.21649625
2011    26      0.66292445      130.7851125
2011    27      0.39080458      88.11992125
2011    28      0.48606144      102.4905175
2011    29      0.28755526      63.1723275
2011    30      0.56664326      112.897635
2012    1       0.23046652      57.6769425
2012    2       0.31795568      73.82678125
2012    3       0.25452179      62.43719125
2012    4       0.52471953      108.874995
2012    5       0.50005385      103.41901625
2012    6       0.52301549      109.14496
2012    7       0.47249261      97.60378375
2012    8       0.2496249       62.297695
2012    9       0.18566668      46.68602875
2012    10      0.17327567      46.18207875
2012    11      0.10574221      32.0774525
2012    12      0.19749336      51.71829125
2012    13      0.30317091      73.3022575
2012    14      0.23324828      58.92043375
2012    15      0.28106189      68.04381125
2012    16      0.21386491      55.12794625
2012    17      0.25084724      61.74071875
2012    18      0.21937889      54.1524275
2012    19      0.72269194      134.1445475
2012    20      0.38969925      88.14587875
2012    21      0.40815992      89.227445
2012    22      0.50054262      104.88313
2012    23      0.24028631      59.703705
2012    24      0.17823257      47.1128425
2012    25      0.18140996      48.35212625
2012    26      0.17692429      47.2822325
2012    27      0.15463518      42.717655
2012    28      0.21478826      54.22317125
2012    29      0.39773975      88.99697875
2012    30      0.18038968      47.04489625
2013    1       0.4234653       91.65106875
2013    2       0.20430361      50.170685
2013    3       0.13974873      39.21242125
2013    4       0.20544124      53.52257625
2013    5       0.22861052      57.93327875
2013    6       0.37801849      86.79581375
2013    7       0.26697444      66.03016
2013    8       0.13488263      38.401815
2013    9       0.14032183      39.28377375
2013    10      0.18053266      48.57075875
2013    11      0.0763807       25.047205
2013    12      0.10464256      31.7697875
2013    13      0.22024578      56.28973
2013    14      0.19999221      51.4009975
2013    15      0.23075123      56.6568275
2013    16      0.19491838      51.9988425
2013    17      0.13633867      38.98191875
2013    18      0.22055616      54.01652125
2013    19      0.31229356      72.47475375
2013    20      0.21068997      52.63245125
2013    21      0.2634626       64.373615
2013    22      0.33332578      76.97771125
2013    23      0.29655858      71.3633875
2013    24      0.36951295      83.44163875
2013    25      0.36398918      77.026905
2013    26      0.37375594      78.5889575
2013    27      0.14523434      40.4892175
2013    28      0.1760802       48.12364125
2013    29      0.19409695      51.124015
2013    30      0.17008912      46.208125
2014    1       0.21530316      55.5060675
2014    2       0.2010881       52.51792
2014    3       0.13927336      39.51587875
2014    4       0.13658555      39.20044125
2014    5       0.08501652      27.1676975
2014    6       0.11441714      33.69787875
2014    7       0.2256442       54.35213875
2014    8       0.30231606      68.54982875
2014    9       0.22899459      58.7354425
2014    10      0.32935903      75.34345625
2014    11      0.37644501      85.40819625
2014    12      0.22325102      56.976505
2014    13      0.32942199      76.26139625
2014    14      0.3162244       72.91324375
2014    15      0.33460359      77.5655425
2014    16      0.5817621       116.71343875
2014    17      0.80474929      146.11705
2014    18      0.37145859      83.33176625
2014    19      0.38565484      82.81578375
2014    20      0.3224258       72.9117
2014    21      0.18486132      47.1788475
2014    22      0.12470816      35.9652775
2014    23      0.18014286      47.63825625
2014    24      0.23696719      58.20708125
2014    25      0.20483636      52.7042425
2014    26      0.16933118      43.85949
2014    27      0.21632209      55.12186
2014    28      0.19704681      50.4064875
2014    29      0.21824696      54.7349275
2014    30      0.10535239      31.90487875
2015    1       0.2041503       51.0245125
2015    2       0.21658321      54.44759125
2015    3       0.27619901      65.26837125
2015    4       0.14518928      39.1194425
2015    5       0.07666802      25.19483
2015    6       0.0857662       27.13733875
2015    7       0.09810842      29.91270625
2015    8       0.12263501      35.329305
2015    9       0.10136488      30.57679375
2015    10      0.24406106      55.475175
2015    11      0.52641966      111.50788125
2015    12      0.23072338      58.43814875
2015    13      0.23935784      59.4950625
2015    14      0.3657215       82.0730675
2015    15      0.26961452      65.36600625
2015    16      0.30870441      71.0483
2015    17      0.31695759      70.40692375
2015    18      0.22070726      56.208665
2015    19      0.2081756       52.31090125
2015    20      0.14016573      39.22411625
2015    21      0.15043516      41.42005625
2015    22      0.17357245      46.591905
2015    23      0.19071018      50.485365
2015    24      0.24026048      61.25685125
2015    25      0.4889359       103.53927
2015    26      0.55099465      114.6325375
2015    27      0.35340854      79.80307625
2015    28      0.25344659      63.03590125
2015    29      0.21043935      53.82242
2015    30      0.21807106      55.91577
2016    1       0.20400916      51.433915
2016    2       0.15577089      40.431495
2016    3       0.12566535      36.39439875
2016    4       0.11551498      34.09089375
2016    5       0.21023616      54.287535
2016    6       0.55581111      113.9159875
2016    7       0.47941539      100.9246525
2016    8       0.52299022      108.8184475
2016    9       0.2720576       65.905235
2016    10      0.47082205      101.7981325
2016    11      0.65783396      125.04621125
2016    12      0.45609184      95.29803125
2016    13      0.21647244      55.28832
2016    14      0.2830392       65.60138125
2016    15      0.28328114      66.36553375
2016    16      0.61049135      121.302105
2016    17      0.45965011      98.95258625
2016    18      0.17748842      47.8963
2016    19      0.43336832      92.241365
2016    20      0.30710046      69.699155
2016    21      0.43460301      92.47567
2016    22      0.38375775      86.12627
2016    23      0.11810958      34.7558425
2016    24      0.12097039      35.447855
2016    25      0.21729235      52.70320625
2016    26      0.31625399      72.84078875
2016    27      0.28952236      68.7827825
2016    28      0.36185945      80.2883525
2016    29      0.58670559      116.08018625
2016    30      0.52120956      109.50983
2017    1       0.09654926      29.495295
2017    2       0.09256073      28.678175
2017    3       0.10226054      30.56483875
2017    4       0.09332544      28.658915
2017    5       0.20614004      53.41782125
2017    6       0.29309084      70.8288075
2017    7       0.21782255      55.72055625
2017    8       0.22266822      57.0084075
2017    9       0.21339143      55.86326
2017    10      0.17914932      47.86689125
2017    11      0.18523658      48.778555
2017    12      0.35520448      80.91790375
2017    13      0.57945779      115.13231625
2017    14      0.79299104      144.160225
2017    15      0.42590559      94.014565
2017    16      0.24185862      61.58690625
2017    17      0.12114183      35.30032875
2017    18      0.11821894      34.88427375
2017    19      0.10483208      31.4966475
2017    20      0.10629156      31.7595525
2017    21      0.09617809      29.64347125
2017    22      0.10110989      30.809665
2017    23      0.08265788      26.395325
2017    24      0.1123914       32.78006125
2017    25      0.10759893      31.98469
2017    26      0.1347122       38.09150375
2017    27      0.17333907      45.80089125
2017    28      0.71615348      136.77965
2017    29      0.27250142      66.18154875
2017    30      0.24123785      59.70977625
2018    1       0.17039278      45.7171825
2018    2       0.21402346      55.00122
2018    3       0.36130861      80.45360875
2018    4       0.36231231      81.4685375
2018    5       0.40317368      88.35483375
2018    6       0.44214078      95.63708375
2018    7       0.83243019      150.1415125
2018    8       0.28272909      66.880575
2018    9       0.19888573      52.3507075
2018    10      0.18567235      49.826765
2018    11      0.31371772      73.02949125
2018    12      0.46632741      100.70322875
2018    13      0.1737245       45.61927375
2018    14      0.07751526      25.36548375
2018    15      0.11073076      32.94019625
2018    16      0.30980844      69.6527675
2018    17      0.28148774      68.23630375
2018    18      0.38117221      83.10577375
2018    19      0.27298076      66.17182625
2018    20      0.19013181      50.06820625
2018    21      0.4500764       100.07954125
2018    22      0.21278714      54.43708
2018    23      0.27795364      66.9823725
2018    24      0.23474751      59.36844625
2018    25      0.30372728      73.30413
2018    26      0.19405847      50.568535
2018    27      0.17750493      47.25827625
2018    28      0.37667084      83.49369375
2018    29      0.30029734      72.23592875
2018    30      0.16986631      46.23434375
