####################################################################################################
# Month: 07Jul                                                                                     #
# Station: MOR                                                                                     #
# Frequency: 230 GHz                                                                               #
# Columns are: year    day     tau     Tb (K)                                                      #
####################################################################################################
2009    1       0.49618161      109.3115825
2009    2       0.53252817      115.4227375
2009    3       0.55760026      118.38867
2009    4       0.57581898      121.4205
2009    5       0.54287978      116.61535
2009    6       0.38188934      90.27486375
2009    7       0.20277411      54.2117025
2009    8       0.16823958      46.55360625
2009    9       0.16792152      45.8325725
2009    10      0.28827498      71.34779
2009    11      0.1746294       47.7815925
2009    12      0.14927741      42.0298075
2009    13      0.30392728      74.7081825
2009    14      0.26658585      68.05739375
2009    15      0.26743569      66.0343625
2009    16      0.673798        135.531325
2009    17      0.78226592      150.0515375
2009    18      0.67274246      133.613725
2009    19      0.75853438      146.8205875
2009    20      0.51494586      112.5009625
2009    21      0.53067559      115.1251
2009    22      0.49970948      110.17439
2009    23      0.44795575      101.86475875
2009    24      0.41058549      95.03473875
2009    25      0.33875031      81.80089125
2009    26      0.40538286      94.7684125
2009    27      0.37525225      89.27300875
2009    28      0.39759825      92.86216
2009    29      0.44716592      101.1410875
2009    30      0.5667246       119.753475
2009    31      0.54882158      116.43578375
2010    1       0.3060434       75.7949925
2010    2       0.36777406      86.42483125
2010    3       0.52214005      111.61413625
2010    4       0.51894006      112.51050125
2010    5       0.20177375      53.1308825
2010    6       0.32712071      78.70821125
2010    7       0.4559794       103.05652
2010    8       0.59892841      125.19435
2010    9       0.76797614      148.6747125
2010    10      0.79921236      151.9862875
2010    11      0.83757669      156.8992125
2010    12      0.5619368       119.677525
2010    13      0.32277755      79.19058875
2010    14      0.3601801       85.984965
2010    15      0.328406        80.1993425
2010    16      0.33839128      81.420165
2010    17      0.44337035      99.23513125
2010    18      0.58300994      122.4491825
2010    19      0.71760615      140.731625
2010    20      0.44755269      101.018975
2010    21      0.48865564      107.40372125
2010    22      0.47892919      106.29372125
2010    23      0.54993466      117.0849475
2010    24      0.74723459      145.7298375
2010    25      0.79664925      152.4968125
2010    26      0.64429905      132.4110625
2010    27      0.8328893       156.053475
2010    28      0.62331308      129.6186625
2010    29      0.50690165      112.25188
2010    30      0.18234376      50.17741
2010    31      0.41149628      93.80943875
2011    1       0.53659315      115.28005125
2011    2       0.51343111      111.49111125
2011    3       0.33119532      80.15892375
2011    4       0.25920955      66.3909075
2011    5       0.44752454      100.2097925
2011    6       0.55659107      119.40325
2011    7       0.52488548      114.04664375
2011    8       0.75276682      145.8005625
2011    9       0.59903121      126.1843
2011    10      0.59888189      126.1167375
2011    11      0.52621569      113.88021
2011    12      0.59501102      124.183925
2011    13      0.5054758       111.7173075
2011    14      0.2009903       53.89530625
2011    15      0.17875672      48.52624
2011    16      0.27304876      69.12853875
2011    17      0.22956714      60.5095175
2011    18      0.18743268      51.174775
2011    19      0.24007522      62.11449125
2011    20      0.20848282      56.05255375
2011    21      0.24717982      62.20699125
2011    22      0.43616579      100.04967375
2011    23      0.28161448      71.30676125
2011    24      0.14405555      41.4159775
2011    25      0.23786892      62.65076375
2011    26      0.19467245      53.5508
2011    27      0.1655017       46.0407775
2011    28      0.4775233       108.0356725
2011    29      0.45380249      103.40393875
2011    30      0.49218504      110.2694875
2011    31      0.63246362      129.8024625
2012    1       0.31054515      76.69599625
2012    2       0.54908278      116.31778125
2012    3       0.54367064      116.8300625
2012    4       0.61512493      127.7024125
2012    5       0.53448274      115.8956125
2012    6       0.4671997       104.9872875
2012    7       0.65868151      130.347895
2012    8       0.74371489      145.23795
2012    9       0.52165682      114.2652
2012    10      0.65522236      132.3984125
2012    11      0.58866248      123.1727925
2012    12      0.58268859      122.36848375
2012    13      0.37810314      86.59288
2012    14      0.28081871      70.39107625
2012    15      0.3329077       80.5271925
2012    16      0.50577385      108.351895
2012    17      0.65120884      131.6043625
2012    18      0.64942161      130.7321
2012    19      0.35240088      83.26285
2012    20      0.510462        110.20763625
2012    21      0.63335488      128.14123875
2012    22      0.41717955      95.653835
2012    23      0.21017485      55.51238
2012    24      0.28058934      70.18139625
2012    25      0.19205646      51.5838475
2012    26      0.18336105      49.7038275
2012    27      0.15671544      43.78974625
2012    28      0.12294126      36.29419625
2012    29      0.32752194      76.88176
2012    30      0.48440354      107.24037375
2012    31      0.32621886      79.581615
2013    1       0.22741388      59.81845125
2013    2       0.23117728      59.7517225
2013    3       0.17528989      48.02883125
2013    4       0.25339658      63.63367625
2013    5       0.47531088      106.447615
2013    6       0.58833132      124.4738875
2013    7       0.75714679      145.4270625
2013    8       0.73759339      142.9420625
2013    9       0.78007539      147.8409625
2013    10      0.74858229      145.46825
2013    11      0.71809398      140.2983375
2013    12      0.40517646      92.88171625
2013    13      0.39377904      91.63001625
2013    14      0.31668374      77.64521125
2013    15      0.45066321      101.3595925
2013    16      0.54271478      117.2424875
2013    17      0.34051226      81.6949525
2013    18      0.10202146      31.18703125
2013    19      0.118706        35.24366375
2013    20      0.12168773      35.4017775
2013    21      0.19320569      52.0180875
2013    22      0.44786642      100.91851875
2013    23      0.35904464      86.11747375
2013    24      0.29217129      73.29424
2013    25      0.19674625      52.6154475
2013    26      0.34172151      82.74854875
2013    27      0.40789786      94.3553725
2013    28      0.37878608      89.36001125
2013    29      0.11656622      34.55022625
2013    30      0.3885339       90.94644125
2013    31      0.40230184      93.76064875
2014    1       0.32331485      78.329395
2014    2       0.18919685      50.4425275
2014    3       0.14110641      40.30847625
2014    4       0.13394362      38.2625775
2014    5       0.41969308      96.6453825
2014    6       0.16784669      45.5529725
2014    7       0.21298964      55.96774625
2014    8       0.30533253      74.41307125
2014    9       0.48471178      105.865835
2014    10      0.54771025      116.23817875
2014    11      0.68794305      136.84505
2014    12      0.21513864      57.3222525
2014    13      0.41804395      96.260485
2014    14      0.5683962       119.6575525
2014    15      0.41377048      96.11889125
2014    16      0.50418481      110.31711375
2014    17      0.5457093       118.23425
2014    18      0.60292394      126.8103
2014    19      0.48913392      109.4123725
2014    20      0.19725541      53.63279875
2014    21      0.1436642       40.75403625
2014    22      0.27053886      68.61216375
2014    23      0.29632536      74.05356625
2014    24      0.16837168      46.799515
2014    25      0.11193926      33.08035
2014    26      0.09252579      28.55010375
2014    27      0.11079162      33.17572625
2014    28      0.13886288      40.1094025
2014    29      0.06745547      22.46214875
2014    30      0.06237633      21.05664125
2014    31      0.14133365      40.322675
2015    1       0.34732492      83.75494875
2015    2       0.3643796       86.491915
2015    3       0.34350752      82.681205
2015    4       0.44516118      101.333785
2015    5       0.66720255      132.862175
2015    6       0.82570151      152.805925
2015    7       0.71112146      138.3257
2015    8       0.62972732      126.7939875
2015    9       0.63050166      128.443725
2015    10      0.60642189      125.0340375
2015    11      0.64488509      131.3271375
2015    12      0.63808003      128.83926
2015    13      0.59167878      122.67077125
2015    14      0.7306242       142.4203375
2015    15      0.52788825      112.40789125
2015    16      0.68083158      135.521
2015    17      0.50196215      109.5813975
2015    18      0.56003935      118.7459
2015    19      0.68613676      137.0659125
2015    20      0.73440294      142.1820375
2015    21      0.7313537       142.4776625
2015    22      0.63273636      129.2687
2015    23      0.52676725      114.29059
2015    24      0.29099723      72.7799225
2015    25      0.10851364      32.5358675
2015    26      0.15339488      42.7772625
2015    27      0.48178156      106.490505
2015    28      0.51442886      111.96918625
2015    29      0.45464758      102.95076625
2015    30      0.5304059       112.71949875
2015    31      0.60321243      126.0827625
2016    1       0.22492102      58.964605
2016    2       0.27102939      68.2679325
2016    3       0.20048911      53.5076425
2016    4       0.11009903      32.9671525
2016    5       0.09075619      28.22558125
2016    6       0.1395159       39.48218125
2016    7       0.18301206      49.902875
2016    8       0.18478986      50.57241
2016    9       0.19254299      52.2988125
2016    10      0.30886691      75.95388
2016    11      0.50101871      110.56504875
2016    12      0.4782241       105.88736125
2016    13      0.5219614       113.44901875
2016    14      0.53275382      115.6273625
2016    15      0.72020322      141.3241375
2016    16      0.65809949      133.604325
2016    17      0.69783226      139.983
2016    18      0.82629574      155.3731625
2016    19      0.6714671       131.3341225
2016    20      0.63882085      130.9686625
2016    21      0.73396281      141.9479375
2016    22      0.54810059      118.4289625
2016    23      0.57409959      122.3856875
2016    24      0.53709626      116.32393125
2016    25      0.54911686      117.38687375
2016    26      0.73729394      141.996525
2016    27      0.6052002       126.5357
2016    28      0.70516763      140.01175
2016    29      0.73664174      143.86515
2016    30      0.58990356      123.8350875
2016    31      0.63312627      130.5569
2017    1       0.26474991      68.4798775
2017    2       0.24711748      64.38030875
2017    3       0.2980538       74.35074625
2017    4       0.38503699      90.1371475
2017    5       0.56440194      118.35532375
2017    6       0.39377021      92.40754625
2017    7       0.29318043      73.18870375
2017    8       0.14032277      39.63114125
2017    9       0.1685997       46.70900875
2017    10      0.19455216      52.22839625
2017    11      0.37076848      87.88847
2017    12      0.36983148      87.08948375
2017    13      0.37849771      88.43444
2017    14      0.3509286       83.6622675
2017    15      0.3475553       83.19953875
2017    16      0.48567811      105.50422625
2017    17      0.65045599      132.3902375
2017    18      0.62244525      128.819325
2017    19      0.43349219      99.4958925
2017    20      0.29779561      74.01254625
2017    21      0.22308032      59.08147875
2017    22      0.34661911      83.73886
2017    23      0.60201824      124.0648525
2017    24      0.90473582      164.5429875
2017    25      0.50036794      111.7478425
2017    26      0.24712514      64.7007575
2017    27      0.19188915      52.36460625
2017    28      0.17887272      49.517865
2017    29      0.23860551      61.35981125
2017    30      0.34116575      82.6212525
2017    31      0.38062712      89.2221525
2018    1       0.14922245      41.86636
2018    2       0.51899774      112.02508
2018    3       0.57831655      122.425375
2018    4       0.4406512       100.96200875
2018    5       0.36334148      86.700545
2018    6       0.47140481      104.5406525
2018    7       0.50259112      109.9233325
2018    8       0.31220456      76.8751925
2018    9       0.29600898      73.59026875
2018    10      0.26207186      66.590455
2018    11      0.42180581      96.878085
2018    12      0.22862501      60.0087875
2018    13      0.26968855      67.08237
2018    14      0.56970259      120.3178375
2018    15      0.57174164      121.1268375
2018    16      0.37497446      89.41299
2018    17      0.31111917      77.21845625
2018    18      0.47599732      106.26332125
2018    19      0.53834974      116.0271375
2018    20      0.50182558      110.8356125
2018    21      0.60022712      125.86275
2018    22      0.46925568      106.00134875
2018    23      0.48895915      109.26384
2018    24      0.4655098       105.56875125
2018    25      0.43855982      101.39891875
2018    26      0.47115605      106.61171375
2018    27      0.39403692      92.7096575
2018    28      0.62826748      130.3147375
2018    29      0.45798398      104.5715925
2018    30      0.33996035      81.64112875
2018    31      0.56641451      122.8856375
