####################################################################################################
# Month: 09Sep                                                                                     #
# Station: BAJA                                                                                    #
# Frequency: 345 GHz                                                                               #
# Columns are: year    day     segment         tau     Tb (K)                                      #
####################################################################################################
2009    1       0       1.862217        234.2531
2009    1       1       1.292777        201.8139
2009    1       2       1.298393        202.2933
2009    1       3       1.831869        232.7814
2009    1       4       2.34352         249.8838
2009    1       5       2.395569        251.0251
2009    1       6       2.18994         245.0912
2009    1       7       2.471289        252.9612
2009    2       0       2.418741        252.2123
2009    2       1       2.007626        240.2758
2009    2       2       1.761825        229.8874
2009    2       3       2.219083        245.8063
2009    2       4       2.687538        256.7174
2009    2       5       2.909854        260.7722
2009    2       6       3.200402        264.5815
2009    2       7       3.743648        270.1006
2009    3       0       2.968263        262.4116
2009    3       1       2.203713        247.0535
2009    3       2       1.967898        238.6083
2009    3       3       2.04599         241.3088
2009    3       4       2.435044        252.2944
2009    3       5       2.529508        254.4009
2009    3       6       2.228988        247.3147
2009    3       7       2.476005        254.3152
2009    4       0       2.142915        245.5027
2009    4       1       1.693172        227.4897
2009    4       2       1.682932        226.7041
2009    4       3       1.724844        228.3931
2009    4       4       1.833508        233.2943
2009    4       5       1.926605        237.2589
2009    4       6       1.944177        237.6931
2009    4       7       2.241648        247.7666
2009    5       0       1.904362        236.5758
2009    5       1       1.635594        224.1946
2009    5       2       1.733867        228.6976
2009    5       3       2.140794        244.3202
2009    5       4       2.459864        252.8135
2009    5       5       2.20179         245.783
2009    5       6       2.240485        246.8264
2009    5       7       2.565426        255.6557
2009    6       0       2.6904          258.7054
2009    6       1       2.115788        244.1711
2009    6       2       1.90182         235.7594
2009    6       3       1.772335        229.5797
2009    6       4       1.647637        223.3656
2009    6       5       1.619596        221.713
2009    6       6       1.62992         222.4455
2009    6       7       1.866653        234.0796
2009    7       0       1.733719        228.5577
2009    7       1       1.226204        197.0545
2009    7       2       1.253125        198.9372
2009    7       3       1.193169        193.5076
2009    7       4       1.178706        192.5565
2009    7       5       1.13235         188.6572
2009    7       6       1.171706        191.9814
2009    7       7       1.332911        204.6623
2009    8       0       1.334281        204.9644
2009    8       1       1.162798        191.803
2009    8       2       1.135017        189.2058
2009    8       3       1.244939        197.8512
2009    8       4       1.242457        197.553
2009    8       5       1.132682        188.4504
2009    8       6       1.081848        183.765
2009    8       7       1.161923        190.885
2009    9       0       1.146268        189.8435
2009    9       1       0.9311165       169.6208
2009    9       2       0.9871844       175.2342
2009    9       3       1.062631        182.2124
2009    9       4       0.986274        174.8412
2009    9       5       0.9591819       172.2371
2009    9       6       1.089017        184.5749
2009    9       7       1.334737        204.2576
2009    10      0       1.316911        203.6602
2009    10      1       1.095144        186.1413
2009    10      2       1.050008        181.5463
2009    10      3       1.003805        176.8012
2009    10      4       0.9862187       175.2231
2009    10      5       1.042902        180.867
2009    10      6       1.358372        206.5671
2009    10      7       1.610861        222.2937
2009    11      0       1.946764        237.9971
2009    11      1       1.613012        222.8153
2009    11      2       1.296297        202.3671
2009    11      3       1.298061        202.4527
2009    11      4       1.205182        195.2948
2009    11      5       1.240662        197.7941
2009    11      6       1.639573        223.4541
2009    11      7       2.131011        244.1989
2009    12      0       2.160017        245.2816
2009    12      1       2.132645        244.7117
2009    12      2       2.27961         249.621
2009    12      3       2.056597        241.3634
2009    12      4       2.000215        239.2489
2009    12      5       1.81374         232.2606
2009    12      6       1.535912        218.6649
2009    12      7       1.524618        218.3328
2009    13      0       1.453445        214.3397
2009    13      1       0.8952179       167.4296
2009    13      2       0.6723527       139.1593
2009    13      3       0.6104035       129.6249
2009    13      4       0.7853713       151.6105
2009    13      5       1.030909        178.4676
2009    13      6       1.167248        191.4293
2009    13      7       1.214645        195.9861
2009    14      0       1.14775         190.9016
2009    14      1       0.8740529       164.5187
2009    14      2       0.6490439       135.456
2009    14      3       0.5266089       116.0095
2009    14      4       0.586895        124.7666
2009    14      5       0.6512973       133.0432
2009    14      6       0.6693116       135.2803
2009    14      7       0.6570518       134.4174
2009    15      0       0.7067007       141.619
2009    15      1       0.741056        145.7668
2009    15      2       0.7089886       142.0194
2009    15      3       0.6915374       139.8925
2009    15      4       0.6961661       140.1364
2009    15      5       0.6955714       140.0226
2009    15      6       0.6856337       139.2545
2009    15      7       0.6771006       138.8782
2009    16      0       0.7027945       142.7328
2009    16      1       0.7273525       146.0474
2009    16      2       0.7542349       149.8356
2009    16      3       0.7640097       151.0607
2009    16      4       0.7497021       149.0969
2009    16      5       0.7384381       147.4571
2009    16      6       0.7229223       145.777
2009    16      7       0.7331044       148.016
2009    17      0       0.7016773       143.6778
2009    17      1       0.5769214       125.6195
2009    17      2       0.5404698       119.5698
2009    17      3       0.5253508       117.0374
2009    17      4       0.5717968       124.1084
2009    17      5       0.701603        142.2636
2009    17      6       0.8180678       156.7639
2009    17      7       0.8862923       165.0312
2009    18      0       0.8829218       165.1891
2009    18      1       0.7996002       155.3595
2009    18      2       0.7978266       154.6509
2009    18      3       0.731156        146.0697
2009    18      4       0.7234984       145.1323
2009    18      5       0.8425709       159.3366
2009    18      6       0.9633273       172.3815
2009    18      7       1.065371        182.3589
2009    19      0       1.141614        189.4559
2009    19      1       1.052279        181.4258
2009    19      2       0.8969394       165.1212
2009    19      3       0.8100826       155.0123
2009    19      4       0.8922593       164.2754
2009    19      5       0.9509085       170.764
2009    19      6       1.113584        186.4975
2009    19      7       1.355833        205.7722
2009    20      0       1.467935        213.6071
2009    20      1       1.210058        195.8319
2009    20      2       1.108514        186.9513
2009    20      3       1.054446        181.6129
2009    20      4       1.083759        184.3152
2009    20      5       1.181955        192.5707
2009    20      6       1.200629        193.8471
2009    20      7       1.269498        199.4181
2009    21      0       1.213829        195.7958
2009    21      1       0.9940065       176.5827
2009    21      2       0.896822        166.025
2009    21      3       0.8253857       157.4812
2009    21      4       0.8583979       161.3525
2009    21      5       0.8498506       160.5496
2009    21      6       0.9089751       167.0731
2009    21      7       1.037155        180.4211
2009    22      0       1.150286        191.0099
2009    22      1       0.9414377       171.2669
2009    22      2       0.7366182       147.0219
2009    22      3       0.7630448       150.4643
2009    22      4       1.238713        198.3096
2009    22      5       1.392004        209.8872
2009    22      6       1.137465        189.9108
2009    22      7       0.9356518       170.2899
2009    23      0       0.6824993       139.399
2009    23      1       0.5447081       119.0402
2009    23      2       0.5030083       111.87
2009    23      3       0.5090818       112.7257
2009    23      4       0.570187        122.4901
2009    23      5       0.6691388       136.9255
2009    23      6       0.6090592       128.4604
2009    23      7       0.5321519       116.9648
2009    24      0       0.5060699       112.8624
2009    24      1       0.4952141       110.9681
2009    24      2       0.5045902       112.1234
2009    24      3       0.5006417       111.426
2009    24      4       0.52872         116.4117
2009    24      5       0.5759967       124.0744
2009    24      6       0.5758568       124.0494
2009    24      7       0.6097471       128.8469
2009    25      0       0.6470809       134.1313
2009    25      1       0.6411619       133.399
2009    25      2       0.6042436       127.924
2009    25      3       0.5611256       121.1779
2009    25      4       0.5507349       119.7788
2009    25      5       0.5877006       125.5652
2009    25      6       0.6123497       129.2862
2009    25      7       0.6440765       133.9795
2009    26      0       0.6032654       128.3626
2009    26      1       0.4205079       98.73777
2009    26      2       0.358178        87.20685
2009    26      3       0.2972406       75.34238
2009    26      4       0.3266275       81.18494
2009    26      5       0.3866052       92.50663
2009    26      6       0.4541367       104.7026
2009    26      7       0.6486651       135.0183
2009    27      0       0.7850698       153.0549
2009    27      1       0.6302724       132.5995
2009    27      2       0.497939        110.99
2009    27      3       0.4510362       101.8057
2009    27      4       0.5094256       110.8958
2009    27      5       0.6876685       136.6026
2009    27      6       0.8101132       152.6079
2009    27      7       0.8656102       160.0366
2009    28      0       0.8386617       157.8363
2009    28      1       0.7118542       142.6874
2009    28      2       0.6678636       136.4898
2009    28      3       0.7301629       143.6623
2009    28      4       0.8345424       156.2623
2009    28      5       0.9159332       165.4611
2009    28      6       1.043123        178.7229
2009    28      7       1.248986        196.5972
2009    29      0       1.30598         201.6374
2009    29      1       1.252404        198.7477
2009    29      2       1.266458        199.5891
2009    29      3       1.244032        197.6353
2009    29      4       1.163199        190.3563
2009    29      5       1.254375        196.8724
2009    29      6       1.393755        206.6955
2009    29      7       1.449247        210.4292
2009    30      0       1.71455         225.3379
2009    30      1       1.872676        232.8295
2009    30      2       1.769653        228.4087
2009    30      3       1.577714        218.8589
2009    30      4       1.429026        210.3571
2009    30      5       1.440414        210.8945
2009    30      6       1.4412          210.878
2009    30      7       1.445954        211.0152
2010    1       0       0.2779574       72.22302
2010    1       1       0.2216568       60.14448
2010    1       2       0.2330958       62.63077
2010    1       3       0.4354993       102.4951
2010    1       4       0.4533491       105.7458
2010    1       5       0.3453789       85.95696
2010    1       6       0.4558299       106.23
2010    1       7       0.6939961       142.8722
2010    2       0       0.7003008       143.8893
2010    2       1       0.4996595       113.9125
2010    2       2       0.610016        130.9278
2010    2       3       0.932311        171.4419
2010    2       4       1.102044        187.8734
2010    2       5       1.164549        193.1774
2010    2       6       1.312388        204.7916
2010    2       7       1.600153        223.1976
2010    3       0       1.647659        225.7493
2010    3       1       1.260844        201.0623
2010    3       2       1.059975        183.7811
2010    3       3       1.016465        179.3714
2010    3       4       1.131847        189.6601
2010    3       5       1.24239         198.6463
2010    3       6       1.241513        198.7554
2010    3       7       1.248951        199.7456
2010    4       0       1.234094        198.7442
2010    4       1       1.152917        192.181
2010    4       2       0.9569125       173.8275
2010    4       3       0.8140889       157.9742
2010    4       4       0.8871802       165.3824
2010    4       5       0.8383403       159.7882
2010    4       6       0.9256381       169.5336
2010    4       7       1.129379        189.7298
2010    5       0       1.243461        199.404
2010    5       1       1.15244         191.9649
2010    5       2       1.002488        177.9736
2010    5       3       1.01165         178.4027
2010    5       4       1.197709        194.7535
2010    5       5       1.405335        209.8384
2010    5       6       1.293404        201.9669
2010    5       7       1.396432        209.1877
2010    6       0       1.359347        206.9894
2010    6       1       1.082999        185.8963
2010    6       2       0.7627771       151.1581
2010    6       3       0.5846015       126.1813
2010    6       4       0.5242411       116.8777
2010    6       5       0.5762815       124.9709
2010    6       6       0.4923958       111.9947
2010    6       7       0.4000327       96.17111
2010    7       0       0.3496518       86.83241
2010    7       1       0.1789196       50.82436
2010    7       2       0.1686176       48.40794
2010    7       3       0.1246257       37.9192
2010    7       4       0.1025225       32.42849
2010    7       5       0.1285878       38.97619
2010    7       6       0.1359709       40.85275
2010    7       7       0.149758        44.23484
2010    8       0       0.1319672       39.99008
2010    8       1       0.1038798       32.90962
2010    8       2       0.09375241      30.26364
2010    8       3       0.08895544      29.04118
2010    8       4       0.09033133      29.38355
2010    8       5       0.1008882       31.9801
2010    8       6       0.1168812       35.87651
2010    8       7       0.1295015       38.99305
2010    9       0       0.113256        35.11843
2010    9       1       0.1023193       32.45922
2010    9       2       0.1325158       39.93132
2010    9       3       0.1535608       44.88127
2010    9       4       0.1450477       42.7974
2010    9       5       0.15498         44.95191
2010    9       6       0.1562716       45.27089
2010    9       7       0.1796946       50.75926
2010    10      0       0.183104        51.61757
2010    10      1       0.1556195       45.20636
2010    10      2       0.1451329       42.58722
2010    10      3       0.143022        42.04225
2010    10      4       0.1890805       52.72267
2010    10      5       0.2378082       63.52417
2010    10      6       0.2310755       62.13997
2010    10      7       0.2723326       70.89896
2010    11      0       0.3222264       80.85615
2010    11      1       0.3330716       82.47977
2010    11      2       0.3197614       79.63178
2010    11      3       0.3975952       93.5443
2010    11      4       0.5424571       117.6851
2010    11      5       0.6304364       130.7467
2010    11      6       0.8002922       151.9599
2010    11      7       0.9287806       166.6149
2010    12      0       1.02905         176.5195
2010    12      1       0.9967957       172.6538
2010    12      2       0.9093854       163.664
2010    12      3       0.9780537       169.9891
2010    12      4       0.9038332       163.0155
2010    12      5       0.8377283       155.9434
2010    12      6       0.8853394       160.9765
2010    12      7       1.016476        174.8228
2010    13      0       1.031682        176.8067
2010    13      1       0.8651983       160.4143
2010    13      2       0.7914862       152.1383
2010    13      3       0.7690622       149.6141
2010    13      4       0.8721985       161.9384
2010    13      5       1.048559        180.6681
2010    13      6       1.094539        185.2964
2010    13      7       1.116859        187.3268
2010    14      0       1.073799        184.1023
2010    14      1       0.9346694       170.8353
2010    14      2       0.979945        175.6858
2010    14      3       1.041461        181.9878
2010    14      4       1.012461        179.4171
2010    14      5       0.8718952       164.8019
2010    14      6       0.8952848       167.5965
2010    14      7       1.031503        181.8112
2010    15      0       0.8777396       166.1086
2010    15      1       0.557573        123.5183
2010    15      2       0.5767973       126.0103
2010    15      3       0.5964696       128.7683
2010    15      4       0.5106103       115.0513
2010    15      5       0.4332592       102.1202
2010    15      6       0.3966323       95.85728
2010    15      7       0.5524288       122.5062
2010    16      0       0.5083532       115.3478
2010    16      1       0.2332163       62.85896
2010    16      2       0.2418068       64.20981
2010    16      3       0.286594        73.48882
2010    16      4       0.3045667       77.04693
2010    16      5       0.2987641       75.66743
2010    16      6       0.2830069       72.55849
2010    16      7       0.2976652       75.80413
2010    17      0       0.293945        75.29845
2010    17      1       0.2578775       67.82704
2010    17      2       0.2432583       64.57558
2010    17      3       0.2501004       65.87824
2010    17      4       0.2713773       70.25368
2010    17      5       0.3280839       81.6736
2010    17      6       0.4212414       99.37988
2010    17      7       0.477087        109.2874
2010    18      0       0.4520596       105.3383
2010    18      1       0.3935734       95.05024
2010    18      2       0.3499737       86.84397
2010    18      3       0.3157004       80.02449
2010    18      4       0.383496        93.06012
2010    18      5       0.5792874       126.293
2010    18      6       0.6115691       131.2698
2010    18      7       0.6018584       129.8195
2010    19      0       0.5336821       119.3952
2010    19      1       0.3998607       96.59895
2010    19      2       0.5424939       120.8536
2010    19      3       0.9171535       170.1197
2010    19      4       1.25397         200.8272
2010    19      5       1.368956        209.612
2010    19      6       1.120091        189.5062
2010    19      7       1.047213        182.9851
2010    20      0       0.9336105       171.4918
2010    20      1       0.8439709       161.7188
2010    20      2       0.7365245       148.5786
2010    20      3       0.7317765       147.925
2010    20      4       0.8208058       158.9848
2010    20      5       0.8743288       165.0253
2010    20      6       0.8251196       159.2658
2010    20      7       0.8612103       163.8278
2010    21      0       0.8539486       163.1058
2010    21      1       0.5992104       129.8671
2010    21      2       0.5096161       115.6069
2010    21      3       0.4833248       111.0316
2010    21      4       0.6205067       132.3467
2010    21      5       0.8599042       163.2776
2010    21      6       1.135028        191.0632
2010    21      7       1.258178        201.6018
2010    22      0       1.219406        198.9564
2010    22      1       1.203488        197.7674
2010    22      2       1.237902        200.0689
2010    22      3       1.314578        205.5102
2010    22      4       1.262611        201.7033
2010    22      5       0.9264666       171.2242
2010    22      6       0.5100055       115.3456
2010    22      7       0.2211303       60.25026
2010    23      0       0.2699244       70.72979
2010    23      1       0.253512        67.30353
2010    23      2       0.2061473       56.67457
2010    23      3       0.1877867       52.43774
2010    23      4       0.2094387       57.40665
2010    23      5       0.2351748       62.99965
2010    23      6       0.2252958       61.027
2010    23      7       0.2378108       64.13934
2010    24      0       0.2374706       64.2549
2010    24      1       0.1868805       52.53632
2010    24      2       0.1659003       47.74747
2010    24      3       0.1856214       52.46681
2010    24      4       0.2111218       58.29711
2010    24      5       0.2437596       65.36551
2010    24      6       0.2423975       65.17878
2010    24      7       0.3142667       80.60407
2010    25      0       0.3222477       82.13035
2010    25      1       0.2622553       69.22528
2010    25      2       0.269676        70.75753
2010    25      3       0.4075308       98.28439
2010    25      4       0.4671449       109.0111
2010    25      5       0.3696544       91.10458
2010    25      6       0.4258723       101.376
2010    25      7       0.5699657       125.2127
2010    26      0       0.52912         118.9764
2010    26      1       0.2846612       74.28364
2010    26      2       0.2070289       57.30837
2010    26      3       0.3016361       77.80053
2010    26      4       0.616996        132.6622
2010    26      5       0.980306        177.0737
2010    26      6       1.032303        182.5348
2010    26      7       1.278651        203.6058
2010    27      0       1.339617        207.8979
2010    27      1       1.30579         205.2558
2010    27      2       1.571725        222.1842
2010    27      3       1.590674        222.8644
2010    27      4       1.644865        225.185
2010    27      5       1.702045        227.7892
2010    27      6       1.653694        224.7677
2010    27      7       1.528736        216.7861
2010    28      0       1.508516        214.907
2010    28      1       2.382369        249.5636
2010    28      2       2.753555        256.1196
2010    28      3       2.875056        259.674
2010    28      4       2.81689         259.4149
2010    28      5       3.083742        263.7806
2010    28      6       2.331018        249.5521
2010    28      7       2.226167        246.0583
2010    29      0       2.089677        241.3778
2010    29      1       1.668767        223.299
2010    29      2       2.109969        241.4505
2010    29      3       1.757179        227.0459
2010    29      4       1.663092        221.6777
2010    29      5       1.635009        221.3533
2010    29      6       1.82128         231.2768
2010    29      7       2.238455        246.4378
2010    30      0       2.549233        254.5012
2010    30      1       2.318816        249.1642
2010    30      2       2.25036         247.0928
2010    30      3       1.971974        237.9522
2010    30      4       2.038886        240.2608
2010    30      5       2.134478        243.08
2010    30      6       2.318623        247.771
2010    30      7       2.546974        253.4639
2011    1       0       1.777495        232.6446
2011    1       1       1.745322        230.8975
2011    1       2       1.830263        234.4059
2011    1       3       1.893112        236.1951
2011    1       4       1.811318        232.0903
2011    1       5       1.724967        228.1396
2011    1       6       1.702647        227.4447
2011    1       7       1.697119        227.2205
2011    2       0       1.70037         227.5055
2011    2       1       1.582052        221.4936
2011    2       2       2.270906        249.8033
2011    2       3       3.667062        270.9142
2011    2       4       3.293953        264.9499
2011    2       5       3.235031        266.2273
2011    2       6       2.525223        256.0196
2011    2       7       2.531677        255.5973
2011    3       0       2.600486        257.2359
2011    3       1       2.341111        251.9036
2011    3       2       2.205877        248.1278
2011    3       3       2.116307        244.9037
2011    3       4       2.276878        249.6383
2011    3       5       2.526308        256.3694
2011    3       6       2.221046        247.9464
2011    3       7       2.222338        248.2053
2011    4       0       2.081859        244.2345
2011    4       1       2.209297        248.5649
2011    4       2       2.494594        256.01
2011    4       3       2.392495        253.6293
2011    4       4       1.925787        238.0833
2011    4       5       1.861074        234.9842
2011    4       6       2.634823        257.5524
2011    4       7       3.298394        267.5063
2011    5       0       3.309692        268.1193
2011    5       1       2.413963        254.7025
2011    5       2       2.390082        253.4637
2011    5       3       2.52606         255.9919
2011    5       4       2.652804        258.6724
2011    5       5       3.00996         264.6015
2011    5       6       3.01957         264.8181
2011    5       7       3.917492        273.6115
2011    6       0       3.262947        268.2562
2011    6       1       2.476781        254.7412
2011    6       2       2.479701        253.9683
2011    6       3       2.702619        258.0115
2011    6       4       2.673232        257.4763
2011    6       5       2.518418        254.4613
2011    6       6       2.424298        252.4954
2011    6       7       3.220791        266.616
2011    7       0       3.200407        267.2358
2011    7       1       2.650299        258.6125
2011    7       2       2.357873        251.5763
2011    7       3       2.048157        241.9378
2011    7       4       1.862399        234.6489
2011    7       5       1.798888        231.8262
2011    7       6       1.926048        237.6442
2011    7       7       2.715802        259.9389
2011    8       0       2.804589        261.8868
2011    8       1       2.321738        251.7127
2011    8       2       1.924185        238.5143
2011    8       3       1.649892        225.7799
2011    8       4       1.352404        207.7655
2011    8       5       1.243085        199.2863
2011    8       6       1.413304        211.7396
2011    8       7       1.834427        234.9492
2011    9       0       1.727045        230.3688
2011    9       1       1.463775        215.9996
2011    9       2       1.097462        187.8642
2011    9       3       0.6139941       131.0145
2011    9       4       0.5811862       125.9591
2011    9       5       0.5591474       122.4568
2011    9       6       0.427126        100.4848
2011    9       7       0.3356725       83.19783
2011    10      0       0.2731983       70.21136
2011    10      1       0.2588665       66.93697
2011    10      2       0.2977673       74.79405
2011    10      3       0.3464956       84.22313
2011    10      4       0.4220809       98.62994
2011    10      5       0.454489        104.6632
2011    10      6       0.6887572       141.0848
2011    10      7       1.154359        191.7186
2011    11      0       1.252081        199.0454
2011    11      1       0.9194288       168.177
2011    11      2       0.8108958       155.4339
2011    11      3       0.9036994       165.6593
2011    11      4       1.121485        187.1918
2011    11      5       1.19486         193.3067
2011    11      6       1.272279        199.1769
2011    11      7       1.698944        224.9573
2011    12      0       1.877446        233.3863
2011    12      1       1.766816        228.9775
2011    12      2       1.9641          237.0898
2011    12      3       2.006508        238.0762
2011    12      4       1.915375        233.7919
2011    12      5       1.875893        232.1681
2011    12      6       1.865348        231.5675
2011    12      7       2.616098        253.9512
2011    13      0       2.599007        254.0893
2011    13      1       1.903131        234.6201
2011    13      2       1.332182        204.3405
2011    13      3       1.257424        198.2222
2011    13      4       1.555288        217.2973
2011    13      5       2.116039        241.4565
2011    13      6       2.398685        249.9738
2011    13      7       1.883999        233.129
2011    14      0       1.014598        176.729
2011    14      1       0.5636742       121.2412
2011    14      2       0.5245117       114.9641
2011    14      3       0.571209        122.1077
2011    14      4       0.5459388       118.2854
2011    14      5       0.5325039       116.0294
2011    14      6       0.5360389       116.4747
2011    14      7       0.711867        142.1145
2011    15      0       0.7328409       145.3147
2011    15      1       0.5388805       117.7896
2011    15      2       0.4932827       110.1692
2011    15      3       0.4964102       110.6078
2011    15      4       0.4746634       106.8385
2011    15      5       0.4623757       104.611
2011    15      6       0.5304267       115.8898
2011    15      7       0.8346972       157.3404
2011    16      0       0.9810475       173.5447
2011    16      1       0.7419206       146.5706
2011    16      2       0.6835064       139.0495
2011    16      3       0.7349253       145.6283
2011    16      4       0.7351265       145.5598
2011    16      5       0.626791        130.6511
2011    16      6       0.5796655       123.8602
2011    16      7       0.7267936       144.8673
2011    17      0       0.6541026       135.6105
2011    17      1       0.5085962       113.5284
2011    17      2       0.5053807       112.9663
2011    17      3       0.4866501       110.1225
2011    17      4       0.4601261       105.119
2011    17      5       0.4481069       102.5795
2011    17      6       0.4375522       100.9987
2011    17      7       0.4011255       95.3427
2011    18      0       0.3735389       90.69117
2011    18      1       0.2916893       74.65
2011    18      2       0.2939704       75.04162
2011    18      3       0.3065328       77.36809
2011    18      4       0.2869642       73.34886
2011    18      5       0.2684166       69.54804
2011    18      6       0.2647316       68.88292
2011    18      7       0.2963358       75.58357
2011    19      0       0.3137264       79.30691
2011    19      1       0.2091225       57.28921
2011    19      2       0.1959387       54.10118
2011    19      3       0.1870645       51.95937
2011    19      4       0.1675649       47.46767
2011    19      5       0.1568343       44.96772
2011    19      6       0.1598173       45.64388
2011    19      7       0.1917542       53.01277
2011    20      0       0.2315618       61.86844
2011    20      1       0.1786947       49.95354
2011    20      2       0.1510742       43.43551
2011    20      3       0.1424795       41.39484
2011    20      4       0.1716249       48.30721
2011    20      5       0.2312202       61.70591
2011    20      6       0.2313517       61.77797
2011    20      7       0.3237303       80.76992
2011    21      0       0.3879474       92.89461
2011    21      1       0.3373986       83.01263
2011    21      2       0.4149925       96.57191
2011    21      3       0.5998844       125.5938
2011    21      4       0.8863885       161.6072
2011    21      5       1.439218        209.1916
2011    21      6       1.495198        212.8531
2011    21      7       1.502896        213.1873
2011    22      0       1.469568        211.4101
2011    22      1       1.311416        201.1378
2011    22      2       1.113443        185.5455
2011    22      3       1.339712        203.4146
2011    22      4       1.437429        209.3997
2011    22      5       1.659349        221.7963
2011    22      6       2.272585        244.9513
2011    22      7       2.293387        245.4101
2011    23      0       2.137416        241.7374
2011    23      1       1.766056        228.858
2011    23      2       1.352293        205.63
2011    23      3       1.235245        197.0094
2011    23      4       1.571315        218.8777
2011    23      5       2.007687        238.8636
2011    23      6       1.806515        230.6035
2011    23      7       1.569125        218.9019
2011    24      0       1.464524        213.1821
2011    24      1       1.226538        196.5172
2011    24      2       1.239261        197.1843
2011    24      3       1.334507        203.7852
2011    24      4       1.358791        205.0463
2011    24      5       1.459977        211.3711
2011    24      6       1.612759        220.5551
2011    24      7       1.729596        226.8809
2011    25      0       1.319799        203.1445
2011    25      1       0.6586567       135.623
2011    25      2       0.3383331       82.2737
2011    25      3       0.2490384       64.18354
2011    25      4       0.2011627       54.21046
2011    25      5       0.1858638       50.81493
2011    25      6       0.2137852       57.07605
2011    25      7       0.3021344       76.37786
2011    26      0       0.2866275       74.07781
2011    26      1       0.2738715       70.87979
2011    26      2       0.3035673       76.63873
2011    26      3       0.3122016       77.43125
2011    26      4       0.4057672       93.44411
2011    26      5       0.7747272       146.8312
2011    26      6       0.8356203       155.6605
2011    26      7       0.9075666       165.3047
2011    27      0       0.9065116       166.4419
2011    27      1       0.7682264       150.608
2011    27      2       0.6782972       138.5281
2011    27      3       0.6352253       132.3148
2011    27      4       0.6147139       128.7465
2011    27      5       0.5628225       120.6455
2011    27      6       0.5199048       114.2728
2011    27      7       0.5581          120.5214
2011    28      0       0.5576627       120.3149
2011    28      1       0.402929        93.86854
2011    28      2       0.3150237       77.55166
2011    28      3       0.3660057       87.87025
2011    28      4       0.3395059       82.77166
2011    28      5       0.3041703       75.60163
2011    28      6       0.3446608       83.34477
2011    28      7       0.4403089       101.1057
2011    29      0       0.4896163       109.4866
2011    29      1       0.5167426       112.2583
2011    29      2       0.5134398       111.5858
2011    29      3       0.5195441       113.0758
2011    29      4       0.6933093       138.3937
2011    29      5       0.8506971       158.0428
2011    29      6       1.077451        182.1299
2011    29      7       1.414504        209.1298
2011    30      0       1.42655         210.0146
2011    30      1       1.470176        212.3232
2011    30      2       1.546451        215.8279
2011    30      3       1.85605         229.939
2011    30      4       2.152651        241.2702
2011    30      5       2.222289        243.4772
2011    30      6       2.605338        253.0788
2011    30      7       2.448806        250.5798
2012    1       0       2.057935        244.1956
2012    1       1       1.840531        235.9103
2012    1       2       2.681438        260.0312
2012    1       3       3.267682        267.9265
2012    1       4       3.282874        267.1271
2012    1       5       3.014247        263.552
2012    1       6       3.205007        266.4817
2012    1       7       3.706815        272.2467
2012    2       0       3.843594        273.4169
2012    2       1       2.965149        264.5765
2012    2       2       2.546948        256.8693
2012    2       3       2.394594        252.6975
2012    2       4       2.264395        248.8523
2012    2       5       2.223998        247.4011
2012    2       6       2.480393        254.0104
2012    2       7       2.881267        262.3233
2012    3       0       2.62985         258.4794
2012    3       1       2.345302        252.0941
2012    3       2       2.214163        248.1945
2012    3       3       2.152849        246.1378
2012    3       4       2.259803        248.893
2012    3       5       2.426118        252.7319
2012    3       6       2.741447        259.0014
2012    3       7       3.215914        265.5584
2012    4       0       2.944667        262.4659
2012    4       1       2.456735        253.9762
2012    4       2       2.530304        255.3433
2012    4       3       3.080625        264.6006
2012    4       4       3.26676         266.5012
2012    4       5       3.157369        264.6664
2012    4       6       3.572518        269.0223
2012    4       7       3.789794        271.0646
2012    5       0       3.369785        267.8079
2012    5       1       2.503254        254.5147
2012    5       2       2.372184        250.8767
2012    5       3       2.540811        254.499
2012    5       4       2.568896        254.9124
2012    5       5       2.597169        255.3122
2012    5       6       2.550205        254.6845
2012    5       7       2.991417        263.1011
2012    6       0       2.771358        260.0
2012    6       1       2.534357        255.881
2012    6       2       2.68476         258.4334
2012    6       3       2.993558        262.8874
2012    6       4       3.172118        265.0489
2012    6       5       3.119033        264.4451
2012    6       6       3.39736         267.3142
2012    6       7       3.812536        270.5868
2012    7       0       3.415132        267.458
2012    7       1       3.074624        264.037
2012    7       2       3.028527        263.4468
2012    7       3       2.936847        262.2124
2012    7       4       2.806821        260.0799
2012    7       5       2.88123         261.2755
2012    7       6       2.99399         263.3642
2012    7       7       3.366489        268.2793
2012    8       0       3.273432        267.3251
2012    8       1       2.830383        261.8443
2012    8       2       2.759201        260.3799
2012    8       3       3.000629        264.1166
2012    8       4       3.186994        265.6793
2012    8       5       3.135803        264.6091
2012    8       6       3.187878        265.3384
2012    8       7       3.7817          271.0711
2012    9       0       3.925509        271.4685
2012    9       1       3.728025        269.9426
2012    9       2       3.76021         270.7881
2012    9       3       3.177832        265.6059
2012    9       4       2.750772        257.1223
2012    9       5       2.515358        251.8618
2012    9       6       2.947266        260.0175
2012    9       7       3.224118        264.4427
2012    10      0       2.982385        262.0032
2012    10      1       2.427156        251.5657
2012    10      2       2.174367        244.264
2012    10      3       2.305834        247.9158
2012    10      4       3.120383        263.1036
2012    10      5       4.1123          271.5208
2012    10      6       4.36969         273.0691
2012    10      7       4.456022        274.1588
2012    11      0       3.705034        268.8027
2012    11      1       3.444031        266.6996
2012    11      2       3.310555        265.6555
2012    11      3       3.288706        265.6471
2012    11      4       2.984087        262.0793
2012    11      5       2.33155         249.1282
2012    11      6       2.187025        246.292
2012    11      7       2.105675        244.3259
2012    12      0       2.121024        245.3863
2012    12      1       1.55673         220.6462
2012    12      2       0.9852297       176.0724
2012    12      3       0.6808337       139.9455
2012    12      4       0.4700995       107.6547
2012    12      5       0.3412632       84.21708
2012    12      6       0.3436247       84.70753
2012    12      7       0.6132425       130.3528
2012    13      0       0.849549        161.5318
2012    13      1       0.4924709       111.9325
2012    13      2       0.3563063       87.58097
2012    13      3       0.3592815       88.15553
2012    13      4       0.3832198       92.63213
2012    13      5       0.4484916       104.3704
2012    13      6       0.576923        125.6128
2012    13      7       0.8890099       166.1227
2012    14      0       0.9523945       173.2177
2012    14      1       0.7547249       150.4358
2012    14      2       0.612095        130.4548
2012    14      3       0.5823402       125.647
2012    14      4       0.687104        140.2234
2012    14      5       0.6362862       133.2033
2012    14      6       0.6758397       138.6746
2012    14      7       0.6037815       128.5066
2012    15      0       0.3731401       90.4919
2012    15      1       0.2527903       66.32702
2012    15      2       0.2789491       71.60377
2012    15      3       0.3445685       84.71213
2012    15      4       0.3050388       77.04281
2012    15      5       0.2988747       75.7752
2012    15      6       0.3242693       80.93981
2012    15      7       0.5148488       114.9487
2012    16      0       0.4677188       107.3936
2012    16      1       0.1847229       51.77862
2012    16      2       0.1889058       52.45966
2012    16      3       0.2384879       63.30196
2012    16      4       0.2844378       72.78828
2012    16      5       0.3331235       82.38634
2012    16      6       0.3362791       83.01793
2012    16      7       0.5715787       123.3586
2012    17      0       0.7989843       154.3387
2012    17      1       0.7490133       148.5011
2012    17      2       0.8707938       163.0883
2012    17      3       1.078616        184.1387
2012    17      4       1.337412        205.0215
2012    17      5       1.5734          219.5851
2012    17      6       1.629626        222.4747
2012    17      7       1.449942        211.9088
2012    18      0       1.335405        204.2922
2012    18      1       1.209636        195.1588
2012    18      2       1.12327         188.0239
2012    18      3       1.092625        185.1603
2012    18      4       1.076788        183.759
2012    18      5       1.06436         182.6226
2012    18      6       1.109253        186.5572
2012    18      7       1.28157         200.4945
2012    19      0       1.352904        205.8157
2012    19      1       1.006635        177.054
2012    19      2       0.9096485       166.8687
2012    19      3       0.9831302       174.5049
2012    19      4       1.143317        189.4527
2012    19      5       1.347383        205.099
2012    19      6       1.456067        212.3434
2012    19      7       1.639993        223.2637
2012    20      0       1.849743        233.6457
2012    20      1       1.563715        219.8075
2012    20      2       1.088264        185.3789
2012    20      3       0.7970346       154.4648
2012    20      4       0.8317271       158.5581
2012    20      5       0.9202324       168.4175
2012    20      6       1.018318        178.645
2012    20      7       1.28661         201.983
2012    21      0       1.594815        222.3265
2012    21      1       1.584725        221.8813
2012    21      2       1.495255        216.1918
2012    21      3       1.454881        213.4362
2012    21      4       1.461507        213.5921
2012    21      5       1.463997        213.5048
2012    21      6       1.418001        210.4779
2012    21      7       1.693884        226.5933
2012    22      0       1.844809        234.1431
2012    22      1       1.937964        238.5889
2012    22      2       1.729757        228.6638
2012    22      3       1.591229        221.1984
2012    22      4       1.279201        200.6549
2012    22      5       1.408655        209.0608
2012    22      6       1.604841        220.9551
2012    22      7       1.763249        229.2169
2012    23      0       1.769032        229.4033
2012    23      1       1.343868        205.4917
2012    23      2       1.655439        223.7988
2012    23      3       1.924726        235.7368
2012    23      4       1.820358        230.593
2012    23      5       1.558738        217.3155
2012    23      6       1.406748        208.3186
2012    23      7       1.503938        214.6657
2012    24      0       1.701562        225.4173
2012    24      1       1.722495        226.367
2012    24      2       1.621896        221.1636
2012    24      3       1.530715        216.1186
2012    24      4       1.391315        207.0473
2012    24      5       1.297318        200.3268
2012    24      6       1.237462        196.1611
2012    24      7       1.220445        195.1758
2012    25      0       0.8037878       154.8068
2012    25      1       0.6261779       131.3536
2012    25      2       0.529939        116.6679
2012    25      3       0.471745        107.0962
2012    25      4       0.4523444       103.8173
2012    25      5       0.4589843       105.048
2012    25      6       0.4414345       102.1607
2012    25      7       0.5308539       117.0911
2012    26      0       0.5502058       120.2344
2012    26      1       0.4524552       104.0996
2012    26      2       0.4259636       99.15422
2012    26      3       0.4555843       104.2518
2012    26      4       0.4609657       105.2379
2012    26      5       0.4044663       95.38407
2012    26      6       0.3455134       84.53755
2012    26      7       0.3628564       88.15447
2012    27      0       0.4843996       109.789
2012    27      1       0.4216746       98.9986
2012    27      2       0.3825553       91.6123
2012    27      3       0.396626        93.94062
2012    27      4       0.3823544       91.02739
2012    27      5       0.3980122       93.75985
2012    27      6       0.5054811       112.5059
2012    27      7       0.8259383       156.9054
2012    28      0       1.051967        180.7192
2012    28      1       0.8868152       164.0241
2012    28      2       0.849291        159.4189
2012    28      3       0.7000771       140.8284
2012    28      4       0.5653662       121.0084
2012    28      5       0.5009588       110.8385
2012    28      6       0.6012704       126.8373
2012    28      7       0.901362        165.2215
2012    29      0       0.9761623       173.3972
2012    29      1       0.7074993       141.9856
2012    29      2       0.6172733       129.078
2012    29      3       0.8878982       162.7353
2012    29      4       1.107697        184.1606
2012    29      5       1.171047        189.3827
2012    29      6       1.413171        207.5426
2012    29      7       1.840367        230.9883
2012    30      0       1.940981        235.7937
2012    30      1       1.101924        185.275
2012    30      2       0.8654526       161.2886
2012    30      3       0.9265618       167.6435
2012    30      4       0.9756831       172.5459
2012    30      5       0.9517925       170.1135
2012    30      6       0.9405252       169.349
2012    30      7       1.102717        185.6554
2013    1       0       3.257599        267.5571
2013    1       1       2.785415        261.4565
2013    1       2       2.778778        260.9156
2013    1       3       2.73095         259.9276
2013    1       4       2.493107        254.9396
2013    1       5       2.399822        252.4337
2013    1       6       2.803405        260.477
2013    1       7       2.671387        257.97
2013    2       0       2.35678         251.3632
2013    2       1       2.420833        253.122
2013    2       2       2.679692        258.7335
2013    2       3       2.865895        261.7932
2013    2       4       3.205816        266.2603
2013    2       5       2.858333        261.6827
2013    2       6       2.748991        258.9126
2013    2       7       3.319162        266.7696
2013    3       0       3.019961        262.8818
2013    3       1       2.699194        258.5973
2013    3       2       2.44568         252.5392
2013    3       3       2.350643        249.7476
2013    3       4       2.184211        245.777
2013    3       5       2.150389        244.9244
2013    3       6       2.326866        249.6698
2013    3       7       3.125987        265.1094
2013    4       0       2.914151        262.8734
2013    4       1       2.207177        247.8269
2013    4       2       1.810605        233.0661
2013    4       3       1.791373        231.6929
2013    4       4       1.993527        240.1352
2013    4       5       3.218201        265.7006
2013    4       6       3.927417        272.2317
2013    4       7       2.560444        256.067
2013    5       0       1.688546        226.0091
2013    5       1       1.357436        206.2506
2013    5       2       1.582005        220.1994
2013    5       3       2.03098         240.7605
2013    5       4       2.318167        249.4927
2013    5       5       2.304937        249.1152
2013    5       6       2.404755        251.9613
2013    5       7       3.347093        267.8203
2013    6       0       2.857962        262.0269
2013    6       1       2.232617        248.4037
2013    6       2       1.853452        234.4271
2013    6       3       2.033243        241.3507
2013    6       4       2.256624        248.4623
2013    6       5       2.30123         249.6815
2013    6       6       2.422791        252.7149
2013    6       7       3.324145        267.6428
2013    7       0       2.842004        261.221
2013    7       1       2.21579         246.6945
2013    7       2       2.011903        239.864
2013    7       3       2.379611        250.5993
2013    7       4       2.283615        247.011
2013    7       5       2.43066         250.6055
2013    7       6       3.476552        266.818
2013    7       7       4.150426        272.639
2013    8       0       3.734153        270.5338
2013    8       1       3.504909        269.2332
2013    8       2       2.546583        255.453
2013    8       3       2.190109        245.5889
2013    8       4       1.957059        236.4078
2013    8       5       1.74482         226.6082
2013    8       6       1.949446        236.1359
2013    8       7       2.531974        253.9206
2013    9       0       2.170588        244.3438
2013    9       1       1.435758        211.0471
2013    9       2       1.423104        210.2203
2013    9       3       1.592565        220.0964
2013    9       4       1.882313        233.5416
2013    9       5       1.929621        234.7221
2013    9       6       2.42334         249.6472
2013    9       7       2.817345        258.5729
2013    10      0       2.455836        251.7443
2013    10      1       1.666812        224.4849
2013    10      2       1.570508        218.701
2013    10      3       1.819301        230.4711
2013    10      4       1.865864        232.4565
2013    10      5       1.759174        227.5058
2013    10      6       1.648555        222.0523
2013    10      7       1.571569        218.4669
2013    11      0       1.573311        219.0277
2013    11      1       1.218944        195.632
2013    11      2       1.121822        187.5061
2013    11      3       1.027752        178.6397
2013    11      4       0.9346252       169.0587
2013    11      5       0.8509784       159.8769
2013    11      6       0.8301326       157.6219
2013    11      7       0.8976507       165.3602
2013    12      0       0.8812762       164.0705
2013    12      1       0.9152203       168.2212
2013    12      2       1.076595        184.2699
2013    12      3       1.112114        187.4241
2013    12      4       1.063556        182.9471
2013    12      5       1.061577        182.4543
2013    12      6       1.099882        185.8519
2013    12      7       1.170527        192.3685
2013    13      0       1.23455         198.0048
2013    13      1       1.005345        178.0348
2013    13      2       0.8714321       163.8014
2013    13      3       0.8258735       158.8183
2013    13      4       0.7940543       155.1002
2013    13      5       0.7588414       150.8054
2013    13      6       0.8235724       159.1909
2013    13      7       0.9419332       172.6471
2013    14      0       0.967407        175.8011
2013    14      1       0.8911249       167.9364
2013    14      2       0.8822408       166.8359
2013    14      3       0.8310427       160.8673
2013    14      4       0.7899134       155.5949
2013    14      5       0.8346819       160.7991
2013    14      6       0.963029        175.1045
2013    14      7       1.08478         187.3208
2013    15      0       1.02192         181.6603
2013    15      1       0.7132224       146.291
2013    15      2       0.5715389       125.509
2013    15      3       0.3959453       95.65547
2013    15      4       0.3301606       83.0933
2013    15      5       0.3184493       80.84573
2013    15      6       0.4608449       107.3409
2013    15      7       0.7802656       154.6526
2013    16      0       0.9252728       171.8148
2013    16      1       0.7601491       152.5724
2013    16      2       0.4308629       102.3503
2013    16      3       0.3919397       95.09954
2013    16      4       0.4781477       110.2923
2013    16      5       0.596626        129.0768
2013    16      6       0.7029735       144.5633
2013    16      7       0.8882265       167.4662
2013    17      0       0.9393476       173.2186
2013    17      1       0.6402596       136.2996
2013    17      2       0.4088265       98.52183
2013    17      3       0.2610055       69.31249
2013    17      4       0.3314037       83.65838
2013    17      5       0.4679916       108.9881
2013    17      6       0.3015016       77.90361
2013    17      7       0.2716383       71.55688
2013    18      0       0.2034711       56.85502
2013    18      1       0.1216901       37.50574
2013    18      2       0.08880996      29.0029
2013    18      3       0.07590668      25.50259
2013    18      4       0.09190731      29.63171
2013    18      5       0.1119853       34.70722
2013    18      6       0.112252        34.77891
2013    18      7       0.1450301       42.91335
2013    19      0       0.2211606       60.48243
2013    19      1       0.2629448       69.43096
2013    19      2       0.2890631       74.84267
2013    19      3       0.305193        78.21965
2013    19      4       0.3352761       84.45762
2013    19      5       0.3638212       89.91559
2013    19      6       0.3216871       81.65062
2013    19      7       0.3144692       80.36604
2013    20      0       0.3677573       90.72803
2013    20      1       0.2709931       71.44116
2013    20      2       0.2770481       72.67016
2013    20      3       0.3154165       80.56261
2013    20      4       0.3629781       89.89862
2013    20      5       0.5917815       128.9668
2013    20      6       0.5660603       124.9968
2013    20      7       0.5857847       127.7848
2013    21      0       0.5674872       125.1739
2013    21      1       0.3308154       83.7694
2013    21      2       0.1727923       49.66326
2013    21      3       0.22233         60.79995
2013    21      4       0.5456927       121.3227
2013    21      5       0.8687485       164.4698
2013    21      6       0.6579494       138.0603
2013    21      7       0.5253785       117.9903
2013    22      0       0.3135635       79.85149
2013    22      1       0.1737526       49.64767
2013    22      2       0.1359263       40.71765
2013    22      3       0.118336        36.37618
2013    22      4       0.2063473       56.04956
2013    22      5       0.3392939       83.51937
2013    22      6       0.4429103       102.5395
2013    22      7       0.4353609       101.3222
2013    23      0       0.5006096       112.8139
2013    23      1       0.5200006       116.3467
2013    23      2       0.5137612       115.4408
2013    23      3       0.4440028       104.0697
2013    23      4       0.4254355       100.9603
2013    23      5       0.4699386       108.5965
2013    23      6       0.4631846       107.3722
2013    23      7       0.4803818       110.6654
2013    24      0       0.4756321       110.0656
2013    24      1       0.3845717       93.52294
2013    24      2       0.3473209       86.29007
2013    24      3       0.3289099       82.61652
2013    24      4       0.3360383       83.92706
2013    24      5       0.3374772       83.96204
2013    24      6       0.3282535       82.2779
2013    24      7       0.3670348       90.26967
2013    25      0       0.3847291       93.8309
2013    25      1       0.2760072       71.8443
2013    25      2       0.2895172       74.54812
2013    25      3       0.2816309       72.97615
2013    25      4       0.3126296       79.09252
2013    25      5       0.3371284       83.94252
2013    25      6       0.3110817       78.80919
2013    25      7       0.2946716       75.5785
2013    26      0       0.2655127       69.64498
2013    26      1       0.2238756       60.56669
2013    26      2       0.222737        60.21649
2013    26      3       0.2329426       62.52655
2013    26      4       0.2465351       65.2913
2013    26      5       0.2681653       69.57534
2013    26      6       0.3508315       85.9045
2013    26      7       0.4830535       109.9836
2013    27      0       0.4451829       103.6415
2013    27      1       0.2313481       62.06971
2013    27      2       0.1385574       41.02951
2013    27      3       0.1559937       45.0389
2013    27      4       0.1725119       48.548
2013    27      5       0.1419353       41.71997
2013    27      6       0.1040553       32.63164
2013    27      7       0.1291          38.97861
2013    28      0       0.1242975       37.66702
2013    28      1       0.1149353       35.10597
2013    28      2       0.113791        34.81602
2013    28      3       0.1108729       34.07698
2013    28      4       0.1370918       40.2977
2013    28      5       0.1684926       47.52922
2013    28      6       0.1684897       47.40254
2013    28      7       0.1870248       51.98548
2013    29      0       0.1798302       50.50685
2013    29      1       0.1527434       44.11436
2013    29      2       0.1521974       44.04997
2013    29      3       0.1578678       45.39436
2013    29      4       0.1691566       47.99666
2013    29      5       0.180434        50.1688
2013    29      6       0.1686588       47.45413
2013    29      7       0.2411935       64.59465
2013    30      0       0.257092        68.13717
2013    30      1       0.123631        36.91653
2013    30      2       0.1308491       38.65208
2013    30      3       0.135586        39.69683
2013    30      4       0.1227866       36.74077
2013    30      5       0.1172231       35.4466
2013    30      6       0.1295261       38.4082
2013    30      7       0.1750893       49.53897
2014    1       0       0.8345359       161.9468
2014    1       1       0.6901413       143.4271
2014    1       2       0.5077929       115.8065
2014    1       3       0.4448116       104.5835
2014    1       4       0.4216787       99.94672
2014    1       5       0.358146        87.71229
2014    1       6       0.3490683       85.87042
2014    1       7       0.4036626       96.4736
2014    2       0       0.3831216       92.75607
2014    2       1       0.358489        87.92157
2014    2       2       0.4069811       96.96915
2014    2       3       0.4916137       111.718
2014    2       4       0.5544057       121.8871
2014    2       5       0.581086        125.9524
2014    2       6       0.6937836       142.4447
2014    2       7       0.8927173       167.1981
2014    3       0       0.9369392       172.3463
2014    3       1       0.9370921       172.8126
2014    3       2       0.9595831       174.9481
2014    3       3       0.8759019       165.2289
2014    3       4       1.056606        183.1641
2014    3       5       1.324328        204.4665
2014    3       6       1.367982        207.3497
2014    3       7       1.619897        222.4535
2014    4       0       1.758965        229.9591
2014    4       1       1.444661        213.1657
2014    4       2       1.018662        179.6027
2014    4       3       0.9423813       171.6071
2014    4       4       1.020641        178.8861
2014    4       5       1.015611        177.5752
2014    4       6       0.8294101       157.4174
2014    4       7       0.7463037       148.0027
2014    5       0       0.8052903       155.7535
2014    5       1       0.8866775       165.2052
2014    5       2       0.8954359       166.6396
2014    5       3       0.7475039       149.2007
2014    5       4       0.7193962       145.565
2014    5       5       0.7968689       155.3366
2014    5       6       0.9993682       177.7134
2014    5       7       1.133949        190.3537
2014    6       0       1.146355        192.067
2014    6       1       0.6476268       135.7657
2014    6       2       0.6111219       130.3883
2014    6       3       0.8594044       163.0265
2014    6       4       1.419895        211.9512
2014    6       5       2.101895        244.3175
2014    6       6       3.153369        266.3299
2014    6       7       3.770215        271.6097
2014    7       0       3.518199        269.2928
2014    7       1       3.278853        267.0662
2014    7       2       3.196459        266.2673
2014    7       3       3.285312        267.3088
2014    7       4       3.409675        268.6052
2014    7       5       3.697953        271.3488
2014    7       6       3.97982         273.3064
2014    7       7       3.735054        271.9441
2014    8       0       3.390975        269.6031
2014    8       1       2.432602        254.1464
2014    8       2       1.366132        208.0631
2014    8       3       1.091141        186.1383
2014    8       4       1.526555        218.3263
2014    8       5       1.930933        238.4358
2014    8       6       1.966165        240.618
2014    8       7       2.630632        258.8506
2014    9       0       3.192969        267.079
2014    9       1       2.621665        258.5873
2014    9       2       2.37419         251.7449
2014    9       3       2.206211        245.99
2014    9       4       2.003993        238.9017
2014    9       5       1.562722        216.9184
2014    9       6       1.791469        230.0781
2014    9       7       2.700552        258.5401
2014    10      0       2.861846        262.4344
2014    10      1       2.665464        259.5935
2014    10      2       2.550288        256.6731
2014    10      3       2.355565        251.9953
2014    10      4       2.217543        247.6631
2014    10      5       2.145407        245.2363
2014    10      6       2.07813         242.9454
2014    10      7       2.432838        253.4394
2014    11      0       2.448479        253.6849
2014    11      1       2.039319        241.4642
2014    11      2       1.902466        235.4577
2014    11      3       1.804847        231.244
2014    11      4       1.746993        228.8953
2014    11      5       1.679495        225.8825
2014    11      6       1.597597        222.122
2014    11      7       1.714536        228.431
2014    12      0       1.801548        232.7909
2014    12      1       1.472497        215.5502
2014    12      2       1.380458        208.9367
2014    12      3       1.653008        225.1265
2014    12      4       1.74593         229.672
2014    12      5       1.702496        227.5178
2014    12      6       1.683945        227.0218
2014    12      7       1.987223        240.5255
2014    13      0       2.213852        248.3912
2014    13      1       1.954268        239.6443
2014    13      2       1.920782        237.4837
2014    13      3       1.905239        236.1276
2014    13      4       2.087108        243.0206
2014    13      5       2.16549         246.0036
2014    13      6       2.219988        247.762
2014    13      7       2.767252        260.5722
2014    14      0       2.681547        259.3911
2014    14      1       2.565385        256.8186
2014    14      2       2.481648        254.7478
2014    14      3       2.464519        254.0939
2014    14      4       2.250745        248.1823
2014    14      5       2.258491        248.2326
2014    14      6       2.471686        253.7692
2014    14      7       3.105169        265.2947
2014    15      0       2.998997        264.4224
2014    15      1       2.289111        249.9968
2014    15      2       2.08258         243.1108
2014    15      3       2.20724         246.9482
2014    15      4       2.098686        243.6552
2014    15      5       1.987936        239.6993
2014    15      6       2.063051        243.1723
2014    15      7       3.10805         266.0461
2014    16      0       2.98657         264.9535
2014    16      1       2.070024        244.053
2014    16      2       2.336392        251.3388
2014    16      3       2.87468         262.3541
2014    16      4       2.81626         261.4851
2014    16      5       2.87854         262.3406
2014    16      6       3.299173        268.0811
2014    16      7       3.342444        269.0976
2014    17      0       3.596614        271.5417
2014    17      1       3.512288        271.2045
2014    17      2       2.976657        265.5568
2014    17      3       2.666385        260.5865
2014    17      4       2.425263        255.6812
2014    17      5       2.023053        244.1172
2014    17      6       2.049281        244.9373
2014    17      7       2.66698         261.046
2014    18      0       2.858309        264.3522
2014    18      1       2.078451        246.0302
2014    18      2       1.650386        227.6213
2014    18      3       1.694897        228.9784
2014    18      4       1.719137        229.9904
2014    18      5       1.747207        230.9684
2014    18      6       1.836045        234.6271
2014    18      7       1.756084        230.5803
2014    19      0       1.438537        213.4018
2014    19      1       0.8503446       162.1817
2014    19      2       0.5636074       123.4651
2014    19      3       0.4779643       109.4464
2014    19      4       0.4652283       107.118
2014    19      5       0.4847656       110.2495
2014    19      6       0.4291006       100.6688
2014    19      7       0.4871324       110.4846
2014    20      0       0.4803507       109.7061
2014    20      1       0.3027867       76.90078
2014    20      2       0.2822246       72.40292
2014    20      3       0.2834657       72.21722
2014    20      4       0.4192004       97.97014
2014    20      5       0.8569466       161.6676
2014    20      6       0.8278544       158.9192
2014    20      7       0.440396        102.9774
2014    21      0       0.2959087       75.9362
2014    21      1       0.2014789       55.93288
2014    21      2       0.1819182       51.3366
2014    21      3       0.1953898       54.24976
2014    21      4       0.2211027       59.89142
2014    21      5       0.3046169       77.61262
2014    21      6       0.3899104       94.43535
2014    21      7       0.4705769       108.9871
2014    22      0       0.4145065       98.81127
2014    22      1       0.3122771       79.02955
2014    22      2       0.2760699       71.48151
2014    22      3       0.29988         76.26374
2014    22      4       0.4321168       101.3156
2014    22      5       0.6156761       130.8132
2014    22      6       0.8334677       159.5987
2014    22      7       1.234516        198.344
2014    23      0       1.47229         215.7489
2014    23      1       1.515745        219.061
2014    23      2       1.572859        222.733
2014    23      3       1.572695        222.5941
2014    23      4       1.556702        221.2745
2014    23      5       1.357874        208.5295
2014    23      6       1.278125        202.8963
2014    23      7       1.403486        211.8035
2014    24      0       1.489473        217.6768
2014    24      1       1.270738        202.6696
2014    24      2       1.161089        193.8137
2014    24      3       1.159601        193.4418
2014    24      4       1.157165        193.0901
2014    24      5       1.171158        194.2178
2014    24      6       1.045049        182.8717
2014    24      7       1.171266        194.4908
2014    25      0       1.331779        207.022
2014    25      1       1.260317        201.5473
2014    25      2       1.146811        191.8652
2014    25      3       1.122856        189.6931
2014    25      4       1.082951        185.998
2014    25      5       1.143165        191.2088
2014    25      6       1.390046        210.2503
2014    25      7       2.436008        254.107
2014    26      0       2.43614         254.2098
2014    26      1       1.591576        222.8308
2014    26      2       1.22028         197.3376
2014    26      3       1.146613        191.1188
2014    26      4       1.146897        191.113
2014    26      5       1.097275        186.8379
2014    26      6       1.328473        205.7862
2014    26      7       1.911501        237.401
2014    27      0       1.354595        208.3306
2014    27      1       1.081219        186.1343
2014    27      2       1.13793         190.7401
2014    27      3       1.097195        186.6681
2014    27      4       1.193892        194.4292
2014    27      5       1.255827        198.9062
2014    27      6       0.8701608       162.351
2014    27      7       0.4960648       111.249
2014    28      0       0.2973619       74.62272
2014    28      1       0.2331007       61.26437
2014    28      2       0.2697072       68.68819
2014    28      3       0.3065143       76.07694
2014    28      4       0.345833        83.30648
2014    28      5       0.356012        85.60438
2014    28      6       0.3703548       88.58167
2014    28      7       0.4020792       94.61841
2014    29      0       0.4352207       100.7294
2014    29      1       0.4807564       108.6867
2014    29      2       0.4649811       106.3645
2014    29      3       0.4271486       99.88382
2014    29      4       0.4077051       96.61036
2014    29      5       0.4148986       98.19054
2014    29      6       0.3701794       90.27116
2014    29      7       0.3685897       90.08303
2014    30      0       0.4514447       104.8285
2014    30      1       0.4994334       112.6854
2014    30      2       0.4393815       102.4561
2014    30      3       0.2891061       73.62654
2014    30      4       0.3118568       78.48588
2014    30      5       0.3901629       93.69257
2014    30      6       0.3992248       95.58106
2014    30      7       0.4244349       100.4618
2015    1       0       0.6830148       137.9614
2015    1       1       0.621999        128.9911
2015    1       2       0.6932651       138.9176
2015    1       3       0.8003174       152.7684
2015    1       4       0.8582411       159.2332
2015    1       5       0.7916096       151.3117
2015    1       6       0.7543208       146.9799
2015    1       7       0.8232586       155.8244
2015    2       0       0.9599088       170.8991
2015    2       1       1.05746         180.2343
2015    2       2       1.204883        193.3885
2015    2       3       1.301972        200.6321
2015    2       4       1.25393         197.0639
2015    2       5       1.141814        187.9314
2015    2       6       1.090189        183.2792
2015    2       7       1.120293        185.2785
2015    3       0       1.017251        175.5296
2015    3       1       0.9879367       172.969
2015    3       2       1.120693        186.8316
2015    3       3       1.173033        192.3337
2015    3       4       1.145347        189.8776
2015    3       5       1.293143        201.4024
2015    3       6       1.293791        201.2966
2015    3       7       1.356062        205.3459
2015    4       0       1.315298        202.4222
2015    4       1       1.133383        187.6371
2015    4       2       1.178264        191.432
2015    4       3       1.231864        196.0761
2015    4       4       1.28089         200.2198
2015    4       5       1.264713        199.4384
2015    4       6       1.234308        197.3735
2015    4       7       1.306025        203.0648
2015    5       0       1.127385        189.3798
2015    5       1       1.017317        179.4543
2015    5       2       0.8386763       160.4017
2015    5       3       0.6655347       137.7825
2015    5       4       0.5668461       122.9456
2015    5       5       0.5143657       114.846
2015    5       6       0.6469335       135.0699
2015    5       7       1.236903        198.0286
2015    6       0       1.156712        192.284
2015    6       1       0.9195468       169.7816
2015    6       2       1.144774        191.1665
2015    6       3       1.198902        195.3684
2015    6       4       1.198159        195.3672
2015    6       5       0.8688861       163.7009
2015    6       6       1.137595        189.9664
2015    6       7       1.860271        233.9921
2015    7       0       1.883444        234.9243
2015    7       1       1.895309        235.5816
2015    7       2       1.877566        234.552
2015    7       3       1.808382        231.1127
2015    7       4       1.965559        237.5587
2015    7       5       2.485083        253.393
2015    7       6       2.920385        262.0134
2015    7       7       3.492434        269.9727
2015    8       0       3.526924        270.0964
2015    8       1       3.241939        265.9373
2015    8       2       2.844686        260.2172
2015    8       3       1.912614        235.5914
2015    8       4       2.106536        241.9539
2015    8       5       2.410412        251.406
2015    8       6       2.589172        255.8928
2015    8       7       3.591338        269.3856
2015    9       0       3.261544        266.032
2015    9       1       2.815351        259.5839
2015    9       2       2.641888        256.876
2015    9       3       2.985232        262.1333
2015    9       4       2.978779        261.4602
2015    9       5       3.28383         264.7056
2015    9       6       3.618519        268.1375
2015    9       7       3.972258        270.761
2015    10      0       3.732773        269.3896
2015    10      1       3.557827        268.6572
2015    10      2       3.254576        265.1313
2015    10      3       3.256811        264.7109
2015    10      4       3.405436        265.8586
2015    10      5       2.904571        259.8239
2015    10      6       2.976856        260.6357
2015    10      7       3.270847        265.1089
2015    11      0       3.184548        264.0336
2015    11      1       3.159151        263.1905
2015    11      2       3.062212        262.0471
2015    11      3       2.737499        257.1754
2015    11      4       2.218295        244.1789
2015    11      5       1.89104         231.8764
2015    11      6       1.939632        233.6271
2015    11      7       2.078259        239.2922
2015    12      0       2.164387        242.9855
2015    12      1       1.698895        224.479
2015    12      2       1.631638        221.1712
2015    12      3       1.638068        222.0364
2015    12      4       1.492785        214.3899
2015    12      5       1.281953        199.7889
2015    12      6       1.3159          202.3
2015    12      7       1.502228        215.2396
2015    13      0       1.376051        207.4678
2015    13      1       0.8255122       156.3629
2015    13      2       0.8352066       157.7502
2015    13      3       0.9088515       166.8316
2015    13      4       0.7380427       146.3479
2015    13      5       0.619515        130.2587
2015    13      6       0.556426        120.9237
2015    13      7       0.699515        141.8053
2015    14      0       0.5485707       120.035
2015    14      1       0.3330112       82.28771
2015    14      2       0.2988147       75.40727
2015    14      3       0.336701        82.74996
2015    14      4       0.3796411       90.80577
2015    14      5       0.5080698       113.1544
2015    14      6       0.7481372       148.0034
2015    14      7       1.026615        179.6403
2015    15      0       1.082599        185.3199
2015    15      1       0.5542713       121.324
2015    15      2       0.3150799       79.11831
2015    15      3       0.2517873       65.81863
2015    15      4       0.3210578       79.79323
2015    15      5       0.5066375       113.2548
2015    15      6       0.6646789       137.3026
2015    15      7       0.5213474       115.942
2015    16      0       0.39719         94.71354
2015    16      1       0.2346894       61.90298
2015    16      2       0.2124615       56.56836
2015    16      3       0.2112896       56.05703
2015    16      4       0.1900699       51.36701
2015    16      5       0.2003607       53.554
2015    16      6       0.2424925       62.57161
2015    16      7       0.3102741       76.84705
2015    17      0       0.3789768       90.42243
2015    17      1       0.382611        91.08811
2015    17      2       0.3510196       85.22835
2015    17      3       0.3112363       77.60553
2015    17      4       0.2802135       71.19763
2015    17      5       0.2590594       66.99807
2015    17      6       0.2407128       63.24731
2015    17      7       0.2877017       72.8281
2015    18      0       0.3081273       76.70612
2015    18      1       0.319413        77.72575
2015    18      2       0.3621672       85.83401
2015    18      3       0.4142254       95.09693
2015    18      4       0.5211545       113.5835
2015    18      5       0.7079557       141.7691
2015    18      6       1.181902        193.5378
2015    18      7       1.531574        217.699
2015    19      0       1.385805        207.5776
2015    19      1       1.272763        200.2253
2015    19      2       1.526814        217.735
2015    19      3       1.65658         224.9993
2015    19      4       1.6788          225.5308
2015    19      5       1.825626        231.6854
2015    19      6       1.685966        225.247
2015    19      7       1.690113        225.6816
2015    20      0       1.90425         235.5422
2015    20      1       1.85595         233.8738
2015    20      2       1.8509          233.3183
2015    20      3       1.884256        234.2115
2015    20      4       1.856798        232.7216
2015    20      5       2.119226        242.631
2015    20      6       2.25083         246.7165
2015    20      7       2.240122        246.5922
2015    21      0       2.392863        251.0727
2015    21      1       2.658876        256.7942
2015    21      2       3.155659        264.6833
2015    21      3       3.589689        269.005
2015    21      4       3.50444         266.7393
2015    21      5       3.592573        268.2427
2015    21      6       3.329373        266.5211
2015    21      7       3.16038         264.4291
2015    22      0       3.636404        268.9148
2015    22      1       2.733324        258.6461
2015    22      2       1.842151        233.5335
2015    22      3       1.522585        216.8849
2015    22      4       1.442432        211.3109
2015    22      5       1.288241        200.4844
2015    22      6       1.291083        200.5418
2015    22      7       1.503046        214.4888
2015    23      0       1.698413        225.5404
2015    23      1       1.480391        214.0074
2015    23      2       1.415386        210.3849
2015    23      3       1.352235        206.1482
2015    23      4       1.309903        203.2258
2015    23      5       1.20374         195.1539
2015    23      6       1.103178        186.9762
2015    23      7       1.234344        197.7939
2015    24      0       1.19879         195.7077
2015    24      1       0.9181591       169.3662
2015    24      2       0.6654445       137.981
2015    24      3       0.539904        118.999
2015    24      4       0.510074        114.2547
2015    24      5       0.4711315       107.7801
2015    24      6       0.4934908       111.8664
2015    24      7       0.6630926       138.1062
2015    25      0       0.8814446       165.8188
2015    25      1       0.4870289       111.1875
2015    25      2       0.415529        98.4077
2015    25      3       0.4943428       112.3931
2015    25      4       0.5088338       114.6728
2015    25      5       0.5033104       113.6391
2015    25      6       0.5648167       123.6375
2015    25      7       0.9831137       177.0056
2015    26      0       0.9861353       177.4839
2015    26      1       0.5441029       120.3703
2015    26      2       0.4102938       97.67848
2015    26      3       0.4229969       100.008
2015    26      4       0.4360309       102.1792
2015    26      5       0.4729716       108.3119
2015    26      6       0.5620482       122.9431
2015    26      7       0.8822917       165.4956
2015    27      0       1.025707        180.8434
2015    27      1       0.8346558       160.1848
2015    27      2       0.619304        131.3974
2015    27      3       0.5847089       125.8477
2015    27      4       0.6417214       134.2283
2015    27      5       0.7249104       145.6842
2015    27      6       0.8972321       166.5143
2015    27      7       1.285089        202.4837
2015    28      0       1.361741        208.3659
2015    28      1       1.160953        192.8414
2015    28      2       1.000409        177.8553
2015    28      3       0.9005964       167.5968
2015    28      4       0.8869193       165.4634
2015    28      5       0.8378772       159.5048
2015    28      6       0.9517946       171.5865
2015    28      7       0.942922        170.5985
2015    29      0       1.021615        179.7947
2015    29      1       0.8678661       164.0512
2015    29      2       0.73641         148.0426
2015    29      3       0.7122152       144.5385
2015    29      4       0.6192342       131.5815
2015    29      5       0.5699393       124.2777
2015    29      6       0.5352334       119.1106
2015    29      7       0.6672167       139.2907
2015    30      0       0.7217256       146.9524
2015    30      1       0.5173881       117.393
2015    30      2       0.4401728       103.8284
2015    30      3       0.3731485       91.36909
2015    30      4       0.330981        83.23128
2015    30      5       0.3125922       79.68958
2015    30      6       0.3438278       85.97454
2015    30      7       0.5707199       125.5343
2016    1       0       1.982414        238.956
2016    1       1       1.796898        231.7852
2016    1       2       1.298549        202.5681
2016    1       3       1.319762        203.9771
2016    1       4       2.210424        246.5754
2016    1       5       2.694447        258.2579
2016    1       6       2.58566         256.4521
2016    1       7       2.68298         258.4719
2016    2       0       2.171506        246.1555
2016    2       1       1.668361        226.1025
2016    2       2       1.656486        225.3846
2016    2       3       1.911024        237.0728
2016    2       4       1.794437        231.7754
2016    2       5       1.392133        209.4306
2016    2       6       1.172089        192.9969
2016    2       7       0.9665104       173.7167
2016    3       0       0.8976136       166.7389
2016    3       1       0.7316928       147.5147
2016    3       2       0.6366102       134.4037
2016    3       3       0.5444579       120.2681
2016    3       4       0.4420051       103.3019
2016    3       5       0.3745893       90.80176
2016    3       6       0.2488338       65.47932
2016    3       7       0.252651        66.08691
2016    4       0       0.3013942       75.75958
2016    4       1       0.3782698       90.79703
2016    4       2       0.4573015       105.4187
2016    4       3       0.387857        92.99048
2016    4       4       0.2511063       65.77856
2016    4       5       0.1910201       52.54138
2016    4       6       0.2037728       55.47152
2016    4       7       0.2357017       62.71101
2016    5       0       0.2648279       69.06844
2016    5       1       0.2636924       68.84305
2016    5       2       0.255589        67.03456
2016    5       3       0.2417967       63.89408
2016    5       4       0.254899        66.46859
2016    5       5       0.2498383       65.44108
2016    5       6       0.2218049       59.54833
2016    5       7       0.2316516       61.6243
2016    6       0       0.2625821       68.05389
2016    6       1       0.2713259       69.91538
2016    6       2       0.283672        72.60368
2016    6       3       0.3065119       77.24384
2016    6       4       0.2971553       75.18144
2016    6       5       0.2888478       73.33005
2016    6       6       0.3127637       78.19171
2016    6       7       0.3796062       91.13694
2016    7       0       0.4633724       106.1608
2016    7       1       0.5274425       116.9702
2016    7       2       0.7957182       154.8329
2016    7       3       1.075767        184.4479
2016    7       4       1.136487        189.3686
2016    7       5       1.087163        184.8826
2016    7       6       0.9115996       167.8965
2016    7       7       1.062121        183.265
2016    8       0       0.9083375       167.4181
2016    8       1       0.5738902       123.0707
2016    8       2       0.4850225       108.5131
2016    8       3       0.405873        94.56576
2016    8       4       0.3653118       87.65553
2016    8       5       0.3137372       78.6042
2016    8       6       0.2434158       64.56657
2016    8       7       0.3676944       89.74768
2016    9       0       0.4185398       98.22882
2016    9       1       0.494087        108.5981
2016    9       2       0.6510535       131.7495
2016    9       3       0.7547326       145.5836
2016    9       4       0.7971676       151.2077
2016    9       5       0.7338181       144.1249
2016    9       6       0.6708006       136.2931
2016    9       7       0.7008617       140.3199
2016    10      0       0.5539718       118.6771
2016    10      1       0.5210117       113.8376
2016    10      2       0.5710214       121.9845
2016    10      3       0.5346177       115.7396
2016    10      4       0.4939875       108.8788
2016    10      5       0.4888833       108.1139
2016    10      6       0.656076        133.6753
2016    10      7       0.9616763       170.5203
2016    11      0       1.107328        185.1193
2016    11      1       1.203965        193.6996
2016    11      2       1.39038         207.5888
2016    11      3       1.397362        207.9971
2016    11      4       1.491158        213.8761
2016    11      5       1.600196        219.7919
2016    11      6       1.524909        215.8196
2016    11      7       1.501373        214.6582
2016    12      0       1.345723        204.571
2016    12      1       1.133805        187.7764
2016    12      2       0.9709869       172.2533
2016    12      3       0.8674645       160.8766
2016    12      4       1.006212        175.2089
2016    12      5       1.141065        187.5238
2016    12      6       1.152658        189.013
2016    12      7       1.31979         202.5369
2016    13      0       1.201653        194.1355
2016    13      1       0.9593585       172.0266
2016    13      2       0.9029364       165.6916
2016    13      3       0.9281867       167.9191
2016    13      4       1.194824        192.2159
2016    13      5       0.8932402       163.2408
2016    13      6       0.826785        155.2613
2016    13      7       0.7449532       144.445
2016    14      0       0.5239449       113.4306
2016    14      1       0.4538526       101.2832
2016    14      2       0.4236311       95.9336
2016    14      3       0.3632519       85.8687
2016    14      4       0.362885        85.47143
2016    14      5       0.4793272       105.4762
2016    14      6       0.5673413       120.0459
2016    14      7       0.6471826       132.2579
2016    15      0       0.7026866       140.404
2016    15      1       0.5884067       125.2392
2016    15      2       0.5169635       114.0778
2016    15      3       0.4928207       109.6062
2016    15      4       0.5350343       115.7132
2016    15      5       0.5436344       116.8023
2016    15      6       0.5654871       120.2997
2016    15      7       0.725007        142.9779
2016    16      0       0.8164927       154.4137
2016    16      1       0.8614051       158.6442
2016    16      2       0.8427484       156.4858
2016    16      3       0.7858865       149.6966
2016    16      4       0.7447621       144.6696
2016    16      5       0.6568534       133.2634
2016    16      6       0.6630784       133.8778
2016    16      7       0.7283394       142.5975
2016    17      0       0.7813676       149.9596
2016    17      1       0.7792978       150.1969
2016    17      2       0.8464089       158.4201
2016    17      3       0.8284263       156.2217
2016    17      4       0.7278274       143.6752
2016    17      5       0.7157076       141.6308
2016    17      6       0.6838274       137.9031
2016    17      7       0.729991        144.7196
2016    18      0       0.8906288       164.7621
2016    18      1       0.8755101       163.2495
2016    18      2       0.9957133       174.8003
2016    18      3       1.318851        201.4628
2016    18      4       1.500838        214.1492
2016    18      5       1.370211        205.9451
2016    18      6       1.238747        196.0841
2016    18      7       1.338794        203.9996
2016    19      0       1.421525        210.0782
2016    19      1       1.669805        223.9829
2016    19      2       2.307394        248.3901
2016    19      3       2.524381        254.3471
2016    19      4       2.721645        256.8476
2016    19      5       3.336252        266.1879
2016    19      6       3.524348        267.4786
2016    19      7       3.387655        265.4333
2016    20      0       4.15383         272.2672
2016    20      1       3.802643        270.7902
2016    20      2       3.574023        268.5019
2016    20      3       3.778329        270.1031
2016    20      4       3.946536        270.9058
2016    20      5       3.982841        271.1675
2016    20      6       4.077401        272.0249
2016    20      7       3.91825         272.1978
2016    21      0       2.942195        263.0031
2016    21      1       2.048745        242.7935
2016    21      2       1.694962        228.2123
2016    21      3       1.722654        229.4083
2016    21      4       1.26136         200.9123
2016    21      5       0.6978722       142.7936
2016    21      6       0.8485637       161.6328
2016    21      7       1.899055        237.6593
2016    22      0       1.967711        241.2498
2016    22      1       1.333689        207.7872
2016    22      2       1.074012        186.0622
2016    22      3       0.8966893       167.8307
2016    22      4       0.577231        126.0174
2016    22      5       0.3434994       85.37606
2016    22      6       0.2115473       57.75098
2016    22      7       0.3336267       82.76245
2016    23      0       0.1312208       38.64727
2016    23      1       0.07569627      25.57581
2016    23      2       0.1210777       36.0853
2016    23      3       0.1647851       45.59253
2016    23      4       0.2320744       60.298
2016    23      5       0.2946833       73.7971
2016    23      6       0.4801655       106.9995
2016    23      7       0.7230799       142.732
2016    24      0       0.6871668       139.0097
2016    24      1       0.391851        92.00279
2016    24      2       0.4588291       103.0467
2016    24      3       0.5374854       116.5737
2016    24      4       0.4682901       106.9905
2016    24      5       0.5144291       114.956
2016    24      6       0.5771028       124.2106
2016    24      7       0.5095103       113.3486
2016    25      0       0.4248366       98.17046
2016    25      1       0.2940429       72.88066
2016    25      2       0.2937164       73.46746
2016    25      3       0.3060079       76.74272
2016    25      4       0.4034594       95.19566
2016    25      5       0.4781198       108.0686
2016    25      6       0.5351064       117.2268
2016    25      7       0.5308428       116.1897
2016    26      0       0.4891642       109.2086
2016    26      1       0.6174784       128.8189
2016    26      2       0.9970202       174.2876
2016    26      3       1.336157        201.9835
2016    26      4       1.845489        230.2804
2016    26      5       1.56422         216.3608
2016    26      6       1.651637        221.9758
2016    26      7       2.221033        243.6639
2016    27      0       2.103825        239.5248
2016    27      1       1.948738        235.1092
2016    27      2       1.190962        191.5246
2016    27      3       1.111476        184.7934
2016    27      4       1.506344        212.8311
2016    27      5       1.909635        232.0467
2016    27      6       2.357529        246.4513
2016    27      7       2.488875        248.9125
2016    28      0       2.131022        238.639
2016    28      1       1.404712        206.2236
2016    28      2       1.16243         188.4863
2016    28      3       1.108189        183.9352
2016    28      4       1.26624         196.8624
2016    28      5       1.373499        205.1228
2016    28      6       1.303082        201.2751
2016    28      7       1.37633         206.4168
2016    29      0       1.489975        213.9252
2016    29      1       1.101576        185.3254
2016    29      2       1.190117        192.6777
2016    29      3       2.165759        243.4324
2016    29      4       2.618349        254.5804
2016    29      5       2.462262        250.4476
2016    29      6       2.136498        241.7365
2016    29      7       2.116627        240.6038
2016    30      0       1.590632        218.958
2016    30      1       0.7677215       149.7534
2016    30      2       0.5566034       120.6017
2016    30      3       0.4761409       107.7625
2016    30      4       0.4663148       106.0355
2016    30      5       0.5197105       114.8758
2016    30      6       0.6324744       131.9629
2016    30      7       0.8838075       163.7472
2017    1       0       1.68568         226.9221
2017    1       1       1.314128        204.6883
2017    1       2       1.35613         207.1843
2017    1       3       1.14936         190.4515
2017    1       4       1.223728        196.0029
2017    1       5       1.799522        230.4787
2017    1       6       1.750538        228.4308
2017    1       7       1.393178        208.199
2017    2       0       0.872131        161.1461
2017    2       1       0.8783415       162.2877
2017    2       2       1.632485        223.2089
2017    2       3       1.994342        238.4707
2017    2       4       2.099478        242.4023
2017    2       5       2.539741        254.7051
2017    2       6       3.035921        261.9676
2017    2       7       4.78073         275.6729
2017    3       0       3.929916        272.2172
2017    3       1       3.260465        267.0909
2017    3       2       2.827718        261.4062
2017    3       3       3.169537        266.1018
2017    3       4       3.993974        273.7193
2017    3       5       4.439853        276.1434
2017    3       6       3.993159        274.2507
2017    3       7       4.036299        274.5003
2017    4       0       4.248328        275.6802
2017    4       1       3.864869        273.5723
2017    4       2       2.770683        261.0769
2017    4       3       2.400903        252.5109
2017    4       4       2.355195        251.0071
2017    4       5       2.077385        242.4496
2017    4       6       1.855599        233.9409
2017    4       7       1.763044        230.09
2017    5       0       1.562601        219.7748
2017    5       1       1.074151        184.0752
2017    5       2       0.8312088       158.3891
2017    5       3       1.244095        198.8215
2017    5       4       1.764268        230.7426
2017    5       5       2.046379        242.864
2017    5       6       1.887807        236.3416
2017    5       7       2.013017        241.6087
2017    6       0       2.233529        249.6872
2017    6       1       1.55797         220.9534
2017    6       2       1.623923        224.9312
2017    6       3       1.630129        225.072
2017    6       4       1.955651        239.7727
2017    6       5       1.861034        235.6333
2017    6       6       1.756332        230.8198
2017    6       7       1.595863        222.6271
2017    7       0       1.493036        216.9798
2017    7       1       1.105509        187.9417
2017    7       2       0.9480399       172.0701
2017    7       3       1.019589        178.5439
2017    7       4       1.232206        197.3117
2017    7       5       1.505515        216.1886
2017    7       6       1.526854        217.468
2017    7       7       1.760407        230.4925
2017    8       0       1.982681        240.3948
2017    8       1       1.936566        238.9034
2017    8       2       2.067719        243.2728
2017    8       3       2.420114        252.9233
2017    8       4       2.246357        247.6362
2017    8       5       1.984187        238.7051
2017    8       6       1.915378        236.2245
2017    8       7       2.394146        251.7999
2017    9       0       3.100481        265.5021
2017    9       1       2.661094        257.9547
2017    9       2       2.001854        239.6625
2017    9       3       1.857762        233.8977
2017    9       4       1.721002        227.5915
2017    9       5       1.581762        220.3756
2017    9       6       1.787123        230.6288
2017    9       7       2.597226        256.0941
2017    10      0       2.364545        250.427
2017    10      1       1.90737         236.164
2017    10      2       1.648212        223.5705
2017    10      3       1.344906        204.4144
2017    10      4       1.121362        186.8823
2017    10      5       1.371403        206.5503
2017    10      6       1.683531        224.91
2017    10      7       1.484897        214.0949
2017    11      0       1.049178        181.4898
2017    11      1       0.8327963       159.0041
2017    11      2       0.6795003       139.5064
2017    11      3       0.641156        134.4962
2017    11      4       0.6363749       133.8573
2017    11      5       0.7141382       144.7259
2017    11      6       0.9318518       170.8817
2017    11      7       1.219432        197.6033
2017    12      0       1.363352        208.8204
2017    12      1       1.084419        186.7918
2017    12      2       0.8662851       163.7648
2017    12      3       0.7173819       144.8742
2017    12      4       0.9613222       173.3186
2017    12      5       1.769343        231.37
2017    12      6       1.7979          232.8773
2017    12      7       1.618414        223.1563
2017    13      0       1.726487        229.0177
2017    13      1       1.482502        215.8988
2017    13      2       1.441648        213.0133
2017    13      3       1.532365        218.0668
2017    13      4       1.719697        227.6386
2017    13      5       1.718292        227.2034
2017    13      6       1.275665        200.0337
2017    13      7       1.497868        215.3934
2017    14      0       1.765915        229.9105
2017    14      1       1.519927        217.157
2017    14      2       1.384879        208.374
2017    14      3       1.510734        216.1793
2017    14      4       1.692992        226.2008
2017    14      5       1.499976        216.1732
2017    14      6       1.023849        179.9363
2017    14      7       0.5544145       121.6389
2017    15      0       0.2790086       71.6758
2017    15      1       0.3266385       81.09477
2017    15      2       0.3163508       78.87327
2017    15      3       0.3551501       85.37861
2017    15      4       0.5271849       114.9371
2017    15      5       0.6931435       139.4143
2017    15      6       0.7197569       142.8348
2017    15      7       0.708434        141.3179
2017    16      0       0.7130158       142.1581
2017    16      1       0.5349321       116.1543
2017    16      2       0.3520518       84.68949
2017    16      3       0.3188058       78.79078
2017    16      4       0.3392179       82.66147
2017    16      5       0.3546688       85.40006
2017    16      6       0.4237735       97.60329
2017    16      7       0.5270298       115.3895
2017    17      0       0.3775759       90.37433
2017    17      1       0.3005905       75.53847
2017    17      2       0.39692         93.15412
2017    17      3       0.3835137       90.40848
2017    17      4       0.3882677       91.26174
2017    17      5       0.4244046       97.40307
2017    17      6       0.4046871       94.39562
2017    17      7       0.3839132       90.84709
2017    18      0       0.3750901       89.67088
2017    18      1       0.3486776       84.94751
2017    18      2       0.3517228       85.40984
2017    18      3       0.3362506       82.38376
2017    18      4       0.3154646       78.37978
2017    18      5       0.2944688       74.56655
2017    18      6       0.238706        63.18549
2017    18      7       0.2171084       58.4372
2017    19      0       0.2599333       67.39297
2017    19      1       0.2894848       73.22951
2017    19      2       0.3342028       82.0847
2017    19      3       0.3430796       84.10349
2017    19      4       0.305614        76.94611
2017    19      5       0.2451093       64.59955
2017    19      6       0.206409        56.47586
2017    19      7       0.2149974       58.48426
2017    20      0       0.2256907       60.87004
2017    20      1       0.2273658       61.28552
2017    20      2       0.2930505       75.06844
2017    20      3       0.3355145       83.3747
2017    20      4       0.3365814       83.56422
2017    20      5       0.3603582       88.20768
2017    20      6       0.3349859       83.00023
2017    20      7       0.2862581       72.99909
2017    21      0       0.2499929       64.93644
2017    21      1       0.3315856       80.00557
2017    21      2       0.3180497       77.49321
2017    21      3       0.3484398       83.35849
2017    21      4       0.3542925       84.76229
2017    21      5       0.4667788       104.9815
2017    21      6       0.3788346       90.41504
2017    21      7       0.4984596       110.6566
2017    22      0       0.6250694       130.1835
2017    22      1       0.534538        116.2083
2017    22      2       0.4976006       109.6793
2017    22      3       0.5480674       117.7997
2017    22      4       0.5279623       115.0594
2017    22      5       0.4773438       106.9285
2017    22      6       0.3455495       83.6339
2017    22      7       0.2448235       63.63842
2017    23      0       0.227775        60.183
2017    23      1       0.1782813       49.38122
2017    23      2       0.1430756       41.53958
2017    23      3       0.132683        39.18255
2017    23      4       0.1044269       32.42726
2017    23      5       0.09334354      29.60446
2017    23      6       0.2317751       60.98988
2017    23      7       0.2614894       67.29296
2017    24      0       0.2926706       73.98264
2017    24      1       0.2795847       71.49459
2017    24      2       0.2677227       69.28095
2017    24      3       0.3438001       84.10829
2017    24      4       0.365733        88.04924
2017    24      5       0.388145        92.01533
2017    24      6       0.4378365       100.6245
2017    24      7       0.4103517       95.60705
2017    25      0       0.3128087       77.59445
2017    25      1       0.2620952       67.67316
2017    25      2       0.2158884       58.15335
2017    25      3       0.2175651       58.37137
2017    25      4       0.2917431       73.40571
2017    25      5       0.3147183       77.84393
2017    25      6       0.3857141       90.18999
2017    25      7       0.4621853       103.1983
2017    26      0       0.4547972       102.6781
2017    26      1       0.387971        90.97743
2017    26      2       0.4304327       97.28385
2017    26      3       0.5586552       117.3052
2017    26      4       0.6069209       125.1107
2017    26      5       0.6034715       125.358
2017    26      6       0.6081362       126.178
2017    26      7       0.6116844       126.9035
2017    27      0       0.7216934       142.4656
2017    27      1       0.7589516       147.3744
2017    27      2       0.7907986       150.7182
2017    27      3       0.7209357       141.8461
2017    27      4       0.5684712       121.0526
2017    27      5       0.4660568       105.124
2017    27      6       0.4464185       101.9362
2017    27      7       0.4547459       103.6889
2017    28      0       0.4455074       102.5659
2017    28      1       0.3558005       86.56673
2017    28      2       0.2886298       73.37226
2017    28      3       0.2602877       67.6027
2017    28      4       0.2906182       73.47428
2017    28      5       0.3067383       76.58669
2017    28      6       0.3068628       76.60553
2017    28      7       0.3097002       77.14191
2017    29      0       0.318866        78.97406
2017    29      1       0.2782852       70.94629
2017    29      2       0.2369645       62.52724
2017    29      3       0.2510472       65.65965
2017    29      4       0.2767367       70.93757
2017    29      5       0.2487581       64.82409
2017    29      6       0.2471556       64.54928
2017    29      7       0.4140416       96.95049
2017    30      0       0.5014985       111.8079
2017    30      1       0.3931458       93.49947
2017    30      2       0.3325102       81.98679
2017    30      3       0.3839632       91.4734
2017    30      4       0.4043183       95.09696
2017    30      5       0.5129321       113.0041
2017    30      6       0.5809062       123.9323
2017    30      7       0.5848076       124.5199
2018    1       0       0.5540702       121.0507
2018    1       1       0.4738606       107.8908
2018    1       2       0.6058854       128.6729
2018    1       3       0.8291206       157.9796
2018    1       4       0.8957037       165.2814
2018    1       5       0.860826        161.5823
2018    1       6       0.7918882       153.0519
2018    1       7       0.6297434       130.2248
2018    2       0       0.8984469       165.265
2018    2       1       0.8569404       160.5367
2018    2       2       0.9240607       167.0341
2018    2       3       0.8781387       161.6366
2018    2       4       0.8135691       154.1712
2018    2       5       0.7340441       144.9729
2018    2       6       0.6704918       137.0771
2018    2       7       0.5590856       121.1232
2018    3       0       0.5688648       122.4597
2018    3       1       0.5653478       121.963
2018    3       2       0.5838316       124.8196
2018    3       3       0.664598        136.6269
2018    3       4       0.6970014       141.0716
2018    3       5       0.6751922       137.7417
2018    3       6       0.5766387       123.1288
2018    3       7       0.533719        117.023
2018    4       0       0.6134833       129.6945
2018    4       1       0.6056049       128.2341
2018    4       2       0.7051586       141.9178
2018    4       3       0.6896103       139.521
2018    4       4       0.5804203       123.4245
2018    4       5       0.4605215       103.5422
2018    4       6       0.4945062       109.2942
2018    4       7       0.5323798       115.7417
2018    5       0       0.4879437       108.9645
2018    5       1       0.4160001       96.63565
2018    5       2       0.502906        111.419
2018    5       3       0.5977268       126.2008
2018    5       4       0.5880251       124.9943
2018    5       5       0.5584381       120.9778
2018    5       6       0.5150254       114.3884
2018    5       7       0.4417059       102.1962
2018    6       0       0.5196847       115.3223
2018    6       1       0.660532        136.1606
2018    6       2       0.6824849       139.3143
2018    6       3       0.6779385       138.5113
2018    6       4       0.7219085       143.9032
2018    6       5       0.7481579       147.2086
2018    6       6       0.6678011       136.6619
2018    6       7       0.6176471       129.5828
2018    7       0       0.5941667       126.4409
2018    7       1       0.5044463       112.595
2018    7       2       0.4740373       107.1454
2018    7       3       0.5013174       111.8565
2018    7       4       0.6483387       133.473
2018    7       5       0.7232235       143.8905
2018    7       6       0.7005713       141.2081
2018    7       7       0.5676142       122.5686
2018    8       0       0.4649965       106.2671
2018    8       1       0.4667651       106.1285
2018    8       2       0.7000607       141.7272
2018    8       3       1.078446        184.5276
2018    8       4       1.098691        186.1964
2018    8       5       1.302648        202.6576
2018    8       6       1.44229         212.7053
2018    8       7       1.239739        198.9025
2018    9       0       0.7718517       152.8402
2018    9       1       0.7334226       147.6589
2018    9       2       0.7751567       152.8888
2018    9       3       0.8425704       161.0555
2018    9       4       0.9785865       175.6777
2018    9       5       0.9771362       175.4845
2018    9       6       1.118896        189.0825
2018    9       7       1.128633        190.0799
2018    10      0       1.084051        186.4193
2018    10      1       0.9123638       169.3055
2018    10      2       0.9096006       168.6375
2018    10      3       1.081774        185.7307
2018    10      4       1.136422        190.3606
2018    10      5       1.137051        190.1727
2018    10      6       0.9810276       175.4403
2018    10      7       0.9835213       175.8158
2018    11      0       1.080891        185.7339
2018    11      1       0.8570622       162.9451
2018    11      2       0.7776221       153.135
2018    11      3       0.692004        141.7368
2018    11      4       0.5759737       124.8863
2018    11      5       0.5535976       121.3793
2018    11      6       0.5399423       119.2557
2018    11      7       0.6650523       138.0666
2018    12      0       0.6282602       133.0062
2018    12      1       0.4818135       109.9215
2018    12      2       0.4356625       101.7561
2018    12      3       0.4192115       98.66249
2018    12      4       0.3997664       95.06724
2018    12      5       0.4025824       95.73812
2018    12      6       0.5151443       115.0003
2018    12      7       0.6084506       129.2435
2018    13      0       0.6219894       131.4616
2018    13      1       0.6108587       129.9819
2018    13      2       0.6530986       136.3141
2018    13      3       0.7546043       149.8976
2018    13      4       0.7365612       147.5074
2018    13      5       0.6149831       130.6722
2018    13      6       0.7008399       142.2908
2018    13      7       0.8315158       158.4876
2018    14      0       0.8863596       165.1984
2018    14      1       0.7507157       149.1654
2018    14      2       0.6037485       128.3232
2018    14      3       0.9475973       171.6385
2018    14      4       0.9950313       176.4991
2018    14      5       0.985709        175.633
2018    14      6       1.000414        177.2956
2018    14      7       1.052011        182.3454
2018    15      0       1.179055        194.0954
2018    15      1       1.129413        190.0453
2018    15      2       0.9063372       167.9883
2018    15      3       1.062887        183.7246
2018    15      4       1.772677        231.0745
2018    15      5       1.923688        237.947
2018    15      6       1.940942        239.1962
2018    15      7       2.237804        248.3043
2018    16      0       1.854855        235.0863
2018    16      1       1.452046        214.4125
2018    16      2       1.175967        193.7362
2018    16      3       1.119653        188.4527
2018    16      4       1.259224        200.1441
2018    16      5       1.74128         229.8751
2018    16      6       2.067611        243.5724
2018    16      7       2.071912        244.0731
2018    17      0       1.715356        229.632
2018    17      1       1.416709        213.2351
2018    17      2       1.39177         211.1918
2018    17      3       1.29998         204.3286
2018    17      4       1.178785        194.5975
2018    17      5       1.223286        198.0689
2018    17      6       1.351112        208.0024
2018    17      7       1.810111        233.7309
2018    18      0       1.769031        232.5067
2018    18      1       1.329377        207.4334
2018    18      2       1.098761        188.4379
2018    18      3       1.024663        180.9628
2018    18      4       1.24026         199.4323
2018    18      5       1.739116        229.9239
2018    18      6       2.464106        254.4563
2018    18      7       3.100602        265.5034
2018    19      0       3.145182        265.7997
2018    19      1       2.958929        263.0614
2018    19      2       3.012084        263.433
2018    19      3       3.102524        264.4718
2018    19      4       3.338615        267.1217
2018    19      5       2.807461        259.8052
2018    19      6       2.590353        256.4087
2018    19      7       2.435019        252.3368
2018    20      0       2.046119        241.6909
2018    20      1       1.474548        215.6359
2018    20      2       1.100342        187.0721
2018    20      3       1.067593        183.9731
2018    20      4       0.941948        172.0681
2018    20      5       0.7144412       145.504
2018    20      6       0.5054344       114.7485
2018    20      7       0.3771502       92.45216
2018    21      0       0.3828005       93.64968
2018    21      1       0.3255544       82.06156
2018    21      2       0.3166063       79.94712
2018    21      3       0.4002379       95.9079
2018    21      4       0.4482086       104.2468
2018    21      5       0.4086343       97.31385
2018    21      6       0.4568812       105.8094
2018    21      7       0.5614942       122.9479
2018    22      0       0.4775479       109.5621
2018    22      1       0.2502639       66.10955
2018    22      2       0.2561712       66.70741
2018    22      3       0.3567254       86.72293
2018    22      4       0.5511774       120.3646
2018    22      5       0.7417104       147.2742
2018    22      6       0.8606873       161.7162
2018    22      7       0.9446405       171.1431
2018    23      0       1.234815        197.7056
2018    23      1       0.7306623       146.0586
2018    23      2       0.6111041       129.0716
2018    23      3       0.6346473       131.7707
2018    23      4       0.8226233       156.4571
2018    23      5       0.9712051       172.9219
2018    23      6       1.135835        188.3792
2018    23      7       1.169791        191.4709
2018    24      0       1.090319        184.9489
2018    24      1       0.946234        171.358
2018    24      2       0.8526976       160.6003
2018    24      3       0.8291874       157.7016
2018    24      4       0.7412814       147.2347
2018    24      5       0.6045734       128.7013
2018    24      6       0.5741993       124.0146
2018    24      7       0.5200785       115.3399
2018    25      0       0.4684083       107.0473
2018    25      1       0.4975159       111.7509
2018    25      2       0.5684255       122.7689
2018    25      3       0.5802016       124.0744
2018    25      4       0.5771563       122.578
2018    25      5       0.622711        127.9822
2018    25      6       0.633077        129.9207
2018    25      7       0.6821209       137.0459
2018    26      0       0.7955225       151.973
2018    26      1       0.7737514       149.0191
2018    26      2       0.7083278       140.8371
2018    26      3       0.693638        138.9924
2018    26      4       0.6551015       134.0712
2018    26      5       0.6299062       130.5883
2018    26      6       0.6195595       129.1092
2018    26      7       0.5482768       119.4538
2018    27      0       0.4111247       97.53558
2018    27      1       0.3048659       77.21505
2018    27      2       0.2757179       71.35063
2018    27      3       0.2757132       71.39329
2018    27      4       0.2805929       72.30964
2018    27      5       0.2474399       65.40668
2018    27      6       0.2222337       60.15445
2018    27      7       0.2680231       70.35819
2018    28      0       0.2830161       73.51013
2018    28      1       0.2356913       63.2133
2018    28      2       0.2316355       62.10066
2018    28      3       0.2346708       62.23746
2018    28      4       0.2356879       61.98503
2018    28      5       0.2263239       59.67735
2018    28      6       0.2332207       61.4298
2018    28      7       0.2542645       66.34943
2018    29      0       0.3015667       76.44504
2018    29      1       0.2335188       61.6868
2018    29      2       0.1862218       50.75633
2018    29      3       0.174701        48.40534
2018    29      4       0.2121335       57.34479
2018    29      5       0.3182599       79.90865
2018    29      6       0.4416928       103.0645
2018    29      7       0.9567345       172.7976
2018    30      0       1.295662        202.9356
2018    30      1       1.304571        203.2167
2018    30      2       1.297389        202.7578
2018    30      3       1.39502         208.7024
2018    30      4       2.149629        241.9143
2018    30      5       2.902235        258.514
2018    30      6       3.02574         261.1862
2018    30      7       3.230979        264.3047
