####################################################################################################
# Month: 07Jul                                                                                     #
# Station: JCMT                                                                                    #
# Frequency: 345 GHz                                                                               #
# Columns are: year    day     tau     Tb (K)                                                      #
####################################################################################################
2009    1       0.2436766       63.19813625
2009    2       0.28836188      71.842205
2009    3       0.25732202      64.64693
2009    4       0.1744421       47.4410975
2009    5       0.27942115      67.823795
2009    6       0.55242488      115.7329125
2009    7       0.3024371       72.60814
2009    8       0.23028519      59.116055
2009    9       0.26246306      65.26941625
2009    10      0.28995785      69.20034375
2009    11      0.30909875      73.56557
2009    12      0.28419805      70.371055
2009    13      0.311897        75.5770475
2009    14      0.19375308      51.3171225
2009    15      0.18924822      50.25403625
2009    16      0.15625564      43.27788875
2009    17      0.30680752      73.6639475
2009    18      0.39260478      89.32026125
2009    19      0.4387147       97.0417425
2009    20      0.47103312      102.258445
2009    21      0.33897106      79.1953
2009    22      0.33737372      79.739575
2009    23      0.73211551      140.0307875
2009    24      0.60953971      122.7731625
2009    25      0.77760551      144.108375
2009    26      0.5874476       119.2531
2009    27      0.6089385       122.34435
2009    28      0.58451651      119.4142
2009    29      0.49661414      106.7086875
2009    30      0.50616807      107.34566125
2009    31      0.54248805      114.07033
2010    1       0.24179622      61.3323
2010    2       0.23184756      59.46346875
2010    3       0.28923458      70.3749525
2010    4       0.34163735      80.271345
2010    5       0.1997326       53.45576375
2010    6       0.17304992      47.92455625
2010    7       0.14568916      41.61564
2010    8       0.14344089      40.68431375
2010    9       0.18499044      49.28729375
2010    10      0.09080223      28.17382375
2010    11      0.15407416      43.05884125
2010    12      0.20545649      53.7331775
2010    13      0.15174932      42.2918325
2010    14      0.36238289      81.8161325
2010    15      0.15156181      42.75534625
2010    16      0.13636244      39.49310875
2010    17      0.08489269      27.4185025
2010    18      0.08118638      26.4692125
2010    19      0.10478992      32.0028225
2010    20      0.10298283      31.3389025
2010    21      0.13591276      38.1034075
2010    22      0.0850999       26.840585
2010    23      0.08979879      28.2848725
2010    24      0.12512137      36.59359875
2010    25      0.11748541      34.8335825
2010    26      0.18023368      48.48457125
2010    27      0.15600931      43.770835
2010    28      0.10617138      32.33401
2010    29      0.12961249      37.67215375
2010    30      0.11877194      35.1560875
2010    31      0.11867922      35.21200125
2011    1       0.22805212      58.92385375
2011    2       0.17587095      47.9365425
2011    3       0.22434381      58.57966875
2011    4       0.25596361      64.90477
2011    5       0.26594248      66.69869
2011    6       0.21926426      57.27246375
2011    7       0.14539714      41.55187625
2011    8       0.16539825      46.0514525
2011    9       0.08385296      27.05083
2011    10      0.10569615      32.4645875
2011    11      0.1396461       40.40703875
2011    12      0.1246461       36.83467
2011    13      0.1096466       33.09691375
2011    14      0.14437101      41.2163425
2011    15      0.22503618      59.373375
2011    16      0.15812995      44.58419625
2011    17      0.16497899      46.24097625
2011    18      0.14487719      41.54545625
2011    19      0.15239476      43.116725
2011    20      0.12706549      37.49229875
2011    21      0.13307279      38.14782
2011    22      0.14347279      39.87752
2011    23      0.13097821      37.2977225
2011    24      0.16792866      45.0505175
2011    25      0.15213758      42.28662
2011    26      0.13387525      38.21303875
2011    27      0.2258539       58.2510575
2011    28      0.2462969       62.45989375
2011    29      0.17279725      47.00904875
2011    30      0.28254287      69.57041
2011    31      0.30406025      74.1214475
2012    1       0.12556299      36.84767375
2012    2       0.11344176      33.956845
2012    3       0.14354119      41.05855375
2012    4       0.11425701      34.34642625
2012    5       0.14448911      41.15327
2012    6       0.28805986      70.52244375
2012    7       0.27177986      67.61683625
2012    8       0.22481998      58.242105
2012    9       0.17452786      47.61347375
2012    10      0.18652932      50.3811025
2012    11      0.18901002      50.377055
2012    12      0.13088789      37.78802125
2012    13      0.11043852      33.0287325
2012    14      0.2379913       60.75506875
2012    15      0.180245        48.7061075
2012    16      0.16350334      45.15373
2012    17      0.25582313      65.30335375
2012    18      0.26794532      67.34774875
2012    19      0.22588766      58.5738575
2012    20      0.19259625      51.48888625
2012    21      0.14023514      40.06771875
2012    22      0.20483049      53.5593475
2012    23      0.26586873      65.9744225
2012    24      0.23429665      59.62023
2012    25      0.23657998      60.42722875
2012    26      0.24390872      61.75833
2012    27      0.21630865      56.58627375
2012    28      0.21166576      55.07219375
2012    29      0.21994826      56.9163875
2012    30      0.23261404      59.27654125
2012    31      0.77043259      143.14877
2013    1       0.2086937       55.4624625
2013    2       0.36557501      81.398745
2013    3       0.5825038       120.74714125
2013    4       0.32539116      78.990665
2013    5       0.23836339      61.0019575
2013    6       0.25464617      64.09350625
2013    7       0.28532319      70.033515
2013    8       0.30539362      73.523865
2013    9       0.24559869      62.2674325
2013    10      0.17585685      47.9479625
2013    11      0.12327882      36.3531325
2013    12      0.09961809      30.868245
2013    13      0.09777839      30.34438
2013    14      0.17709449      48.05962625
2013    15      0.24851446      63.007955
2013    16      0.40507272      91.92781625
2013    17      0.26636735      66.20571
2013    18      0.18763118      50.56656
2013    19      0.17691968      47.94752625
2013    20      0.21808565      56.0909525
2013    21      0.26960741      65.31898125
2013    22      0.55959364      114.08374
2013    23      0.70403058      136.2214125
2013    24      0.68634342      133.5777375
2013    25      0.35689902      84.1879275
2013    26      0.14618859      41.3877275
2013    27      0.13884236      39.79727125
2013    28      0.16123126      44.610535
2013    29      0.18782819      49.8657425
2013    30      1.11052271      176.739975
2013    31      0.98583558      166.504675
2014    1       0.19100994      51.47751875
2014    2       0.22487354      58.52628375
2014    3       0.18273118      49.13994375
2014    4       0.13907903      39.45127625
2014    5       0.15205282      41.54990875
2014    6       0.21295251      54.02199875
2014    7       0.19612706      50.88806
2014    8       0.2170904       55.8875625
2014    9       0.35564892      81.78858625
2014    10      0.48301421      103.36085125
2014    11      0.4241366       94.44792125
2014    12      0.32158266      76.31503
2014    13      0.3253148       76.33280625
2014    14      0.64215545      128.1247375
2014    15      0.64096719      127.734675
2014    16      0.60119801      122.1537275
2014    17      0.37866995      87.33696375
2014    18      0.4016668       91.39275125
2014    19      0.43742904      97.2894
2014    20      0.55669026      115.5944975
2014    21      0.58477053      119.2030875
2014    22      0.79467505      146.4693875
2014    23      0.59086282      117.96188
2014    24      0.38723845      89.04496875
2014    25      0.32193391      77.80731
2014    26      0.25532769      64.778205
2014    27      0.24035719      61.39467625
2014    28      0.26712714      67.1054475
2014    29      0.19982124      53.38633125
2014    30      0.151379        42.8072125
2014    31      0.3181269       74.98833625
2015    1       0.37857956      86.46020875
2015    2       0.54491238      114.625425
2015    3       0.6688899       131.94802375
2015    4       0.28359317      70.39269375
2015    5       0.28211328      69.67863375
2015    6       0.50440172      107.57503625
2015    7       0.44085699      98.10341
2015    8       0.31926335      77.3179825
2015    9       0.21875452      57.618545
2015    10      0.57541586      111.77203625
2015    11      1.32768662      196.2904
2015    12      0.70785871      137.58475
2015    13      0.56567756      115.77104875
2015    14      0.21421075      56.8662275
2015    15      0.24410349      62.811035
2015    16      0.25083359      64.24679
2015    17      0.44300106      93.5834375
2015    18      0.64128074      126.754955
2015    19      0.29591796      72.83039
2015    20      0.23817995      61.28717875
2015    21      0.40382568      92.80031625
2015    22      0.42289022      95.599635
2015    23      0.48151694      104.9679575
2015    24      0.47872681      104.47709625
2015    25      0.54283996      114.998575
2015    26      0.50720881      109.52934375
2015    27      0.5299351       112.751575
2015    28      0.74016589      141.3903
2015    29      0.83169629      152.1114625
2015    30      0.48015758      104.72656875
2015    31      0.26350472      67.137695
2016    1       0.69460858      133.3985125
2016    2       0.55065136      113.7412625
2016    3       0.39534311      90.6125725
2016    4       0.34461216      81.26821875
2016    5       0.3978359       90.72861875
2016    6       0.55137155      115.1587875
2016    7       0.37868814      87.5389325
2016    8       0.42765124      95.8478875
2016    9       0.28281038      69.67327
2016    10      0.38161564      88.32553375
2016    11      0.2296523       59.74460125
2016    12      0.14825762      42.2681025
2016    13      0.16650361      46.3086575
2016    14      0.25779878      65.13771125
2016    15      0.32427594      78.8359325
2016    16      0.27824214      70.10802625
2016    17      0.25766196      65.924575
2016    18      0.27264171      68.879485
2016    19      0.40348164      89.37095375
2016    20      0.27008268      67.9878975
2016    21      0.20462689      54.16032875
2016    22      0.17928636      49.1746825
2016    23      0.49910446      100.729275
2016    24      0.94858348      166.600075
2016    25      1.06049482      174.08015
2016    26      0.6843731       134.311525
2016    27      0.28481019      70.19307875
2016    28      0.18231779      49.52544875
2016    29      0.13812854      39.74288625
2016    30      0.122431        36.06260125
2016    31      0.27743399      67.40772
2017    1       0.7871856       148.001
2017    2       0.47904911      105.13717125
2017    3       0.4769868       104.3075925
2017    4       0.33254565      79.20591375
2017    5       0.25734814      65.3680975
2017    6       0.16998124      46.882245
2017    7       0.10508659      32.21153875
2017    8       0.09907846      30.57282
2017    9       0.13402378      37.88568875
2017    10      0.17325721      46.49519375
2017    11      0.17226356      46.314935
2017    12      0.18319819      49.086945
2017    13      0.13563251      38.56194125
2017    14      0.22282956      57.56055125
2017    15      0.20150492      53.029165
2017    16      0.2022218       53.2174725
2017    17      0.21427871      55.15004
2017    18      0.27743968      67.713215
2017    19      0.30869104      73.93592125
2017    20      0.35605465      82.99516125
2017    21      0.27868561      69.81673125
2017    22      0.35101774      83.02222875
2017    23      0.27626675      68.29220375
2017    24      0.27624274      67.7215975
2017    25      0.20440925      54.0755025
2017    26      0.1767095       48.2024275
2017    27      0.18647522      50.38998
2017    28      0.36295938      82.5036625
2017    29      0.77590988      144.580475
2017    30      0.39604571      89.92510375
2017    31      0.22233704      57.0516675
2018    1       0.56574489      115.526045
2018    2       0.80578754      144.891975
2018    3       0.70358366      136.9706375
2018    4       0.52886764      112.63834
2018    5       0.4870435       104.80112
2018    6       0.42288528      94.66699125
2018    7       0.27520369      68.09889875
2018    8       0.20920454      55.03621375
2018    9       0.30711031      74.37310375
2018    10      0.29331919      68.21340625
2018    11      0.6504127       129.5686375
2018    12      0.4717355       103.23487875
2018    13      0.60450061      122.4234875
2018    14      0.82654651      149.3952625
2018    15      1.03424301      170.3992625
2018    16      0.70512216      135.9381125
2018    17      0.57262375      119.003625
2018    18      0.4620527       101.1457425
2018    19      0.46359211      100.691865
2018    20      0.4392874       96.75556625
2018    21      0.44339714      97.257915
2018    22      0.51706126      108.8058625
2018    23      0.5350029       113.0292875
2018    24      0.480254        104.2787125
2018    25      0.51613346      109.685715
2018    26      0.62575075      126.4656125
2018    27      0.62467801      126.2187875
2018    28      0.7271718       138.98335
2018    29      0.79993371      147.4668375
2018    30      0.95351201      165.2066375
2018    31      0.94504872      163.9913625
