####################################################################################################
# Month: 12Dec                                                                                     #
# Station: GAM                                                                                     #
# Frequency: 230 GHz                                                                               #
# Columns are: year    day     segment         tau     Tb (K)                                      #
####################################################################################################
2009    1       0       0.5922469       127.4129
2009    1       1       0.5470343       120.2091
2009    1       2       0.4849382       109.9191
2009    1       3       0.389878        93.21875
2009    1       4       0.3374447       83.47949
2009    1       5       0.278442        71.64553
2009    1       6       0.2147278       57.90576
2009    1       7       0.1631147       45.89098
2009    2       0       0.1377967       39.76834
2009    2       1       0.111311        33.39143
2009    2       2       0.09826821      30.15121
2009    2       3       0.1383589       40.06897
2009    2       4       0.150904        43.12623
2009    2       5       0.1395683       40.4936
2009    2       6       0.1198554       35.72768
2009    2       7       0.1129604       33.97483
2009    3       0       0.1532277       43.66267
2009    3       1       0.205553        55.61108
2009    3       2       0.2336374       61.57421
2009    3       3       0.2319681       61.18118
2009    3       4       0.2764981       70.71608
2009    3       5       0.3108527       77.74951
2009    3       6       0.3550847       86.40613
2009    3       7       0.4366099       101.6122
2009    4       0       0.5157277       115.0617
2009    4       1       0.5780487       124.8261
2009    4       2       0.6103191       129.633
2009    4       3       0.5314862       117.0296
2009    4       4       0.5260648       116.3773
2009    4       5       0.4978155       111.7964
2009    4       6       0.4108991       97.05853
2009    4       7       0.3873866       92.56637
2009    5       0       0.4276604       99.60428
2009    5       1       0.4239782       98.93741
2009    5       2       0.4574342       104.9776
2009    5       3       0.500179        112.3138
2009    5       4       0.6139987       130.4121
2009    5       5       0.5715651       123.7892
2009    5       6       0.5096331       113.606
2009    5       7       0.6715359       136.9257
2009    6       0       0.9018627       165.2949
2009    6       1       0.9198711       168.6131
2009    6       2       1.026351        179.9877
2009    6       3       1.327759        205.0958
2009    6       4       1.72065         229.0725
2009    6       5       1.6865          227.3138
2009    6       6       1.689048        227.9944
2009    6       7       1.546548        219.7536
2009    7       0       1.308851        204.152
2009    7       1       1.085081        185.9387
2009    7       2       1.348254        206.5791
2009    7       3       1.536639        218.8542
2009    7       4       1.322258        205.1535
2009    7       5       0.9801211       175.8395
2009    7       6       0.6408349       134.6936
2009    7       7       0.4955999       112.1356
2009    8       0       0.4849223       109.9945
2009    8       1       0.4364989       101.7213
2009    8       2       0.3738873       90.51481
2009    8       3       0.3580498       87.48273
2009    8       4       0.342784        84.67215
2009    8       5       0.3392348       84.08776
2009    8       6       0.2837042       73.01349
2009    8       7       0.2527198       66.22028
2009    9       0       0.2998159       75.78889
2009    9       1       0.354576        86.74498
2009    9       2       0.3546822       86.66098
2009    9       3       0.3574371       87.13707
2009    9       4       0.3126035       78.57687
2009    9       5       0.2422521       64.05942
2009    9       6       0.1932045       53.36331
2009    9       7       0.1664971       47.22965
2009    10      0       0.1571142       44.94723
2009    10      1       0.1803149       50.25385
2009    10      2       0.1030703       31.46705
2009    10      3       0.107689        32.65936
2009    10      4       0.100318        30.87123
2009    10      5       0.09659101      29.99483
2009    10      6       0.08914541      28.14989
2009    10      7       0.0876718       27.90138
2009    11      0       0.1258516       37.34957
2009    11      1       0.1544892       44.1142
2009    11      2       0.141458        40.99717
2009    11      3       0.1415552       40.78325
2009    11      4       0.1619345       45.7288
2009    11      5       0.1880948       51.86913
2009    11      6       0.1974232       54.03672
2009    11      7       0.2159579       58.05614
2009    12      0       0.2167109       58.16455
2009    12      1       0.2112334       57.03389
2009    12      2       0.2247339       60.24485
2009    12      3       0.2649383       69.1201
2009    12      4       0.3745901       91.04294
2009    12      5       0.526113        117.1653
2009    12      6       0.5812039       125.5341
2009    12      7       0.5921753       126.9533
2009    13      0       0.6155032       130.9381
2009    13      1       0.5869849       127.0602
2009    13      2       0.5089455       114.8962
2009    13      3       0.5053053       114.2839
2009    13      4       0.6520375       136.5499
2009    13      5       0.8167615       157.7527
2009    13      6       0.8283996       159.0287
2009    13      7       0.7189466       145.6229
2009    14      0       0.6887388       141.6552
2009    14      1       0.655913        137.2504
2009    14      2       0.6051303       129.9947
2009    14      3       0.560829        123.3405
2009    14      4       0.6358803       134.3717
2009    14      5       0.7463159       148.901
2009    14      6       0.7014124       142.675
2009    14      7       0.6956679       141.4448
2009    15      0       0.7302664       145.5812
2009    15      1       0.6579603       135.7287
2009    15      2       0.5686992       122.9162
2009    15      3       0.6244957       131.7974
2009    15      4       0.6469786       135.2112
2009    15      5       0.6187627       131.2208
2009    15      6       0.5511282       121.3137
2009    15      7       0.5049544       113.8891
2009    16      0       0.4886681       110.6723
2009    16      1       0.4859428       109.9115
2009    16      2       0.4587616       105.4465
2009    16      3       0.4071062       96.46598
2009    16      4       0.4171612       98.47258
2009    16      5       0.4191516       98.99953
2009    16      6       0.4291906       100.8917
2009    16      7       0.4447694       103.5254
2009    17      0       0.4309674       100.8777
2009    17      1       0.4178368       98.38434
2009    17      2       0.4358228       101.3592
2009    17      3       0.4122457       96.63785
2009    17      4       0.4241257       98.96605
2009    17      5       0.474787        108.194
2009    17      6       0.4878936       110.6227
2009    17      7       0.4920128       111.3797
2009    18      0       0.5698396       123.572
2009    18      1       0.6312832       132.531
2009    18      2       0.5765771       124.4337
2009    18      3       0.5432055       119.0289
2009    18      4       0.5860143       125.8702
2009    18      5       0.6071502       129.4821
2009    18      6       0.552801        121.2098
2009    18      7       0.5477466       120.1534
2009    19      0       0.5699065       123.1124
2009    19      1       0.4908705       110.2883
2009    19      2       0.4797621       108.5833
2009    19      3       0.4813194       108.9395
2009    19      4       0.4830853       109.5638
2009    19      5       0.4910899       111.0184
2009    19      6       0.4533306       104.4954
2009    19      7       0.4537815       104.3242
2009    20      0       0.4761625       108.1848
2009    20      1       0.4346272       101.1451
2009    20      2       0.423404        99.01028
2009    20      3       0.3963556       93.87807
2009    20      4       0.4025877       95.22952
2009    20      5       0.4326672       100.5629
2009    20      6       0.467208        106.3424
2009    20      7       0.5114819       113.7857
2009    21      0       0.5779294       124.1316
2009    21      1       0.5927811       126.3393
2009    21      2       0.5763813       123.8915
2009    21      3       0.6496038       135.4414
2009    21      4       0.7182945       145.1456
2009    21      5       0.7774924       152.6407
2009    21      6       0.7544523       149.3225
2009    21      7       0.7701018       150.8443
2009    22      0       0.7870946       152.7881
2009    22      1       0.7633512       149.9288
2009    22      2       0.7811288       152.3382
2009    22      3       0.7041476       142.5599
2009    22      4       0.7582943       149.7311
2009    22      5       0.8303666       157.8464
2009    22      6       0.8342175       157.7998
2009    22      7       0.8374372       158.0866
2009    23      0       0.6353028       130.5402
2009    23      1       0.5565411       117.3194
2009    23      2       0.6280261       127.7876
2009    23      3       0.6703063       134.9709
2009    23      4       0.5937212       124.6716
2009    23      5       0.5205858       114.0395
2009    23      6       0.4573819       103.5868
2009    23      7       0.4544344       102.5865
2009    24      0       0.4897128       108.4364
2009    24      1       0.5200753       114.2206
2009    24      2       0.5652962       122.2779
2009    24      3       0.6112666       129.6388
2009    24      4       0.720491        145.1605
2009    24      5       0.8899932       165.619
2009    24      6       0.877797        163.8768
2009    24      7       0.8080048       155.5251
2009    25      0       0.8162101       156.2549
2009    25      1       0.7882836       153.1062
2009    25      2       0.7810897       152.6023
2009    25      3       0.7766698       152.1654
2009    25      4       0.8438774       160.2726
2009    25      5       0.8077416       155.9169
2009    25      6       0.6378883       133.024
2009    25      7       0.5730851       123.0255
2009    26      0       0.5063664       112.0476
2009    26      1       0.4593766       103.7303
2009    26      2       0.4278508       98.67538
2009    26      3       0.4327782       99.90571
2009    26      4       0.3769915       90.2442
2009    26      5       0.3391942       83.44542
2009    26      6       0.317922        79.49158
2009    26      7       0.3342692       82.7168
2009    27      0       0.3801729       91.17157
2009    27      1       0.4321151       100.592
2009    27      2       0.4874673       110.6737
2009    27      3       0.5094538       114.5402
2009    27      4       0.6274784       132.8945
2009    27      5       0.7225987       145.5815
2009    27      6       0.6529332       135.3626
2009    27      7       0.6038891       128.071
2009    28      0       0.6827401       139.0768
2009    28      1       0.6402908       133.3666
2009    28      2       0.631254        132.0106
2009    28      3       0.6118595       128.9528
2009    28      4       0.5909132       126.402
2009    28      5       0.5740062       124.0839
2009    28      6       0.6203754       131.1165
2009    28      7       0.6272869       132.0699
2009    29      0       0.5676753       122.3208
2009    29      1       0.5399306       118.0622
2009    29      2       0.5542727       120.9727
2009    29      3       0.5990005       127.9205
2009    29      4       0.5873328       126.4988
2009    29      5       0.7150938       144.3461
2009    29      6       1.000951        176.9197
2009    29      7       1.109201        187.3321
2009    30      0       1.115322        187.695
2009    30      1       0.9679958       174.1608
2009    30      2       0.8686358       163.4693
2009    30      3       0.8286628       158.5879
2009    30      4       0.9027598       167.0185
2009    30      5       1.120425        188.0706
2009    30      6       1.283015        200.9829
2009    30      7       1.247661        198.2791
2009    31      0       1.120165        187.7706
2009    31      1       0.9489515       171.5816
2009    31      2       1.084482        184.644
2009    31      3       1.472713        213.855
2009    31      4       1.87954         235.1469
2009    31      5       1.926471        237.2444
2009    31      6       1.591362        221.1863
2009    31      7       1.40683         209.8808
2010    1       0       0.7627098       150.5181
2010    1       1       0.8921293       165.154
2010    1       2       0.953274        171.3815
2010    1       3       0.9943649       176.1885
2010    1       4       1.271111        200.7731
2010    1       5       1.074274        184.1443
2010    1       6       0.9116736       168.046
2010    1       7       0.8312237       159.0456
2010    2       0       0.7951346       154.4861
2010    2       1       0.7659649       149.9355
2010    2       2       0.6863882       138.8032
2010    2       3       0.6493141       133.1758
2010    2       4       0.6970719       139.3072
2010    2       5       0.7042869       140.2322
2010    2       6       0.698573        139.719
2010    2       7       0.65801         134.5829
2010    3       0       0.6034246       126.9088
2010    3       1       0.5392765       117.1751
2010    3       2       0.4739231       106.5693
2010    3       3       0.4406278       101.0184
2010    3       4       0.4379169       100.9408
2010    3       5       0.4377953       101.2962
2010    3       6       0.4264969       99.47448
2010    3       7       0.463257        106.0211
2010    4       0       0.5021082       112.3458
2010    4       1       0.4901925       110.1544
2010    4       2       0.5026364       112.658
2010    4       3       0.4719076       107.341
2010    4       4       0.4842565       109.7459
2010    4       5       0.4625647       106.2367
2010    4       6       0.4661938       107.1086
2010    4       7       0.5093061       114.5891
2010    5       0       0.5693095       123.8643
2010    5       1       0.6343032       133.4882
2010    5       2       0.5783886       125.1286
2010    5       3       0.4937803       111.2848
2010    5       4       0.54105         119.1262
2010    5       5       0.6608969       136.9439
2010    5       6       0.6308168       132.4536
2010    5       7       0.5886468       126.3357
2010    6       0       0.5547211       121.0659
2010    6       1       0.6110728       130.1076
2010    6       2       0.6250485       132.6593
2010    6       3       0.6010148       129.0054
2010    6       4       0.7295719       146.9432
2010    6       5       0.8818216       165.2316
2010    6       6       0.9638998       173.7823
2010    6       7       1.000172        177.6577
2010    7       0       0.8153983       157.5726
2010    7       1       0.7209899       145.6969
2010    7       2       0.5939103       127.6849
2010    7       3       0.5516011       121.2638
2010    7       4       0.6389731       134.6267
2010    7       5       0.7858844       153.9624
2010    7       6       0.923948        170.072
2010    7       7       0.8807346       165.5189
2010    8       0       0.729368        147.1125
2010    8       1       0.7253547       147.0609
2010    8       2       0.6654344       138.6712
2010    8       3       0.7452319       149.8264
2010    8       4       0.9359974       172.3295
2010    8       5       1.135804        191.396
2010    8       6       1.091884        187.2717
2010    8       7       1.055045        183.8651
2010    9       0       1.082903        186.411
2010    9       1       0.9461676       172.4213
2010    9       2       0.7955238       155.1223
2010    9       3       0.6751213       139.3745
2010    9       4       0.6954923       142.3535
2010    9       5       0.8437557       161.0631
2010    9       6       0.7852419       154.194
2010    9       7       0.7187436       145.6879
2010    10      0       0.8300496       160.113
2010    10      1       0.832099        159.963
2010    10      2       0.8008816       156.2039
2010    10      3       0.7801515       153.6648
2010    10      4       0.9112412       168.9986
2010    10      5       1.218241        198.1003
2010    10      6       1.355595        208.3997
2010    10      7       1.136267        190.7263
2010    11      0       1.12553         189.0318
2010    11      1       1.093762        185.5769
2010    11      2       1.040199        180.5175
2010    11      3       1.015204        178.5389
2010    11      4       0.860268        162.7486
2010    11      5       0.8480598       161.5317
2010    11      6       0.8121048       156.8346
2010    11      7       0.8563577       161.735
2010    12      0       0.8801404       164.2969
2010    12      1       0.849694        160.3836
2010    12      2       0.7816067       152.276
2010    12      3       0.8071476       155.4084
2010    12      4       0.8871155       165.0677
2010    12      5       0.8377024       159.2658
2010    12      6       0.7497241       148.167
2010    12      7       0.7788091       151.8316
2010    13      0       0.8353438       158.4682
2010    13      1       1.013448        177.5648
2010    13      2       1.077272        184.445
2010    13      3       1.062076        183.6047
2010    13      4       1.102303        186.9817
2010    13      5       1.123221        188.3275
2010    13      6       0.988811        175.4408
2010    13      7       0.9409994       170.4798
2010    14      0       1.037878        180.4491
2010    14      1       1.001064        177.0951
2010    14      2       1.012761        178.4786
2010    14      3       1.366664        206.2375
2010    14      4       1.374002        206.6124
2010    14      5       1.083275        183.2558
2010    14      6       1.095476        183.4682
2010    14      7       0.9663805       171.3544
2010    15      0       0.6231521       129.5652
2010    15      1       0.3370151       82.16163
2010    15      2       0.1684238       47.02584
2010    15      3       0.2157649       57.77287
2010    15      4       0.2147607       57.60423
2010    15      5       0.1842394       50.83743
2010    15      6       0.106769        32.45027
2010    15      7       0.07366056      24.0364
2010    16      0       0.08191758      26.05016
2010    16      1       0.08966523      27.91388
2010    16      2       0.08670488      27.10705
2010    16      3       0.09889554      30.19831
2010    16      4       0.1280914       37.42045
2010    16      5       0.1593836       44.71927
2010    16      6       0.1366902       39.13402
2010    16      7       0.1238503       35.76424
2010    17      0       0.1419062       39.95749
2010    17      1       0.1813494       49.20822
2010    17      2       0.1746496       47.80682
2010    17      3       0.178995        48.9928
2010    17      4       0.2028807       54.59313
2010    17      5       0.2387858       62.59021
2010    17      6       0.2405922       62.97136
2010    17      7       0.344619        84.01618
2010    18      0       0.4759656       107.5569
2010    18      1       0.5192038       115.0451
2010    18      2       0.4736273       107.8519
2010    18      3       0.4246301       99.37492
2010    18      4       0.4086919       96.6257
2010    18      5       0.3671749       89.11826
2010    18      6       0.281564        72.29751
2010    18      7       0.2170716       58.48358
2010    19      0       0.2037723       55.55175
2010    19      1       0.2234082       59.95874
2010    19      2       0.2278266       60.88636
2010    19      3       0.2411865       63.65419
2010    19      4       0.2375215       62.88626
2010    19      5       0.1931617       53.05784
2010    19      6       0.1599315       45.34273
2010    19      7       0.1756263       48.96221
2010    20      0       0.2175007       58.3305
2010    20      1       0.2397357       63.20132
2010    20      2       0.2381496       63.07456
2010    20      3       0.2589668       67.68999
2010    20      4       0.2696481       70.15539
2010    20      5       0.2748605       71.23772
2010    20      6       0.3129581       79.26169
2010    20      7       0.3306841       82.49096
2010    21      0       0.3727311       90.48878
2010    21      1       0.4033867       96.12136
2010    21      2       0.3691402       89.79907
2010    21      3       0.3522698       86.88881
2010    21      4       0.3942071       94.92445
2010    21      5       0.4010181       95.85826
2010    21      6       0.3859069       92.79722
2010    21      7       0.4102351       96.82922
2010    22      0       0.4078285       96.08211
2010    22      1       0.3733988       89.64333
2010    22      2       0.322637        80.20889
2010    22      3       0.2911346       74.2235
2010    22      4       0.3088169       77.91157
2010    22      5       0.3131007       78.72595
2010    22      6       0.3072986       77.54688
2010    22      7       0.3331376       82.65347
2010    23      0       0.3600953       87.72669
2010    23      1       0.3545188       86.2539
2010    23      2       0.3316087       81.58605
2010    23      3       0.353682        86.0427
2010    23      4       0.3743986       90.21685
2010    23      5       0.3871765       92.89327
2010    23      6       0.3887612       93.5823
2010    23      7       0.380698        92.02485
2010    24      0       0.4179235       98.54161
2010    24      1       0.4223222       99.15057
2010    24      2       0.4202674       98.89831
2010    24      3       0.4151607       97.96639
2010    24      4       0.4012863       95.59634
2010    24      5       0.3889714       93.50127
2010    24      6       0.3712272       90.36686
2010    24      7       0.3866465       93.30488
2010    25      0       0.3994726       95.41138
2010    25      1       0.3512201       86.03163
2010    25      2       0.3447615       84.67088
2010    25      3       0.3747252       90.31738
2010    25      4       0.3687182       89.54042
2010    25      5       0.3686255       89.54761
2010    25      6       0.3717543       90.09654
2010    25      7       0.3803208       91.52335
2010    26      0       0.368659        89.34901
2010    26      1       0.3379247       83.51579
2010    26      2       0.3481708       85.56931
2010    26      3       0.3824989       92.15165
2010    26      4       0.4396916       102.8739
2010    26      5       0.5146817       115.6253
2010    26      6       0.5822016       126.1939
2010    26      7       0.6935944       142.2464
2010    27      0       0.8111101       158.0912
2010    27      1       0.8299487       161.0018
2010    27      2       0.7171814       146.7082
2010    27      3       0.7041289       144.9583
2010    27      4       0.8865023       166.9035
2010    27      5       1.044232        182.957
2010    27      6       1.009327        179.227
2010    27      7       0.8838598       165.6435
2010    28      0       0.8682421       163.1667
2010    28      1       0.8106491       156.4017
2010    28      2       0.8136855       156.9859
2010    28      3       0.8227016       158.476
2010    28      4       0.9961641       177.4119
2010    28      5       1.242596        199.6585
2010    28      6       1.383611        210.1249
2010    28      7       1.363671        207.8139
2010    29      0       0.956389        172.4799
2010    29      1       0.6854698       140.8676
2010    29      2       0.5203362       115.7454
2010    29      3       0.6830845       139.9381
2010    29      4       1.047079        181.5424
2010    29      5       1.409962        210.8251
2010    29      6       1.363528        207.9531
2010    29      7       1.273561        201.8224
2010    30      0       1.278075        202.2974
2010    30      1       1.079015        185.7099
2010    30      2       0.9829124       176.1847
2010    30      3       1.182843        194.3242
2010    30      4       1.509664        217.5049
2010    30      5       1.820364        233.5302
2010    30      6       1.614893        222.9114
2010    30      7       1.367372        207.9726
2010    31      0       1.301518        203.012
2010    31      1       1.29558         202.1889
2010    31      2       1.363817        206.4703
2010    31      3       1.668152        225.2456
2010    31      4       1.931151        238.1111
2010    31      5       1.958665        240.0236
2010    31      6       1.756118        230.7299
2010    31      7       1.411365        211.0656
2011    1       0       0.5244182       115.6356
2011    1       1       0.4229864       98.85973
2011    1       2       0.3319638       82.19145
2011    1       3       0.3006476       75.96824
2011    1       4       0.3784824       91.05524
2011    1       5       0.4708148       107.1801
2011    1       6       0.4220977       98.75954
2011    1       7       0.3826227       91.68455
2011    2       0       0.3900805       93.14826
2011    2       1       0.4492027       103.7828
2011    2       2       0.4853111       110.0676
2011    2       3       0.3857968       92.6071
2011    2       4       0.3691566       89.60691
2011    2       5       0.3542748       86.6367
2011    2       6       0.3590747       87.60885
2011    2       7       0.4057807       96.06231
2011    3       0       0.40431         95.65088
2011    3       1       0.3660037       88.70215
2011    3       2       0.371875        89.83987
2011    3       3       0.3872527       92.78282
2011    3       4       0.411501        97.47764
2011    3       5       0.5017038       112.9221
2011    3       6       0.5759356       124.3577
2011    3       7       0.6585229       136.1418
2011    4       0       0.7380736       147.446
2011    4       1       0.9113789       168.0776
2011    4       2       1.203519        195.1135
2011    4       3       1.198879        194.7433
2011    4       4       1.450657        213.7353
2011    4       5       1.476625        215.5656
2011    4       6       1.578677        221.3936
2011    4       7       1.439341        212.7254
2011    5       0       1.416049        211.1385
2011    5       1       1.479507        215.0401
2011    5       2       1.404751        210.2672
2011    5       3       1.675926        226.5293
2011    5       4       1.907148        237.3337
2011    5       5       1.883235        236.4154
2011    5       6       1.734578        229.6956
2011    5       7       1.476068        215.2208
2011    6       0       1.303702        203.0748
2011    6       1       1.122979        188.2924
2011    6       2       1.105518        186.5843
2011    6       3       1.254768        199.1488
2011    6       4       1.792097        231.3958
2011    6       5       1.908276        236.4687
2011    6       6       1.839061        233.6125
2011    6       7       1.576141        220.2237
2011    7       0       1.602474        222.0069
2011    7       1       1.596384        221.915
2011    7       2       1.601443        222.5911
2011    7       3       1.676833        226.5962
2011    7       4       1.725515        228.9053
2011    7       5       1.702376        227.8427
2011    7       6       1.487779        216.2554
2011    7       7       1.103473        187.5102
2011    8       0       0.9332881       170.8894
2011    8       1       0.8391349       160.4258
2011    8       2       0.8040888       156.1898
2011    8       3       1.055956        183.3659
2011    8       4       1.252633        199.9
2011    8       5       1.3331          205.4408
2011    8       6       1.257304        200.134
2011    8       7       0.9173755       169.2958
2011    9       0       0.7160054       145.1464
2011    9       1       0.655419        136.6657
2011    9       2       0.5215549       116.5134
2011    9       3       0.4687954       107.7497
2011    9       4       0.4968577       112.3935
2011    9       5       0.4703446       107.49
2011    9       6       0.3676924       88.9476
2011    9       7       0.3564449       86.75545
2011    10      0       0.3809669       91.1362
2011    10      1       0.3485731       85.17626
2011    10      2       0.3020076       76.11282
2011    10      3       0.2853723       72.58417
2011    10      4       0.3184427       79.15429
2011    10      5       0.2991945       75.14696
2011    10      6       0.2388344       62.5724
2011    10      7       0.2115046       56.61864
2011    11      0       0.2315896       60.87217
2011    11      1       0.2538695       65.95898
2011    11      2       0.2763307       71.03954
2011    11      3       0.2940147       74.81828
2011    11      4       0.3862467       92.59569
2011    11      5       0.4353021       101.0842
2011    11      6       0.3841527       91.69395
2011    11      7       0.3462486       84.74075
2011    12      0       0.3879853       92.49931
2011    12      1       0.4158798       97.64672
2011    12      2       0.4276987       99.92428
2011    12      3       0.4357807       101.4437
2011    12      4       0.3466177       84.92293
2011    12      5       0.2551797       66.45333
2011    12      6       0.2440199       64.20093
2011    12      7       0.3209767       80.17365
2011    13      0       0.3665339       88.87016
2011    13      1       0.395853        94.17026
2011    13      2       0.4387855       101.6582
2011    13      3       0.368591        88.57247
2011    13      4       0.3508956       85.35254
2011    13      5       0.2477181       64.65982
2011    13      6       0.1529272       43.33788
2011    13      7       0.1218649       35.71468
2011    14      0       0.1283138       37.08252
2011    14      1       0.1633029       45.07983
2011    14      2       0.1829894       49.54732
2011    14      3       0.1677662       46.41179
2011    14      4       0.1440518       41.12525
2011    14      5       0.1221968       36.01263
2011    14      6       0.08755792      27.48293
2011    14      7       0.06610668      21.9009
2011    15      0       0.07077994      23.00822
2011    15      1       0.07839397      24.946
2011    15      2       0.0945704       29.08936
2011    15      3       0.1389204       39.97271
2011    15      4       0.1561787       44.13704
2011    15      5       0.1466131       41.99049
2011    15      6       0.1345853       39.17051
2011    15      7       0.1566728       44.4472
2011    16      0       0.1897612       52.02992
2011    16      1       0.3006007       76.19924
2011    16      2       0.2334263       61.79067
2011    16      3       0.3487379       85.87828
2011    16      4       0.2775515       71.3605
2011    16      5       0.2889051       73.7426
2011    16      6       0.3018849       76.31628
2011    16      7       0.3081637       77.53042
2011    17      0       0.3186173       79.59789
2011    17      1       0.3452306       84.90495
2011    17      2       0.4045683       96.49211
2011    17      3       0.4933606       112.3708
2011    17      4       0.7570049       151.3158
2011    17      5       1.040912        182.272
2011    17      6       1.314712        204.7909
2011    17      7       1.303233        205.0709
2011    18      0       1.471766        216.6918
2011    18      1       1.36756         208.9664
2011    18      2       1.044284        182.1856
2011    18      3       1.155901        191.5362
2011    18      4       1.230841        197.4114
2011    18      5       0.9872092       175.8858
2011    18      6       0.9465361       171.9016
2011    18      7       0.9838947       175.5555
2011    19      0       0.9486449       172.0884
2011    19      1       0.8305407       159.1751
2011    19      2       0.6965897       142.4024
2011    19      3       0.6791507       140.1688
2011    19      4       0.7158029       145.0449
2011    19      5       0.7211756       145.6298
2011    19      6       0.707123        143.5556
2011    19      7       0.6966708       141.9311
2011    20      0       0.7283361       146.0374
2011    20      1       0.7725924       151.5144
2011    20      2       0.7197174       144.5508
2011    20      3       0.7807309       152.6683
2011    20      4       0.9326144       170.0986
2011    20      5       1.074226        183.943
2011    20      6       1.183621        194.1901
2011    20      7       1.123012        188.4085
2011    21      0       1.031384        179.3152
2011    21      1       0.9817182       174.0672
2011    21      2       1.032968        178.4521
2011    21      3       1.020722        177.5667
2011    21      4       1.081806        183.4499
2011    21      5       1.142337        188.8961
2011    21      6       1.093131        184.5356
2011    21      7       1.024399        178.2546
2011    22      0       1.041855        179.7912
2011    22      1       1.033043        179.0269
2011    22      2       0.8542253       160.0726
2011    22      3       0.7748273       150.6104
2011    22      4       0.6893056       140.0899
2011    22      5       0.5927662       126.6611
2011    22      6       0.5343134       117.904
2011    22      7       0.4959701       111.7101
2011    23      0       0.4445715       102.8915
2011    23      1       0.3920341       93.62566
2011    23      2       0.3884254       93.25903
2011    23      3       0.4382624       102.2629
2011    23      4       0.483867        110.1749
2011    23      5       0.5343883       118.4654
2011    23      6       0.5212735       116.2231
2011    23      7       0.5172502       115.6311
2011    24      0       0.5158992       115.2153
2011    24      1       0.471944        108.0992
2011    24      2       0.4587217       106.1244
2011    24      3       0.4837079       110.5071
2011    24      4       0.517517        116.3909
2011    24      5       0.5242107       117.212
2011    24      6       0.5090355       114.4507
2011    24      7       0.6277458       132.309
2011    25      0       0.7120707       143.6484
2011    25      1       0.6816898       139.3826
2011    25      2       0.5474268       119.9769
2011    25      3       0.5216367       116.2132
2011    25      4       0.6998582       142.9471
2011    25      5       0.9827524       175.7259
2011    25      6       0.9388345       170.4579
2011    25      7       0.8136624       156.1948
2011    26      0       0.69316         140.879
2011    26      1       0.5906789       126.2929
2011    26      2       0.5807888       124.4909
2011    26      3       0.7368437       147.0312
2011    26      4       0.8842705       165.3437
2011    26      5       0.9152595       168.6913
2011    26      6       0.8585018       162.0532
2011    26      7       0.8596428       161.8259
2011    27      0       0.7751141       151.3998
2011    27      1       0.6348961       132.7897
2011    27      2       0.550067        120.2469
2011    27      3       0.4915229       110.8688
2011    27      4       0.431973        101.0493
2011    27      5       0.3800568       91.77208
2011    27      6       0.3617061       88.3867
2011    27      7       0.3509264       86.50397
2011    28      0       0.2947305       75.30498
2011    28      1       0.2158216       58.36261
2011    28      2       0.1673816       47.40124
2011    28      3       0.160664        45.86064
2011    28      4       0.1408564       41.01456
2011    28      5       0.1174064       35.2599
2011    28      6       0.1120362       33.92337
2011    28      7       0.1422705       41.37141
2011    29      0       0.1585241       45.34393
2011    29      1       0.1507042       43.48982
2011    29      2       0.1553562       44.56537
2011    29      3       0.1868473       51.91494
2011    29      4       0.2173274       58.79926
2011    29      5       0.2525468       66.32448
2011    29      6       0.2559003       66.97352
2011    29      7       0.2357093       62.60908
2011    30      0       0.2387757       63.29135
2011    30      1       0.2384997       63.30527
2011    30      2       0.230596        61.57315
2011    30      3       0.251041        65.9891
2011    30      4       0.297183        75.62902
2011    30      5       0.3668859       89.25295
2011    30      6       0.4003381       95.47673
2011    30      7       0.4047643       96.25237
2011    31      0       0.40453         95.90097
2011    31      1       0.3754906       90.56671
2011    31      2       0.3514603       86.14747
2011    31      3       0.375049        90.72801
2011    31      4       0.4016566       95.88783
2011    31      5       0.4294614       100.9295
2011    31      6       0.4248943       100.1896
2011    31      7       0.3870224       93.24908
2012    1       0       0.6244198       129.9166
2012    1       1       0.5083303       112.5891
2012    1       2       0.4930748       110.3382
2012    1       3       0.5619873       121.3766
2012    1       4       0.5742728       123.5156
2012    1       5       0.5223208       115.5338
2012    1       6       0.4794771       108.6892
2012    1       7       0.47282         107.6886
2012    2       0       0.4496232       103.7679
2012    2       1       0.3947543       94.13123
2012    2       2       0.3212497       80.27506
2012    2       3       0.2646148       68.76074
2012    2       4       0.2619361       68.2693
2012    2       5       0.1968335       54.1208
2012    2       6       0.09822671      30.64505
2012    2       7       0.05163813      18.4308
2012    3       0       0.04478622      16.5214
2012    3       1       0.07545214      24.70244
2012    3       2       0.1829566       50.96985
2012    3       3       0.2707354       70.10679
2012    3       4       0.3082231       77.8786
2012    3       5       0.3146504       79.16529
2012    3       6       0.3211058       80.39229
2012    3       7       0.334914        83.10502
2012    4       0       0.4017541       95.8961
2012    4       1       0.714157        145.5081
2012    4       2       0.6103369       129.6316
2012    4       3       0.5773015       124.5191
2012    4       4       0.7288178       147.4976
2012    4       5       0.474661        108.6572
2012    4       6       0.4186127       98.92538
2012    4       7       0.430069        100.7085
2012    5       0       0.6114932       130.6408
2012    5       1       0.5653242       122.7459
2012    5       2       0.6575163       136.8273
2012    5       3       0.6462876       135.2422
2012    5       4       0.6166792       130.4958
2012    5       5       0.5538584       121.2197
2012    5       6       0.4753185       108.3187
2012    5       7       0.4553186       104.4783
2012    6       0       0.4972322       111.3665
2012    6       1       0.6377767       132.9524
2012    6       2       0.7354299       146.3866
2012    6       3       0.6859823       140.2359
2012    6       4       0.6418664       134.473
2012    6       5       0.6242887       131.7178
2012    6       6       0.4812753       109.2792
2012    6       7       0.4582432       104.9276
2012    7       0       0.4915414       110.1531
2012    7       1       0.4598014       105.0609
2012    7       2       0.4734237       107.6131
2012    7       3       0.5425802       119.2791
2012    7       4       0.54666         120.2414
2012    7       5       0.6174127       130.4846
2012    7       6       0.660802        136.442
2012    7       7       0.6751334       138.404
2012    8       0       0.6516691       135.1333
2012    8       1       0.6515778       135.181
2012    8       2       0.6010929       127.9447
2012    8       3       0.623994        131.7101
2012    8       4       0.7711815       151.7396
2012    8       5       0.9499619       172.7963
2012    8       6       0.9823496       175.4514
2012    8       7       0.9003218       166.6615
2012    9       0       0.8550558       161.5052
2012    9       1       0.8153976       157.2897
2012    9       2       0.7479707       148.3682
2012    9       3       0.8498907       160.6564
2012    9       4       0.8052914       155.9033
2012    9       5       0.6922623       141.9683
2012    9       6       0.5677364       124.272
2012    9       7       0.5658998       124.0859
2012    10      0       0.5961396       128.5227
2012    10      1       0.5741103       124.7831
2012    10      2       0.4871036       110.8725
2012    10      3       0.4244666       99.84803
2012    10      4       0.3944674       94.49388
2012    10      5       0.3162136       79.74322
2012    10      6       0.2747788       71.09472
2012    10      7       0.2241495       60.08132
2012    11      0       0.1640767       46.28256
2012    11      1       0.1143321       34.27208
2012    11      2       0.08316231      26.51947
2012    11      3       0.134079        39.20889
2012    11      4       0.1968713       53.62256
2012    11      5       0.2878439       73.01033
2012    11      6       0.4463481       102.632
2012    11      7       0.5353503       116.9042
2012    12      0       0.4749933       106.8915
2012    12      1       0.4608689       104.1139
2012    12      2       0.5194119       113.6473
2012    12      3       0.5522999       118.9527
2012    12      4       0.6492581       133.3972
2012    12      5       0.8030762       153.447
2012    12      6       0.7870636       151.962
2012    12      7       0.6984212       141.2772
2012    13      0       0.7056911       142.4304
2012    13      1       0.5934351       126.8041
2012    13      2       0.3852793       92.01483
2012    13      3       0.3782204       90.50076
2012    13      4       0.4619817       105.4649
2012    13      5       0.5103411       113.9106
2012    13      6       0.5066965       113.7838
2012    13      7       0.4343256       101.4613
2012    14      0       0.3953911       94.26155
2012    14      1       0.3630784       88.1433
2012    14      2       0.3468714       85.0251
2012    14      3       0.4263063       100.124
2012    14      4       0.4164962       98.30701
2012    14      5       0.4017813       95.75639
2012    14      6       0.3725056       90.36445
2012    14      7       0.3606187       87.70138
2012    15      0       0.3819748       91.18957
2012    15      1       0.3730356       89.39108
2012    15      2       0.3486722       85.12649
2012    15      3       0.3490701       85.26545
2012    15      4       0.373738        90.21565
2012    15      5       0.4059438       96.32755
2012    15      6       0.4042635       96.15431
2012    15      7       0.4316933       100.7859
2012    16      0       0.5145888       114.3935
2012    16      1       0.5903313       125.9981
2012    16      2       0.6207633       131.0072
2012    16      3       0.6371402       133.9663
2012    16      4       0.6804464       140.1261
2012    16      5       0.7165333       144.7526
2012    16      6       0.6986383       141.5756
2012    16      7       0.7964171       153.3095
2012    17      0       0.8450011       159.3052
2012    17      1       0.8782854       163.3947
2012    17      2       0.8161287       157.1984
2012    17      3       0.8647537       162.9856
2012    17      4       1.066461        183.9934
2012    17      5       1.255149        200.6143
2012    17      6       1.291859        202.4292
2012    17      7       1.143211        190.1384
2012    18      0       1.055514        182.9192
2012    18      1       1.025712        179.8472
2012    18      2       0.817739        157.1851
2012    18      3       0.7428596       148.047
2012    18      4       0.7707602       152.0065
2012    18      5       0.9041957       167.8103
2012    18      6       1.115455        188.3879
2012    18      7       0.9584818       173.1971
2012    19      0       0.6579453       136.6015
2012    19      1       0.5337957       117.8132
2012    19      2       0.5616897       122.0777
2012    19      3       0.7065258       143.8732
2012    19      4       0.8537404       162.5797
2012    19      5       1.096239        187.577
2012    19      6       1.173135        194.013
2012    19      7       1.01137         179.4166
2012    20      0       0.889863        165.5084
2012    20      1       0.7499648       148.4778
2012    20      2       0.6582523       136.3369
2012    20      3       0.6550374       136.2196
2012    20      4       0.6895224       141.6333
2012    20      5       0.8711134       164.0777
2012    20      6       1.020408        179.8226
2012    20      7       0.8625896       162.7451
2012    21      0       0.7216856       144.8708
2012    21      1       0.6379701       133.0522
2012    21      2       0.6968345       141.8116
2012    21      3       0.7642527       150.7856
2012    21      4       0.8751889       164.2613
2012    21      5       1.032742        180.875
2012    21      6       1.083722        185.6873
2012    21      7       1.142664        190.9764
2012    22      0       1.190371        194.713
2012    22      1       1.018068        179.2686
2012    22      2       0.8337251       159.7469
2012    22      3       0.9305869       170.5821
2012    22      4       1.103339        187.6568
2012    22      5       1.31736         204.9712
2012    22      6       1.277994        202.3288
2012    22      7       1.088564        186.9325
2012    23      0       1.019336        180.4189
2012    23      1       0.9906177       177.2941
2012    23      2       0.9306188       170.8674
2012    23      3       1.017187        179.504
2012    23      4       1.223921        197.8988
2012    23      5       1.371939        209.0543
2012    23      6       1.230967        198.8757
2012    23      7       1.052499        183.5384
2012    24      0       1.032458        181.4339
2012    24      1       0.9363139       171.8001
2012    24      2       0.9030817       168.0364
2012    24      3       1.013959        179.492
2012    24      4       1.389278        210.6149
2012    24      5       1.508699        218.4979
2012    24      6       1.289879        203.9666
2012    24      7       1.179565        195.3103
2012    25      0       1.146205        192.2584
2012    25      1       1.069589        185.2632
2012    25      2       1.067396        185.1117
2012    25      3       1.130404        191.0946
2012    25      4       1.2842          203.7426
2012    25      5       1.182341        195.8944
2012    25      6       0.9564694       174.425
2012    25      7       0.82366         159.2774
2012    26      0       0.7843622       153.9942
2012    26      1       0.7262126       146.4921
2012    26      2       0.6584475       137.581
2012    26      3       0.644009        135.8553
2012    26      4       0.7383479       149.6263
2012    26      5       0.6749314       140.4256
2012    26      6       0.6657683       139.0593
2012    26      7       0.6707254       139.5132
2012    27      0       0.6584873       137.6025
2012    27      1       0.622236        132.3504
2012    27      2       0.6083034       130.1056
2012    27      3       0.6050039       129.5657
2012    27      4       0.5674906       124.5049
2012    27      5       0.5003421       113.7397
2012    27      6       0.5328468       119.1609
2012    27      7       0.507672        114.3078
2012    28      0       0.4874931       110.4589
2012    28      1       0.4260851       99.64889
2012    28      2       0.402612        95.7036
2012    28      3       0.4654704       107.4259
2012    28      4       0.5123761       115.8652
2012    28      5       0.5932101       128.6545
2012    28      6       0.6776802       140.4727
2012    28      7       0.7199816       146.1286
2012    29      0       0.7037658       144.4725
2012    29      1       0.644074        136.1101
2012    29      2       0.5850153       127.3367
2012    29      3       0.6417333       135.9461
2012    29      4       0.8103603       158.0132
2012    29      5       1.0754          185.5106
2012    29      6       1.252346        200.1775
2012    29      7       1.127085        189.7214
2012    30      0       1.032724        180.2566
2012    30      1       1.015708        178.5955
2012    30      2       0.8949136       166.792
2012    30      3       0.9343644       170.6256
2012    30      4       1.267486        200.1427
2012    30      5       1.417949        211.9003
2012    30      6       1.291642        202.9147
2012    30      7       1.30352         203.3428
2012    31      0       1.183587        193.2984
2012    31      1       0.9948983       176.1018
2012    31      2       0.9025218       166.7437
2012    31      3       0.9274578       169.7846
2012    31      4       1.12256         189.5515
2012    31      5       1.29366         203.8065
2012    31      6       1.198171        196.5002
2012    31      7       1.187983        195.9941
2013    1       0       0.4472208       101.9846
2013    1       1       0.4331052       99.33044
2013    1       2       0.5922573       124.0656
2013    1       3       0.9443047       169.2524
2013    1       4       1.455038        210.9141
2013    1       5       1.31817         201.6321
2013    1       6       1.132832        186.2054
2013    1       7       0.9608712       170.1578
2013    2       0       0.7802878       150.3449
2013    2       1       0.718323        142.592
2013    2       2       0.7676186       148.0638
2013    2       3       0.9143924       164.5491
2013    2       4       0.8317499       156.845
2013    2       5       1.000197        175.7019
2013    2       6       0.7767796       151.747
2013    2       7       0.4389845       102.1635
2013    3       0       0.4421947       102.6952
2013    3       1       0.4713431       107.5618
2013    3       2       0.428561        100.3895
2013    3       3       0.395247        94.43447
2013    3       4       0.4748229       108.433
2013    3       5       0.4785252       109.1657
2013    3       6       0.3891989       93.46814
2013    3       7       0.3655321       89.04256
2013    4       0       0.4684594       107.6306
2013    4       1       0.5396151       119.2108
2013    4       2       0.4904442       111.1302
2013    4       3       0.3558719       86.73341
2013    4       4       0.4160488       97.7533
2013    4       5       0.5661926       122.6578
2013    4       6       0.5521173       119.684
2013    4       7       0.5539379       120.0138
2013    5       0       0.540291        117.6439
2013    5       1       0.5606919       121.0554
2013    5       2       0.5473007       119.2119
2013    5       3       0.4614227       104.7448
2013    5       4       0.4626709       105.014
2013    5       5       0.4856624       109.0259
2013    5       6       0.5371564       116.8032
2013    5       7       0.6485518       133.7695
2013    6       0       0.7032061       141.8977
2013    6       1       0.8233344       157.6241
2013    6       2       0.7490931       148.7225
2013    6       3       0.7732117       151.7089
2013    6       4       1.079748        185.0597
2013    6       5       1.274041        201.2437
2013    6       6       1.341091        205.5054
2013    6       7       1.318334        203.1008
2013    7       0       1.177681        192.7822
2013    7       1       1.277115        200.118
2013    7       2       0.982129        174.2231
2013    7       3       0.9708293       172.9337
2013    7       4       1.018692        177.9792
2013    7       5       1.428762        211.184
2013    7       6       1.576521        220.7526
2013    7       7       1.32408         204.865
2013    8       0       1.639741        224.3639
2013    8       1       1.635702        223.999
2013    8       2       1.502384        215.4859
2013    8       3       1.719825        227.8781
2013    8       4       1.641109        224.4435
2013    8       5       1.635722        223.8065
2013    8       6       1.620651        223.386
2013    8       7       1.270333        200.7341
2013    9       0       1.051348        182.0099
2013    9       1       0.9780896       174.8769
2013    9       2       0.9470162       171.5957
2013    9       3       1.138015        190.1466
2013    9       4       1.543546        218.6025
2013    9       5       1.553835        218.9929
2013    9       6       1.034409        180.5888
2013    9       7       0.8610076       162.4007
2013    10      0       0.6785585       139.316
2013    10      1       0.5379947       118.6302
2013    10      2       0.4237337       99.23742
2013    10      3       0.478306        108.513
2013    10      4       0.5293485       116.9622
2013    10      5       0.500319        112.5799
2013    10      6       0.4247748       99.86191
2013    10      7       0.420722        99.02709
2013    11      0       0.4576426       105.1418
2013    11      1       0.4241754       99.3178
2013    11      2       0.4374999       101.6784
2013    11      3       0.4122473       97.19546
2013    11      4       0.4354527       101.5523
2013    11      5       0.4955093       111.9767
2013    11      6       0.4652699       107.1643
2013    11      7       0.4636357       106.8101
2013    12      0       0.5055651       113.4966
2013    12      1       0.5121882       114.3334
2013    12      2       0.4768197       108.4376
2013    12      3       0.4207425       98.80587
2013    12      4       0.444652        103.3755
2013    12      5       0.4753285       108.9114
2013    12      6       0.4439075       103.55
2013    12      7       0.481437        109.6025
2013    13      0       0.5018384       112.7202
2013    13      1       0.4817455       109.0915
2013    13      2       0.4507761       103.6713
2013    13      3       0.4023226       95.08362
2013    13      4       0.4042018       95.7505
2013    13      5       0.5712108       124.7122
2013    13      6       0.3886137       93.40478
2013    13      7       0.4338933       101.4469
2013    14      0       0.4417367       102.6543
2013    14      1       0.3942419       94.1906
2013    14      2       0.3611577       87.75524
2013    14      3       0.3656687       88.28099
2013    14      4       0.3921406       93.44413
2013    14      5       0.4200255       98.73209
2013    14      6       0.4113881       97.34333
2013    14      7       0.4229485       99.32939
2013    15      0       0.4648867       106.4068
2013    15      1       0.4888099       110.3159
2013    15      2       0.4501252       103.7693
2013    15      3       0.3862581       92.22128
2013    15      4       0.3780124       90.88104
2013    15      5       0.352675        86.21376
2013    15      6       0.3104402       78.12297
2013    15      7       0.2767361       71.16391
2013    16      0       0.2629889       67.9539
2013    16      1       0.2597505       67.18761
2013    16      2       0.248061        64.69394
2013    16      3       0.249549        65.15339
2013    16      4       0.2533273       66.13795
2013    16      5       0.2474771       65.03555
2013    16      6       0.1870258       51.60502
2013    16      7       0.1626368       45.89651
2013    17      0       0.1833044       50.59858
2013    17      1       0.1916592       52.50834
2013    17      2       0.1912047       52.43661
2013    17      3       0.1875756       51.58616
2013    17      4       0.1801195       49.99854
2013    17      5       0.1820018       50.49038
2013    17      6       0.1729464       48.25623
2013    17      7       0.2386142       62.75157
2013    18      0       0.3582402       86.52907
2013    18      1       0.4090106       95.67502
2013    18      2       0.4115179       96.15264
2013    18      3       0.4244691       98.79266
2013    18      4       0.4425579       102.5361
2013    18      5       0.5012304       112.6501
2013    18      6       0.6094591       129.2922
2013    18      7       0.6482713       134.9619
2013    19      0       0.6811834       139.7135
2013    19      1       0.7771357       152.4366
2013    19      2       0.8265357       158.4784
2013    19      3       0.9514437       172.2007
2013    19      4       1.159892        192.3215
2013    19      5       1.374356        209.1698
2013    19      6       1.319615        205.4034
2013    19      7       1.038984        182.1789
2013    20      0       0.8854496       166.4325
2013    20      1       0.8659236       164.0189
2013    20      2       0.9129288       168.7508
2013    20      3       1.20399         196.0313
2013    20      4       1.687624        226.9867
2013    20      5       1.804269        232.3533
2013    20      6       1.577122        221.2163
2013    20      7       1.306506        203.8542
2013    21      0       1.142588        190.5493
2013    21      1       1.108518        186.9896
2013    21      2       0.9793662       174.6096
2013    21      3       1.050848        181.5984
2013    21      4       1.252285        198.5906
2013    21      5       1.542106        217.8101
2013    21      6       1.367674        207.1641
2013    21      7       1.128806        188.2622
2013    22      0       1.13283         188.1543
2013    22      1       1.132915        188.1934
2013    22      2       1.316404        203.3498
2013    22      3       1.901665        236.7027
2013    22      4       2.033922        241.9222
2013    22      5       1.965531        239.0808
2013    22      6       1.646569        225.0836
2013    22      7       1.364616        207.4294
2013    23      0       1.257635        199.57
2013    23      1       1.18836         194.4641
2013    23      2       1.190902        194.6406
2013    23      3       1.498506        216.8101
2013    23      4       2.005425        241.5448
2013    23      5       2.111958        246.2024
2013    23      6       2.274344        251.7617
2013    23      7       2.063648        244.4897
2013    24      0       1.747603        230.7248
2013    24      1       1.614451        223.9083
2013    24      2       1.275914        201.8345
2013    24      3       1.373738        209.3963
2013    24      4       1.547629        220.6087
2013    24      5       1.602436        223.6661
2013    24      6       1.255639        201.1292
2013    24      7       0.8624051       164.0898
2013    25      0       0.7640204       152.4171
2013    25      1       0.8195502       159.042
2013    25      2       0.6738585       140.1318
2013    25      3       0.834014        160.8085
2013    25      4       1.228685        198.9359
2013    25      5       1.514584        218.3808
2013    25      6       1.436029        213.8175
2013    25      7       1.054686        184.0715
2013    26      0       0.7367886       148.4381
2013    26      1       0.6862072       141.5687
2013    26      2       0.5546456       122.4052
2013    26      3       0.5399696       120.0884
2013    26      4       0.5940913       128.4033
2013    26      5       0.7252916       147.1396
2013    26      6       0.5710133       124.3685
2013    26      7       0.4889299       111.1185
2013    27      0       0.4389348       102.1984
2013    27      1       0.3982042       94.67709
2013    27      2       0.3975291       94.65857
2013    27      3       0.3604985       87.73972
2013    27      4       0.3567402       87.09997
2013    27      5       0.3600187       87.58119
2013    27      6       0.3253445       80.57011
2013    27      7       0.3256664       80.5073
2013    28      0       0.3517704       85.45553
2013    28      1       0.3587084       86.89298
2013    28      2       0.3475356       85.22516
2013    28      3       0.3882388       93.46748
2013    28      4       0.4346476       102.0844
2013    28      5       0.4575474       106.1499
2013    28      6       0.5122523       115.6548
2013    28      7       0.4483092       104.0528
2013    29      0       0.4764198       108.9117
2013    29      1       0.4607342       106.4446
2013    29      2       0.4425748       103.2886
2013    29      3       0.525137        117.2531
2013    29      4       0.6026608       129.3069
2013    29      5       0.7325478       147.5242
2013    29      6       0.597751        127.9113
2013    29      7       0.5278548       117.1379
2013    30      0       0.4843042       109.7241
2013    30      1       0.4334417       100.9254
2013    30      2       0.3887027       92.89669
2013    30      3       0.3944503       94.2789
2013    30      4       0.409354        97.08553
2013    30      5       0.4599888       105.906
2013    30      6       0.5239853       116.603
2013    30      7       0.5447576       119.8155
2013    31      0       0.5238136       116.4083
2013    31      1       0.5249708       116.6576
2013    31      2       0.4849964       110.2552
2013    31      3       0.4845891       110.3442
2013    31      4       0.517518        115.9701
2013    31      5       0.5716281       124.3447
2013    31      6       0.6388696       134.0148
2013    31      7       0.6953127       141.6505
2014    1       0       0.4124644       95.54298
2014    1       1       0.4035588       93.98523
2014    1       2       0.4428299       101.7046
2014    1       3       0.5216023       115.6779
2014    1       4       0.6759624       138.8009
2014    1       5       0.8812053       163.1745
2014    1       6       0.7326526       144.9109
2014    1       7       0.5125968       113.5977
2014    2       0       0.5017971       111.8557
2014    2       1       0.5074148       112.6966
2014    2       2       0.4714032       107.0368
2014    2       3       0.5485818       119.9496
2014    2       4       0.6956232       141.2903
2014    2       5       0.8238634       157.6628
2014    2       6       0.7017073       141.7716
2014    2       7       0.7396299       146.7197
2014    3       0       0.8261767       157.4247
2014    3       1       0.8430711       159.8384
2014    3       2       0.7053015       142.5987
2014    3       3       0.5696163       123.2564
2014    3       4       0.5888481       126.4324
2014    3       5       0.6878072       140.4955
2014    3       6       0.6020872       128.1545
2014    3       7       0.6051458       128.4609
2014    4       0       0.7408099       146.9829
2014    4       1       0.7812049       152.0205
2014    4       2       0.6693985       137.4428
2014    4       3       0.6389349       132.2719
2014    4       4       0.7010182       141.396
2014    4       5       0.7615008       149.4956
2014    4       6       0.6822992       139.0197
2014    4       7       0.6670366       136.9453
2014    5       0       0.7182409       143.7266
2014    5       1       0.7072414       142.0599
2014    5       2       0.6409421       132.9301
2014    5       3       0.5932476       126.132
2014    5       4       0.5853276       125.2702
2014    5       5       0.6896232       140.0316
2014    5       6       0.7678036       150.0373
2014    5       7       0.7678002       150.2418
2014    6       0       0.8217953       156.8365
2014    6       1       0.7948633       153.2689
2014    6       2       0.8248145       156.649
2014    6       3       1.036049        178.8714
2014    6       4       1.144648        189.0908
2014    6       5       1.106678        186.1363
2014    6       6       1.11619         187.3668
2014    6       7       1.041268        180.7227
2014    7       0       0.8944945       166.176
2014    7       1       0.85697         161.7627
2014    7       2       0.8715199       163.192
2014    7       3       1.015472        178.37
2014    7       4       1.404247        210.261
2014    7       5       1.463053        214.376
2014    7       6       1.242095        199.1428
2014    7       7       1.038559        180.8785
2014    8       0       1.013413        178.3085
2014    8       1       0.7494136       149.0782
2014    8       2       0.6933279       141.8499
2014    8       3       0.5517098       120.896
2014    8       4       0.6268492       133.0843
2014    8       5       0.4110901       97.3544
2014    8       6       0.3525428       86.62239
2014    8       7       0.345923        85.4524
2014    9       0       0.3673149       89.5715
2014    9       1       0.3685041       89.8413
2014    9       2       0.3744238       90.9839
2014    9       3       0.4040682       96.07773
2014    9       4       0.4700222       107.6879
2014    9       5       0.3972759       94.77114
2014    9       6       0.33144         82.22187
2014    9       7       0.368565        89.22953
2014    10      0       0.3903872       93.05192
2014    10      1       0.3896135       93.01467
2014    10      2       0.4294632       100.3464
2014    10      3       0.4569783       105.3387
2014    10      4       0.5199592       116.1258
2014    10      5       0.6850361       140.1122
2014    10      6       0.7560028       149.0952
2014    10      7       0.7791401       151.8969
2014    11      0       0.8483451       160.059
2014    11      1       0.8071985       155.3724
2014    11      2       0.6978847       141.8349
2014    11      3       0.6574604       136.179
2014    11      4       0.7522385       149.1876
2014    11      5       0.7983529       154.893
2014    11      6       0.6309145       132.35
2014    11      7       0.5644623       122.4038
2014    12      0       0.5409709       118.5585
2014    12      1       0.4585565       104.8279
2014    12      2       0.3990008       94.46953
2014    12      3       0.3844776       91.98585
2014    12      4       0.3959723       94.26598
2014    12      5       0.4113922       97.24051
2014    12      6       0.4242541       99.2885
2014    12      7       0.4553544       104.5442
2014    13      0       0.518186        115.5095
2014    13      1       0.5622112       122.8582
2014    13      2       0.5209489       116.5101
2014    13      3       0.5868618       127.0013
2014    13      4       0.7648855       151.4276
2014    13      5       0.9897043       176.3877
2014    13      6       1.057992        182.677
2014    13      7       1.035209        180.5386
2014    14      0       1.14908         190.6878
2014    14      1       1.205838        195.557
2014    14      2       0.9044622       167.2981
2014    14      3       0.8978861       167.3196
2014    14      4       0.8471952       161.0171
2014    14      5       0.7060522       142.9905
2014    14      6       0.461774        105.3901
2014    14      7       0.3435662       83.3484
2014    15      0       0.2887836       72.43424
2014    15      1       0.2512679       64.90642
2014    15      2       0.234103        61.36766
2014    15      3       0.2285469       60.30702
2014    15      4       0.2254499       59.89749
2014    15      5       0.1955033       53.38569
2014    15      6       0.1603337       45.39183
2014    15      7       0.1560656       44.31748
2014    16      0       0.1926534       52.55101
2014    16      1       0.2210731       58.947
2014    16      2       0.2571105       66.84114
2014    16      3       0.3387269       83.59707
2014    16      4       0.5541557       120.6616
2014    16      5       0.6717264       137.465
2014    16      6       0.7521482       148.5867
2014    16      7       0.5766752       124.6354
2014    17      0       0.5017535       112.8307
2014    17      1       0.4355663       101.6778
2014    17      2       0.4142388       97.83608
2014    17      3       0.5427299       119.3371
2014    17      4       0.6906389       140.5137
2014    17      5       0.8223626       157.205
2014    17      6       0.9175985       168.0683
2014    17      7       0.7973686       154.2622
2014    18      0       0.6130392       130.0548
2014    18      1       0.4601389       106.022
2014    18      2       0.3786908       91.46552
2014    18      3       0.4038846       95.79664
2014    18      4       0.4847727       109.6796
2014    18      5       0.5537523       120.7778
2014    18      6       0.548498        119.8971
2014    18      7       0.5767202       124.1527
2014    19      0       0.6780999       138.8842
2014    19      1       0.7108363       143.3193
2014    19      2       0.7072694       142.9362
2014    19      3       0.7805173       152.8009
2014    19      4       0.6847318       140.3781
2014    19      5       0.7150436       144.3885
2014    19      6       0.6376659       133.6733
2014    19      7       0.6732192       137.8529
2014    20      0       0.7224414       144.1054
2014    20      1       0.7165724       143.4284
2014    20      2       0.6850691       139.7123
2014    20      3       0.6820142       139.8398
2014    20      4       0.7921994       154.2384
2014    20      5       0.8042069       155.5823
2014    20      6       0.6289571       132.3195
2014    20      7       0.5769585       124.2842
2014    21      0       0.6317667       132.2351
2014    21      1       0.6147932       129.8099
2014    21      2       0.5916162       126.753
2014    21      3       0.5938588       127.3754
2014    21      4       0.5625809       122.9026
2014    21      5       0.5635835       123.3829
2014    21      6       0.4293475       100.8521
2014    21      7       0.4242848       99.66651
2014    22      0       0.413714        97.05082
2014    22      1       0.334481        82.00116
2014    22      2       0.278834        70.8666
2014    22      3       0.2675405       68.79884
2014    22      4       0.2451472       64.40894
2014    22      5       0.2115925       57.28451
2014    22      6       0.1835783       51.11321
2014    22      7       0.2008563       54.96737
2014    23      0       0.2381725       63.08758
2014    23      1       0.2757655       70.80781
2014    23      2       0.2523203       65.76817
2014    23      3       0.1974181       53.83891
2014    23      4       0.1888099       51.98975
2014    23      5       0.1748377       48.81121
2014    23      6       0.1670203       47.22424
2014    23      7       0.1756795       49.3008
2014    24      0       0.2013599       54.93181
2014    24      1       0.1898014       52.29342
2014    24      2       0.1624538       46.00808
2014    24      3       0.1767372       49.38
2014    24      4       0.1975988       54.21941
2014    24      5       0.2333357       62.12514
2014    24      6       0.2559183       66.84902
2014    24      7       0.31208         77.96731
2014    25      0       0.3913877       93.02718
2014    25      1       0.4994875       112.2879
2014    25      2       0.6004349       129.1357
2014    25      3       0.5747754       125.4308
2014    25      4       0.6529767       137.101
2014    25      5       0.6541824       137.0957
2014    25      6       0.6723295       139.0367
2014    25      7       0.6859729       140.4053
2014    26      0       0.7031311       142.6249
2014    26      1       0.722503        145.3367
2014    26      2       0.7957497       154.9591
2014    26      3       0.7467704       148.8619
2014    26      4       0.7170246       145.1501
2014    26      5       0.5384371       118.7351
2014    26      6       0.3567822       86.62688
2014    26      7       0.2582486       66.60618
2014    27      0       0.2088641       56.05292
2014    27      1       0.1385995       40.12516
2014    27      2       0.0928268       29.00673
2014    27      3       0.1110007       33.73479
2014    27      4       0.1257622       37.39758
2014    27      5       0.176458        49.59507
2014    27      6       0.1673414       47.53006
2014    27      7       0.1468096       42.60103
2014    28      0       0.2400722       63.7003
2014    28      1       0.2995611       76.39189
2014    28      2       0.3465489       85.7735
2014    28      3       0.4136847       98.24768
2014    28      4       0.4630608       106.9717
2014    28      5       0.5033171       113.4756
2014    28      6       0.4727495       108.2929
2014    28      7       0.4595094       105.8909
2014    29      0       0.4541417       104.9356
2014    29      1       0.4392174       102.399
2014    29      2       0.4503853       104.3974
2014    29      3       0.4468161       103.7797
2014    29      4       0.443509        103.3785
2014    29      5       0.4841163       110.3051
2014    29      6       0.458806        105.9813
2014    29      7       0.3871439       93.14894
2014    30      0       0.3475953       85.50788
2014    30      1       0.3187701       79.78336
2014    30      2       0.3003547       76.10117
2014    30      3       0.3120655       78.51922
2014    30      4       0.3368201       83.49774
2014    30      5       0.3915972       93.90855
2014    30      6       0.4417092       102.8966
2014    30      7       0.4452163       103.4395
2014    31      0       0.4562323       105.0691
2014    31      1       0.4490774       103.6863
2014    31      2       0.4565392       104.9342
2014    31      3       0.5109087       114.0512
2014    31      4       0.5898959       126.8415
2014    31      5       0.6441683       135.1139
2014    31      6       0.5277728       117.361
2014    31      7       0.4412593       102.247
2015    1       0       0.8247658       157.0319
2015    1       1       0.7512692       148.0463
2015    1       2       0.7139431       143.0825
2015    1       3       0.6904582       139.2231
2015    1       4       0.7896385       151.6974
2015    1       5       0.9466192       169.2844
2015    1       6       0.7497          146.9108
2015    1       7       0.5983187       126.3638
2015    2       0       0.5972272       126.4516
2015    2       1       0.5665821       122.38
2015    2       2       0.5234365       115.7674
2015    2       3       0.5166641       114.6382
2015    2       4       0.5493015       120.1282
2015    2       5       0.5985045       127.9124
2015    2       6       0.562892        122.85
2015    2       7       0.5699458       123.6948
2015    3       0       0.6112331       129.1806
2015    3       1       0.584214        124.9851
2015    3       2       0.5227249       115.7539
2015    3       3       0.4961703       111.9347
2015    3       4       0.4988931       112.6947
2015    3       5       0.5621303       122.7772
2015    3       6       0.6019792       128.5367
2015    3       7       0.6391523       133.798
2015    4       0       0.7122356       143.6153
2015    4       1       0.7398488       147.4223
2015    4       2       0.8074177       156.4297
2015    4       3       0.7669597       151.7325
2015    4       4       0.834484        160.3447
2015    4       5       0.9267199       170.5071
2015    4       6       0.837111        160.1625
2015    4       7       0.8635318       162.636
2015    5       0       0.9230518       168.5759
2015    5       1       1.025448        179.3488
2015    5       2       0.8711408       163.9695
2015    5       3       0.8081616       156.9649
2015    5       4       0.9103042       169.0217
2015    5       5       1.045015        182.5114
2015    5       6       1.121894        189.4683
2015    5       7       1.325699        206.2784
2015    6       0       1.404969        210.6067
2015    6       1       1.145258        191.3952
2015    6       2       1.109106        188.4945
2015    6       3       1.179705        194.289
2015    6       4       1.434353        212.9328
2015    6       5       1.425949        212.5841
2015    6       6       1.574891        221.4037
2015    6       7       1.455909        213.5102
2015    7       0       1.355304        206.1356
2015    7       1       1.042895        181.1407
2015    7       2       0.9877321       175.6686
2015    7       3       1.358011        206.4276
2015    7       4       1.402066        209.1112
2015    7       5       1.568732        219.8229
2015    7       6       1.633198        223.3397
2015    7       7       1.276446        201.157
2015    8       0       1.105951        187.3138
2015    8       1       1.18818         194.1072
2015    8       2       1.461868        212.7883
2015    8       3       1.496428        214.0401
2015    8       4       1.498501        214.7388
2015    8       5       1.707995        226.7562
2015    8       6       1.32999         204.0203
2015    8       7       1.19043         193.4055
2015    9       0       1.156903        191.1726
2015    9       1       1.033756        180.3324
2015    9       2       1.028903        179.9703
2015    9       3       1.087502        185.6712
2015    9       4       1.117422        189.0282
2015    9       5       1.240487        199.8256
2015    9       6       1.220049        198.4141
2015    9       7       1.051631        183.8746
2015    10      0       1.015095        180.0301
2015    10      1       1.050566        182.9235
2015    10      2       1.101897        187.4715
2015    10      3       1.170854        193.5252
2015    10      4       1.641624        225.371
2015    10      5       1.648831        225.8099
2015    10      6       1.288236        203.2679
2015    10      7       1.209074        196.5381
2015    11      0       1.125758        189.5784
2015    11      1       1.025271        180.978
2015    11      2       0.9459589       172.9595
2015    11      3       1.01882         180.3008
2015    11      4       1.348773        207.7919
2015    11      5       1.174962        194.0314
2015    11      6       0.6746207       138.3872
2015    11      7       0.5164627       114.0808
2015    12      0       0.4921824       109.9893
2015    12      1       0.4345826       100.1045
2015    12      2       0.325025        79.99391
2015    12      3       0.2225784       59.15027
2015    12      4       0.1963896       53.90559
2015    12      5       0.230434        61.748
2015    12      6       0.19287         53.43014
2015    12      7       0.1125246       34.16538
2015    13      0       0.1004052       30.96629
2015    13      1       0.1054771       32.1277
2015    13      2       0.1095888       33.03046
2015    13      3       0.1728695       48.1576
2015    13      4       0.229513        60.6973
2015    13      5       0.2442444       63.90802
2015    13      6       0.2315742       61.06777
2015    13      7       0.1863504       50.77086
2015    14      0       0.1733622       47.63415
2015    14      1       0.1848365       50.11862
2015    14      2       0.1988549       53.26902
2015    14      3       0.255944        66.26447
2015    14      4       0.2779347       70.95614
2015    14      5       0.3034009       76.14507
2015    14      6       0.3150777       78.54998
2015    14      7       0.3179982       79.16918
2015    15      0       0.3216204       79.84351
2015    15      1       0.3170302       78.8583
2015    15      2       0.284795        72.43814
2015    15      3       0.2696768       69.39109
2015    15      4       0.2910769       73.9794
2015    15      5       0.3009347       76.14974
2015    15      6       0.2659894       68.9523
2015    15      7       0.2319051       61.38228
2015    16      0       0.2263797       60.06466
2015    16      1       0.2168775       57.94119
2015    16      2       0.2035021       54.91229
2015    16      3       0.2359864       62.25546
2015    16      4       0.2501015       65.44004
2015    16      5       0.2525824       66.0854
2015    16      6       0.2387513       63.09971
2015    16      7       0.2450725       64.46867
2015    17      0       0.2708384       69.97741
2015    17      1       0.303679        76.62027
2015    17      2       0.3166723       78.98344
2015    17      3       0.3252183       80.90406
2015    17      4       0.3474718       85.5191
2015    17      5       0.4435917       103.2666
2015    17      6       0.5225196       116.1812
2015    17      7       0.5685721       123.0015
2015    18      0       0.6109914       129.876
2015    18      1       0.6915772       141.8031
2015    18      2       0.7127238       144.4773
2015    18      3       0.8209405       158.2763
2015    18      4       1.028635        180.7875
2015    18      5       1.230813        198.9832
2015    18      6       1.20008         196.1672
2015    18      7       1.244159        198.9617
2015    19      0       1.328548        204.6041
2015    19      1       1.118678        187.6889
2015    19      2       1.188997        194.3423
2015    19      3       1.158041        192.7939
2015    19      4       1.215323        196.9898
2015    19      5       1.41026         211.7366
2015    19      6       1.179613        195.1015
2015    19      7       1.128276        189.9606
2015    20      0       1.215443        196.5511
2015    20      1       1.274725        201.0532
2015    20      2       1.081229        185.1955
2015    20      3       0.9189896       168.5551
2015    20      4       0.9292809       170.0934
2015    20      5       0.9674896       174.4606
2015    20      6       0.9689551       174.9554
2015    20      7       0.9648742       174.7984
2015    21      0       0.9686409       174.8052
2015    21      1       0.8344484       159.7191
2015    21      2       0.7751082       152.4355
2015    21      3       0.7432763       148.0403
2015    21      4       0.7888822       153.8823
2015    21      5       0.8684055       163.714
2015    21      6       0.798535        155.7741
2015    21      7       0.7720454       152.1427
2015    22      0       0.7948307       154.49
2015    22      1       0.7377593       147.1517
2015    22      2       0.6743871       138.7161
2015    22      3       0.5877781       126.1319
2015    22      4       0.5757453       124.7742
2015    22      5       0.6376404       134.3776
2015    22      6       0.6392843       134.5069
2015    22      7       0.6454401       135.0574
2015    23      0       0.675199        138.8734
2015    23      1       0.6679404       137.4893
2015    23      2       0.6101025       129.461
2015    23      3       0.5855297       125.8589
2015    23      4       0.6740513       139.1587
2015    23      5       0.8319305       159.3277
2015    23      6       0.9336143       170.1593
2015    23      7       0.8989535       166.138
2015    24      0       0.7972837       153.1535
2015    24      1       0.6727377       136.5951
2015    24      2       0.6599129       134.6076
2015    24      3       0.7235399       144.0107
2015    24      4       0.7192351       144.0046
2015    24      5       0.7989131       154.3457
2015    24      6       0.8584726       161.3016
2015    24      7       0.8490047       160.0663
2015    25      0       0.9271549       167.7708
2015    25      1       1.117705        186.1252
2015    25      2       1.176331        192.212
2015    25      3       1.203096        194.768
2015    25      4       1.373326        207.8388
2015    25      5       1.418468        211.5838
2015    25      6       1.154803        192.3172
2015    25      7       1.15109         192.3288
2015    26      0       1.143533        191.0733
2015    26      1       1.084876        185.3355
2015    26      2       0.9370169       170.9203
2015    26      3       0.9830403       175.5748
2015    26      4       1.369208        208.1763
2015    26      5       1.64609         225.5057
2015    26      6       1.366221        208.5221
2015    26      7       1.321701        205.3452
2015    27      0       1.590052        221.5579
2015    27      1       1.305659        202.8566
2015    27      2       1.36969         207.3877
2015    27      3       1.336055        204.1554
2015    27      4       1.386701        207.082
2015    27      5       1.341464        204.1401
2015    27      6       1.241762        197.0259
2015    27      7       1.194761        193.2669
2015    28      0       1.302365        201.246
2015    28      1       1.260753        198.0853
2015    28      2       1.193602        193.6131
2015    28      3       1.487119        215.1195
2015    28      4       1.731449        228.8565
2015    28      5       1.900209        236.4378
2015    28      6       1.833273        233.908
2015    28      7       1.507961        217.118
2015    29      0       1.396669        209.8261
2015    29      1       1.319786        204.4389
2015    29      2       1.158044        191.6127
2015    29      3       1.11717         187.852
2015    29      4       1.508529        217.2943
2015    29      5       1.75714         230.7661
2015    29      6       1.625841        223.8891
2015    29      7       1.432124        212.45
2015    30      0       1.284625        202.0315
2015    30      1       1.074516        184.2408
2015    30      2       1.039196        180.4257
2015    30      3       1.10901         187.1617
2015    30      4       1.514239        217.6179
2015    30      5       1.911147        237.8396
2015    30      6       1.769377        231.4295
2015    30      7       1.572599        221.2783
2015    31      0       1.319748        204.9287
2015    31      1       1.204387        195.8314
2015    31      2       1.108345        187.2992
2015    31      3       1.229155        197.0772
2015    31      4       1.55513         219.3915
2015    31      5       1.805058        232.4909
2015    31      6       1.678002        226.4544
2015    31      7       1.631444        224.3198
2016    1       0       0.6584385       136.3807
2016    1       1       0.5660649       122.2544
2016    1       2       0.5330291       117.0092
2016    1       3       0.5294719       116.2854
2016    1       4       0.4793615       108.6974
2016    1       5       0.5024845       112.8714
2016    1       6       0.5122856       114.5396
2016    1       7       0.5082801       113.8725
2016    2       0       0.5122147       114.2076
2016    2       1       0.5178766       114.5835
2016    2       2       0.5778532       123.7824
2016    2       3       0.654247        134.8321
2016    2       4       0.6668702       136.9251
2016    2       5       0.6975831       140.8653
2016    2       6       0.658045        135.5095
2016    2       7       0.6053626       127.7215
2016    3       0       0.5635201       120.4904
2016    3       1       0.538165        115.7569
2016    3       2       0.5814348       122.6746
2016    3       3       0.5898665       124.834
2016    3       4       0.7666198       150.4348
2016    3       5       0.9758958       174.2357
2016    3       6       0.9739801       173.5457
2016    3       7       0.9594921       173.0545
2016    4       0       1.047132        181.5724
2016    4       1       1.036566        180.1989
2016    4       2       0.8743471       163.087
2016    4       3       0.7962713       153.6624
2016    4       4       0.8134317       156.3307
2016    4       5       0.9666528       173.4627
2016    4       6       1.037175        180.5099
2016    4       7       0.9673651       173.9333
2016    5       0       0.9907521       176.1965
2016    5       1       0.9981275       177.0208
2016    5       2       1.043018        181.4556
2016    5       3       1.113002        187.8918
2016    5       4       1.277651        201.9077
2016    5       5       1.354201        207.4356
2016    5       6       1.061024        183.4539
2016    5       7       0.988784        175.9199
2016    6       0       0.9438893       170.2662
2016    6       1       0.8873059       163.787
2016    6       2       0.8266652       157.0118
2016    6       3       0.7716644       150.4508
2016    6       4       0.7851942       152.3077
2016    6       5       0.7844179       152.5229
2016    6       6       0.7436713       147.8354
2016    6       7       0.7379782       147.2654
2016    7       0       0.7576612       149.3205
2016    7       1       0.7951026       153.5457
2016    7       2       0.8429752       159.6638
2016    7       3       0.8110775       155.849
2016    7       4       0.88005         164.1388
2016    7       5       1.010662        177.8358
2016    7       6       1.109128        187.2083
2016    7       7       0.9981075       177.1115
2016    8       0       0.9197595       168.9596
2016    8       1       0.9632228       173.3987
2016    8       2       1.033004        180.0997
2016    8       3       1.137629        190.1169
2016    8       4       1.111312        187.8795
2016    8       5       1.075421        184.9937
2016    8       6       0.875281        163.8811
2016    8       7       0.676716        138.9683
2016    9       0       0.5912079       126.5118
2016    9       1       0.5325518       117.4047
2016    9       2       0.4978962       112.0065
2016    9       3       0.4723045       107.8849
2016    9       4       0.4501394       104.2457
2016    9       5       0.4357008       101.745
2016    9       6       0.404214        96.02771
2016    9       7       0.3932084       93.88559
2016    10      0       0.3573949       86.741
2016    10      1       0.3252628       80.40162
2016    10      2       0.2910057       73.5996
2016    10      3       0.2898911       73.59315
2016    10      4       0.3145695       78.68831
2016    10      5       0.345652        84.76414
2016    10      6       0.3340418       82.37104
2016    10      7       0.3308846       81.86504
2016    11      0       0.3539102       86.46194
2016    11      1       0.3872625       92.91877
2016    11      2       0.3930547       94.2627
2016    11      3       0.370086        90.0536
2016    11      4       0.4384213       102.4207
2016    11      5       0.5379418       118.8637
2016    11      6       0.5609928       122.4519
2016    11      7       0.5246837       116.7671
2016    12      0       0.5425189       119.4408
2016    12      1       0.5607726       122.7751
2016    12      2       0.5275616       117.6568
2016    12      3       0.672292        139.455
2016    12      4       0.8434203       161.0273
2016    12      5       0.9950867       177.2639
2016    12      6       0.9420473       171.557
2016    12      7       0.9130773       168.4639
2016    13      0       0.970327        173.5631
2016    13      1       0.6846074       139.2006
2016    13      2       0.5835516       124.886
2016    13      3       0.5245622       116.5595
2016    13      4       0.5399666       119.536
2016    13      5       0.6354896       133.7622
2016    13      6       0.6525284       135.9612
2016    13      7       0.6331295       132.6698
2016    14      0       0.6814238       138.9893
2016    14      1       0.6573287       135.7549
2016    14      2       0.6270904       131.9484
2016    14      3       0.9421467       172.6739
2016    14      4       0.8924923       166.4022
2016    14      5       0.961464        172.9663
2016    14      6       0.970743        173.3716
2016    14      7       0.9931099       175.6243
2016    15      0       0.9688908       172.5111
2016    15      1       0.774037        150.8946
2016    15      2       0.7096356       143.0318
2016    15      3       0.678246        138.9517
2016    15      4       0.7379521       147.3301
2016    15      5       0.7841772       153.1716
2016    15      6       0.7701046       151.52
2016    15      7       0.8549537       161.7476
2016    16      0       0.8792408       164.8675
2016    16      1       0.8152113       157.6321
2016    16      2       0.7590305       151.2537
2016    16      3       0.8058901       157.1423
2016    16      4       1.0491          183.2847
2016    16      5       1.071182        185.4229
2016    16      6       0.8885277       166.6937
2016    16      7       0.741937        149.005
2016    17      0       0.7565108       150.9308
2016    17      1       0.7910089       155.4034
2016    17      2       0.6217235       132.8965
2016    17      3       0.5269027       118.6068
2016    17      4       0.6257636       133.6531
2016    17      5       0.7343357       147.9446
2016    17      6       0.6673113       138.7297
2016    17      7       0.6352074       134.3306
2016    18      0       0.8060409       157.6419
2016    18      1       0.8453988       162.6951
2016    18      2       0.7540565       151.4482
2016    18      3       0.7602387       152.091
2016    18      4       0.8961397       168.093
2016    18      5       1.137927        191.6507
2016    18      6       1.27276         202.3092
2016    18      7       1.27831         202.5728
2016    19      0       1.279791        202.5374
2016    19      1       1.247599        199.7742
2016    19      2       1.089826        186.5968
2016    19      3       1.031679        181.5019
2016    19      4       1.163515        193.8677
2016    19      5       1.451318        215.6788
2016    19      6       1.299203        205.114
2016    19      7       1.108332        189.0815
2016    20      0       1.094679        187.2219
2016    20      1       1.160477        192.7707
2016    20      2       1.052102        182.9753
2016    20      3       1.027896        180.601
2016    20      4       1.168456        193.8652
2016    20      5       1.1757          194.7678
2016    20      6       0.9972957       178.0718
2016    20      7       0.8881641       165.8774
2016    21      0       0.8784896       164.2897
2016    21      1       0.7644069       150.6123
2016    21      2       0.6594026       136.6015
2016    21      3       0.6353626       133.3321
2016    21      4       0.6476615       135.484
2016    21      5       0.7024502       143.4428
2016    21      6       0.7010261       143.4022
2016    21      7       0.6984009       142.7073
2016    22      0       0.7114687       144.0911
2016    22      1       0.6754257       139.0709
2016    22      2       0.5925188       126.9978
2016    22      3       0.5055271       113.1651
2016    22      4       0.5043115       113.1388
2016    22      5       0.5214602       115.9648
2016    22      6       0.5037096       113.0052
2016    22      7       0.5012407       112.5169
2016    23      0       0.5519258       120.5411
2016    23      1       0.5604411       121.9567
2016    23      2       0.5785811       124.6289
2016    23      3       0.5840749       125.2495
2016    23      4       0.5592034       121.5976
2016    23      5       0.4685601       106.3675
2016    23      6       0.4995587       111.0634
2016    23      7       0.551949        118.651
2016    24      0       0.524935        113.6808
2016    24      1       0.501304        109.8437
2016    24      2       0.5439198       116.5078
2016    24      3       0.5580827       119.5682
2016    24      4       0.5369633       116.5121
2016    24      5       0.5820656       123.6465
2016    24      6       0.5466689       118.3921
2016    24      7       0.5422429       117.8859
2016    25      0       0.5893682       125.7953
2016    25      1       0.6275886       132.229
2016    25      2       0.6091667       129.603
2016    25      3       0.6936361       142.3378
2016    25      4       0.7912573       155.1471
2016    25      5       0.8764959       164.8486
2016    25      6       0.7739035       151.9001
2016    25      7       0.6495631       135.2003
2016    26      0       0.5663065       123.0941
2016    26      1       0.5255994       116.9475
2016    26      2       0.4861208       110.9026
2016    26      3       0.5378848       119.7528
2016    26      4       0.5897202       127.8638
2016    26      5       0.6487271       135.6855
2016    26      6       0.6247052       131.2347
2016    26      7       0.5892502       125.7615
2016    27      0       0.5342157       117.3507
2016    27      1       0.4822364       109.1846
2016    27      2       0.4210289       98.90585
2016    27      3       0.3094521       78.04705
2016    27      4       0.244842        64.74139
2016    27      5       0.2126557       57.65289
2016    27      6       0.1784329       49.78092
2016    27      7       0.1759917       48.85969
2016    28      0       0.1669142       46.61733
2016    28      1       0.1236962       36.52749
2016    28      2       0.08487213      26.96963
2016    28      3       0.0730222       23.97387
2016    28      4       0.08427686      26.92159
2016    28      5       0.1095029       33.38445
2016    28      6       0.1159415       34.9867
2016    28      7       0.113368        34.16284
2016    29      0       0.1467321       42.14407
2016    29      1       0.1787209       49.56164
2016    29      2       0.188089        51.72399
2016    29      3       0.2309458       61.4668
2016    29      4       0.2831194       72.5789
2016    29      5       0.3605385       87.69162
2016    29      6       0.3683021       89.02903
2016    29      7       0.3852371       92.12091
2016    30      0       0.5332517       117.725
2016    30      1       0.644029        135.0634
2016    30      2       0.5644929       123.8005
2016    30      3       0.5874821       127.8181
2016    30      4       0.6830624       141.8115
2016    30      5       0.893426        166.9955
2016    30      6       1.049727        182.7016
2016    30      7       1.00145         178.1517
2016    31      0       1.049861        182.7754
2016    31      1       1.071893        184.7354
2016    31      2       0.8095668       157.2457
2016    31      3       0.7564168       150.7757
2016    31      4       0.859164        162.9393
2016    31      5       0.9242787       169.891
2016    31      6       0.8278533       158.901
2016    31      7       0.9385875       171.2919
2017    1       0       0.5087748       111.9067
2017    1       1       0.4305319       98.68531
2017    1       2       0.3311044       80.83928
2017    1       3       0.3317568       80.80593
2017    1       4       0.3405588       82.31972
2017    1       5       0.3494763       84.11695
2017    1       6       0.3410715       82.62628
2017    1       7       0.3117561       77.09256
2017    2       0       0.34368         83.918
2017    2       1       0.4218271       98.62412
2017    2       2       0.4473305       103.2692
2017    2       3       0.4193454       98.2946
2017    2       4       0.4056867       95.8344
2017    2       5       0.3681769       89.01651
2017    2       6       0.3011352       76.13004
2017    2       7       0.2335064       61.84371
2017    3       0       0.2096834       56.49055
2017    3       1       0.2104982       56.56111
2017    3       2       0.2353641       61.79736
2017    3       3       0.2870533       72.51237
2017    3       4       0.3627817       87.25841
2017    3       5       0.4113716       96.43745
2017    3       6       0.4372906       101.3929
2017    3       7       0.4409276       101.9756
2017    4       0       0.446574        102.098
2017    4       1       0.4284326       98.2779
2017    4       2       0.4182713       96.39005
2017    4       3       0.4129372       95.49226
2017    4       4       0.4890375       108.7842
2017    4       5       0.6223072       129.5424
2017    4       6       0.6494862       133.5825
2017    4       7       0.5631072       121.4031
2017    5       0       0.5394033       117.2731
2017    5       1       0.4825078       107.9749
2017    5       2       0.4174224       97.25142
2017    5       3       0.4740739       108.0106
2017    5       4       0.481299        109.7138
2017    5       5       0.4078183       96.7872
2017    5       6       0.3258867       81.20722
2017    5       7       0.332885        82.43915
2017    6       0       0.3923759       93.41941
2017    6       1       0.408574        96.30896
2017    6       2       0.4354427       101.0453
2017    6       3       0.5296021       117.0634
2017    6       4       0.5981732       127.8725
2017    6       5       0.6563936       136.3155
2017    6       6       0.6854012       140.1854
2017    6       7       0.7203576       144.5109
2017    7       0       0.7428037       147.165
2017    7       1       0.7807524       151.9457
2017    7       2       0.8318204       158.1476
2017    7       3       1.015281        178.3962
2017    7       4       1.168201        192.756
2017    7       5       1.242321        199.0558
2017    7       6       1.203983        195.64
2017    7       7       1.115939        187.5945
2017    8       0       0.9111705       167.1222
2017    8       1       0.7219542       145.0547
2017    8       2       0.6816107       139.6315
2017    8       3       0.6543673       136.1231
2017    8       4       0.6780463       139.6281
2017    8       5       0.7680669       151.1629
2017    8       6       0.6376811       133.9026
2017    8       7       0.5501208       120.7659
2017    9       0       0.5916288       127.2125
2017    9       1       0.5889008       127.025
2017    9       2       0.5965738       127.9937
2017    9       3       0.7313098       146.673
2017    9       4       0.9485598       171.8394
2017    9       5       1.019618        179.37
2017    9       6       1.038076        181.0444
2017    9       7       0.9524554       172.2639
2017    10      0       0.8570618       162.0323
2017    10      1       0.7773627       152.7197
2017    10      2       0.6654997       138.1205
2017    10      3       0.6796307       140.1737
2017    10      4       0.8124002       157.3172
2017    10      5       1.026627        180.6617
2017    10      6       0.7939509       154.6125
2017    10      7       0.6778041       138.8512
2017    11      0       0.5933305       126.5667
2017    11      1       0.4571929       104.7886
2017    11      2       0.3787866       91.1926
2017    11      3       0.3555078       86.90241
2017    11      4       0.396779        94.55878
2017    11      5       0.3992713       94.55062
2017    11      6       0.4149          96.61387
2017    11      7       0.5213563       113.9707
2017    12      0       0.5701533       121.2274
2017    12      1       0.6283968       128.6736
2017    12      2       0.6941645       138.2498
2017    12      3       0.5948597       124.6084
2017    12      4       0.6812387       138.3284
2017    12      5       0.675074        138.1008
2017    12      6       0.4802499       108.2489
2017    12      7       0.4180443       95.99261
2017    13      0       0.4325516       97.92587
2017    13      1       0.3062286       75.10303
2017    13      2       0.2285767       59.519
2017    13      3       0.2242648       58.99356
2017    13      4       0.2508217       65.01832
2017    13      5       0.2836925       72.14136
2017    13      6       0.2592362       67.22008
2017    13      7       0.25283         65.81805
2017    14      0       0.2693217       69.22181
2017    14      1       0.2606936       67.26624
2017    14      2       0.298419        75.30553
2017    14      3       0.2443636       63.80622
2017    14      4       0.2576808       66.79093
2017    14      5       0.283875        72.44563
2017    14      6       0.2915816       74.10373
2017    14      7       0.3149481       78.69059
2017    15      0       0.3540773       86.19844
2017    15      1       0.3859433       92.71403
2017    15      2       0.2656586       68.59986
2017    15      3       0.2908874       74.00112
2017    15      4       0.3317073       82.53131
2017    15      5       0.3385102       83.54382
2017    15      6       0.4132451       96.73942
2017    15      7       0.4551872       102.9984
2017    16      0       0.4144051       96.00653
2017    16      1       0.3149059       77.71327
2017    16      2       0.3546199       85.31766
2017    16      3       0.4106537       96.02865
2017    16      4       0.4594042       104.6512
2017    16      5       0.5109752       113.6996
2017    16      6       0.5002338       112.3125
2017    16      7       0.5349195       117.6025
2017    17      0       0.6340511       132.5773
2017    17      1       0.5959331       126.5318
2017    17      2       0.6543336       134.6576
2017    17      3       0.7087687       141.919
2017    17      4       0.8392744       158.5874
2017    17      5       0.9799318       174.368
2017    17      6       0.8244119       157.3658
2017    17      7       0.7558419       149.0307
2017    18      0       0.7419924       147.1838
2017    18      1       0.7068801       142.5705
2017    18      2       0.5813919       124.7066
2017    18      3       0.495088        111.1761
2017    18      4       0.4750513       108.3011
2017    18      5       0.5136182       115.2659
2017    18      6       0.4966635       112.0981
2017    18      7       0.5126289       114.2666
2017    19      0       0.4815817       108.9625
2017    19      1       0.4820039       109.0804
2017    19      2       0.5182521       115.3654
2017    19      3       0.5353324       118.2414
2017    19      4       0.5895371       126.8967
2017    19      5       0.6137282       130.4666
2017    19      6       0.6189922       130.9611
2017    19      7       0.6409567       133.7051
2017    20      0       0.6517715       135.0349
2017    20      1       0.7312011       145.6864
2017    20      2       0.8055006       154.865
2017    20      3       0.9435255       170.7526
2017    20      4       1.43115         212.7181
2017    20      5       1.518155        218.1595
2017    20      6       1.538698        218.8297
2017    20      7       1.352249        206.0114
2017    21      0       1.271274        199.6484
2017    21      1       1.146108        189.0158
2017    21      2       1.050931        180.5808
2017    21      3       1.036229        179.3348
2017    21      4       1.066923        182.657
2017    21      5       1.078285        184.3976
2017    21      6       1.033873        180.3898
2017    21      7       0.9594453       173.1352
2017    22      0       0.8936036       166.0643
2017    22      1       0.8370454       159.6065
2017    22      2       0.7778996       152.4169
2017    22      3       0.8111756       157.2666
2017    22      4       0.8657207       164.2752
2017    22      5       0.8692036       164.4103
2017    22      6       0.9104831       168.7263
2017    22      7       0.9735319       174.9884
2017    23      0       1.025135        179.6885
2017    23      1       0.9603693       173.0413
2017    23      2       0.8664311       162.8679
2017    23      3       0.6842475       140.6192
2017    23      4       0.6009969       128.9825
2017    23      5       0.6319752       134.709
2017    23      6       0.5614732       123.6672
2017    23      7       0.5774327       125.744
2017    24      0       0.5989426       128.8139
2017    24      1       0.6067023       130.0637
2017    24      2       0.6067342       130.0673
2017    24      3       0.5650798       123.6708
2017    24      4       0.5769842       125.8207
2017    24      5       0.5962796       129.031
2017    24      6       0.6297102       134.192
2017    24      7       0.6432397       136.2926
2017    25      0       0.6709841       139.8804
2017    25      1       0.7421748       149.008
2017    25      2       0.5914725       127.1981
2017    25      3       0.4728398       108.0441
2017    25      4       0.4295269       100.8233
2017    25      5       0.4924476       112.4061
2017    25      6       0.38513         92.94984
2017    25      7       0.3583086       87.70447
2017    26      0       0.389555        93.35107
2017    26      1       0.4118321       97.26039
2017    26      2       0.4019458       95.23543
2017    26      3       0.4520935       104.6496
2017    26      4       0.5221625       116.6861
2017    26      5       0.6080434       130.0379
2017    26      6       0.6212079       131.9867
2017    26      7       0.586335        126.8369
2017    27      0       0.554748        121.4658
2017    27      1       0.5505048       120.4258
2017    27      2       0.4806224       109.1203
2017    27      3       0.4882291       110.7203
2017    27      4       0.5982167       128.5684
2017    27      5       0.638972        134.4119
2017    27      6       0.6264489       132.4242
2017    27      7       0.6567982       136.7565
2017    28      0       0.6626832       137.5372
2017    28      1       0.5915866       126.9414
2017    28      2       0.4925522       110.6635
2017    28      3       0.443431        102.153
2017    28      4       0.4515658       103.7129
2017    28      5       0.446444        102.9803
2017    28      6       0.4363526       101.1527
2017    28      7       0.4286512       99.28778
2017    29      0       0.462128        105.0022
2017    29      1       0.4571489       103.7904
2017    29      2       0.4238036       97.92493
2017    29      3       0.4167972       96.94868
2017    29      4       0.4251384       98.69831
2017    29      5       0.4150073       97.19567
2017    29      6       0.4208124       98.70441
2017    29      7       0.4929299       111.2956
2017    30      0       0.4992766       111.9155
2017    30      1       0.4728076       107.1973
2017    30      2       0.5135581       114.194
2017    30      3       0.5419111       118.8849
2017    30      4       0.5766882       124.7023
2017    30      5       0.6192751       131.4711
2017    30      6       0.5909153       127.5765
2017    30      7       0.5626974       123.23
2017    31      0       0.5352656       118.6224
2017    31      1       0.4987697       112.3283
2017    31      2       0.4346777       101.4401
2017    31      3       0.3630351       88.36059
2017    31      4       0.3316619       82.32239
2017    31      5       0.28996         73.79156
2017    31      6       0.2660477       68.58399
2017    31      7       0.2818871       71.97947
2018    1       0       0.9686191       173.3618
2018    1       1       0.862723        161.2031
2018    1       2       0.8500654       159.8675
2018    1       3       0.8910375       164.9103
2018    1       4       0.8471189       160.7688
2018    1       5       0.8050014       155.9191
2018    1       6       0.7326264       147.1632
2018    1       7       0.7655424       151.7253
2018    2       0       0.7373436       147.6085
2018    2       1       0.6925926       140.7287
2018    2       2       0.4599073       104.6002
2018    2       3       0.3765829       89.98335
2018    2       4       0.3839541       91.29036
2018    2       5       0.3863176       91.47842
2018    2       6       0.4547216       103.065
2018    2       7       0.5308918       115.8463
2018    3       0       0.5260091       115.6278
2018    3       1       0.4346808       100.5776
2018    3       2       0.3555851       85.82298
2018    3       3       0.301699        75.30767
2018    3       4       0.2759053       70.28153
2018    3       5       0.2911848       73.58823
2018    3       6       0.2670944       68.51856
2018    3       7       0.2109328       56.5406
2018    4       0       0.1820693       50.19771
2018    4       1       0.1750074       48.61292
2018    4       2       0.1643022       46.15608
2018    4       3       0.1744414       48.5451
2018    4       4       0.192338        52.74976
2018    4       5       0.1853375       51.11283
2018    4       6       0.1458059       41.80779
2018    4       7       0.1314543       38.15693
2018    5       0       0.1787822       48.86339
2018    5       1       0.2478434       64.14305
2018    5       2       0.2685605       68.64336
2018    5       3       0.2749788       70.14133
2018    5       4       0.2514221       65.36337
2018    5       5       0.2065096       55.63433
2018    5       6       0.1724037       47.84576
2018    5       7       0.1763244       48.78626
2018    6       0       0.2146515       57.39614
2018    6       1       0.2638382       67.82383
2018    6       2       0.2973667       74.51176
2018    6       3       0.29985         74.91877
2018    6       4       0.3332333       81.29137
2018    6       5       0.3783369       90.0814
2018    6       6       0.3739579       89.20625
2018    6       7       0.3480411       84.47985
2018    7       0       0.3593105       86.50273
2018    7       1       0.3773848       89.99035
2018    7       2       0.3984202       93.48291
2018    7       3       0.4345699       99.76713
2018    7       4       0.4756534       106.6183
2018    7       5       0.40935         96.06825
2018    7       6       0.2673237       68.98593
2018    7       7       0.1467896       41.99364
2018    8       0       0.08843146      27.5849
2018    8       1       0.06725316      22.1596
2018    8       2       0.0641405       21.36428
2018    8       3       0.08756779      27.38536
2018    8       4       0.1128653       33.65148
2018    8       5       0.1513579       42.91309
2018    8       6       0.1297158       37.49151
2018    8       7       0.11404         33.2557
2018    9       0       0.1035319       30.81897
2018    9       1       0.09302066      28.66855
2018    9       2       0.08412238      26.69727
2018    9       3       0.1164799       34.99726
2018    9       4       0.1458862       41.91313
2018    9       5       0.172071        48.08094
2018    9       6       0.1527992       43.74637
2018    9       7       0.1431142       41.46182
2018    10      0       0.1432792       41.47998
2018    10      1       0.1492732       42.78441
2018    10      2       0.1579771       44.63845
2018    10      3       0.1778887       49.08553
2018    10      4       0.2212299       58.58168
2018    10      5       0.2630679       67.51358
2018    10      6       0.2742712       70.05894
2018    10      7       0.2582076       66.88935
2018    11      0       0.2567491       66.45685
2018    11      1       0.2673732       68.54595
2018    11      2       0.261426        67.26977
2018    11      3       0.2610309       67.23817
2018    11      4       0.2811483       71.59647
2018    11      5       0.3075064       77.19765
2018    11      6       0.2709254       69.67322
2018    11      7       0.2664735       68.65593
2018    12      0       0.2660478       68.443
2018    12      1       0.2689835       68.98733
2018    12      2       0.2742384       70.13742
2018    12      3       0.2985943       75.2825
2018    12      4       0.3185302       79.53051
2018    12      5       0.3269477       81.41249
2018    12      6       0.3073871       77.31789
2018    12      7       0.3211465       79.75714
2018    13      0       0.3450963       84.29514
2018    13      1       0.3616242       87.37647
2018    13      2       0.3742307       89.57644
2018    13      3       0.3802654       90.6838
2018    13      4       0.3666522       88.57901
2018    13      5       0.3487546       85.51158
2018    13      6       0.3505564       85.57499
2018    13      7       0.3781302       89.97786
2018    14      0       0.4245794       97.81319
2018    14      1       0.4490243       101.7526
2018    14      2       0.4989468       109.9799
2018    14      3       0.5030772       110.6012
2018    14      4       0.4741127       106.3891
2018    14      5       0.4577243       104.0281
2018    14      6       0.4722204       106.8285
2018    14      7       0.5354945       117.2361
2018    15      0       0.6165887       129.0803
2018    15      1       0.6115081       128.5034
2018    15      2       0.6718185       137.3157
2018    15      3       0.8211725       156.7047
2018    15      4       0.9135102       167.9494
2018    15      5       1.023783        179.1527
2018    15      6       1.10492         186.4821
2018    15      7       1.098343        185.9847
2018    16      0       1.145851        190.0215
2018    16      1       1.091075        184.7991
2018    16      2       0.9550422       171.2492
2018    16      3       0.8683234       162.1637
2018    16      4       0.8543586       161.2539
2018    16      5       0.966712        173.9377
2018    16      6       1.091794        186.1833
2018    16      7       1.351825        206.4886
2018    17      0       1.311662        202.872
2018    17      1       1.218978        194.805
2018    17      2       1.027552        177.6823
2018    17      3       1.154357        189.8932
2018    17      4       1.207803        195.0326
2018    17      5       1.077145        184.465
2018    17      6       0.9173061       168.5899
2018    17      7       0.8633894       162.6037
2018    18      0       0.9356386       169.9408
2018    18      1       0.854894        161.0834
2018    18      2       0.7646241       150.4394
2018    18      3       0.7789699       152.187
2018    18      4       0.7961497       154.8511
2018    18      5       0.8054655       156.5239
2018    18      6       0.6203726       131.4623
2018    18      7       0.4811732       109.188
2018    19      0       0.453727        104.4164
2018    19      1       0.4227253       99.16416
2018    19      2       0.4461087       103.7063
2018    19      3       0.3718227       89.97891
2018    19      4       0.3587899       87.58937
2018    19      5       0.3630448       88.42117
2018    19      6       0.3785047       91.66118
2018    19      7       0.4037267       96.48011
2018    20      0       0.4502717       104.4167
2018    20      1       0.4707908       107.312
2018    20      2       0.452383        104.0721
2018    20      3       0.4519984       103.985
2018    20      4       0.4842027       109.6047
2018    20      5       0.4880475       110.4824
2018    20      6       0.4655465       107.2584
2018    20      7       0.4887876       111.3677
2018    21      0       0.5766343       124.9043
2018    21      1       0.6582443       136.2206
2018    21      2       0.6219748       130.4384
2018    21      3       0.5993179       125.9559
2018    21      4       0.5833921       123.8198
2018    21      5       0.6671279       136.259
2018    21      6       0.8217493       156.4619
2018    21      7       0.8455021       160.7319
2018    22      0       0.874522        164.7277
2018    22      1       0.9561733       174.1012
2018    22      2       1.016958        180.7457
2018    22      3       1.156411        193.3
2018    22      4       1.400816        211.4973
2018    22      5       1.299886        204.3425
2018    22      6       1.121646        189.6447
2018    22      7       0.9508948       173.1094
2018    23      0       1.038348        182.0424
2018    23      1       1.343097        207.2136
2018    23      2       1.291598        203.7134
2018    23      3       1.311007        205.2395
2018    23      4       1.693733        228.6492
2018    23      5       1.580125        221.8951
2018    23      6       1.166066        192.4439
2018    23      7       0.9527435       172.5481
2018    24      0       0.9267517       169.9689
2018    24      1       0.9181351       169.2794
2018    24      2       0.9473546       172.6564
2018    24      3       0.9452397       172.5781
2018    24      4       1.118006        189.4631
2018    24      5       1.21411         197.0213
2018    24      6       0.8344871       158.5699
2018    24      7       0.7758059       150.9887
2018    25      0       0.6896783       140.1236
2018    25      1       0.6007012       127.9907
2018    25      2       0.5879956       126.355
2018    25      3       0.5633702       122.1271
2018    25      4       0.5317935       117.2072
2018    25      5       0.5074354       113.6592
2018    25      6       0.518554        115.5208
2018    25      7       0.5617032       122.2447
2018    26      0       0.5489832       120.0349
2018    26      1       0.5216552       115.4301
2018    26      2       0.4946718       111.2289
2018    26      3       0.5369175       118.195
2018    26      4       0.6132572       129.929
2018    26      5       0.67653         139.2162
2018    26      6       0.6736881       138.5021
2018    26      7       0.6927688       140.7723
2018    27      0       0.8044012       154.9971
2018    27      1       0.7871702       153.7606
2018    27      2       0.742751        148.2925
2018    27      3       0.7900115       154.2116
2018    27      4       0.8616185       162.9645
2018    27      5       0.8564562       162.2119
2018    27      6       0.7352481       146.8949
2018    27      7       0.7514163       148.5189
2018    28      0       0.8431392       160.5172
2018    28      1       0.8181153       158.3516
2018    28      2       0.7291655       146.8531
2018    28      3       0.8555075       162.4411
2018    28      4       1.211919        196.9771
2018    28      5       1.505708        217.7478
2018    28      6       1.469507        214.9761
2018    28      7       1.39696         209.635
2018    29      0       1.117607        187.3467
2018    29      1       0.7629567       149.5659
2018    29      2       0.6622609       136.9748
2018    29      3       0.7922206       154.8855
2018    29      4       1.253252        200.5264
2018    29      5       1.489744        217.0944
2018    29      6       1.439345        214.3112
2018    29      7       1.353116        208.4741
2018    30      0       1.154022        193.148
2018    30      1       1.028367        181.6289
2018    30      2       0.9778665       176.1571
2018    30      3       1.009699        179.2629
2018    30      4       1.321987        205.7506
2018    30      5       1.447055        214.4511
2018    30      6       1.203552        197.0195
2018    30      7       1.058439        184.3479
2018    31      0       0.9743311       176.3468
2018    31      1       0.9645367       175.3154
2018    31      2       0.8787167       165.7214
2018    31      3       0.8121944       158.1383
2018    31      4       0.8736434       165.5388
2018    31      5       0.9932889       178.4858
2018    31      6       0.9511339       174.3373
2018    31      7       0.8828763       167.1087
