####################################################################################################
# Month: 10Oct                                                                                     #
# Station: MOR                                                                                     #
# Frequency: 230 GHz                                                                               #
# Columns are: year    day     tau     Tb (K)                                                      #
####################################################################################################
2009    1       0.3144878       75.36959625
2009    2       0.30123894      74.1789725
2009    3       0.31976526      77.5528175
2009    4       0.39555301      91.10691875
2009    5       0.36149092      84.98335
2009    6       0.41263768      94.02422875
2009    7       0.39334294      91.30246125
2009    8       0.34091339      82.2126875
2009    9       0.21968322      57.4974375
2009    10      0.27750494      69.4032675
2009    11      0.31244955      76.9873975
2009    12      0.31872384      77.94432625
2009    13      0.35552661      84.71079625
2009    14      0.40742725      93.2128275
2009    15      0.34792725      82.0073025
2009    16      0.39000972      89.13583
2009    17      0.35657444      83.9730325
2009    18      0.35970552      83.36598875
2009    19      0.55377176      115.5546875
2009    20      0.31653994      76.57131625
2009    21      0.37819318      88.0435325
2009    22      0.12358702      35.997235
2009    23      0.20197614      53.88568625
2009    24      0.25457071      64.9524025
2009    25      0.26995716      68.214675
2009    26      0.28613652      71.07868125
2009    27      0.30950599      75.50987125
2009    28      0.44235164      97.92522625
2009    29      0.46982916      103.3482325
2009    30      0.36447736      86.02304375
2009    31      0.2751988       68.78691625
2010    1       0.31711429      77.50405
2010    2       0.46764596      100.20257625
2010    3       0.64801936      128.66329
2010    4       0.28605221      69.8379575
2010    5       0.41860695      94.78942875
2010    6       0.56074986      117.5280125
2010    7       0.34849415      82.6063825
2010    8       0.255258        64.65049375
2010    9       0.27284205      68.195235
2010    10      0.64660381      128.76444
2010    11      0.33423042      74.6899525
2010    12      0.23586479      60.44710375
2010    13      0.11104796      33.13266375
2010    14      0.1795297       47.3995125
2010    15      0.10527975      30.973565
2010    16      0.19196235      50.96659625
2010    17      0.19956321      52.92515625
2010    18      0.28592328      69.700705
2010    19      0.70991399      135.40268
2010    20      0.66252285      131.8838
2010    21      0.39293638      90.40032
2010    22      0.48770172      104.26046125
2010    23      0.52584462      110.74113625
2010    24      0.32388414      76.79028375
2010    25      0.15767132      43.05089875
2010    26      0.16072837      43.9455475
2010    27      0.14369714      39.98178
2010    28      0.2106805       54.546145
2010    29      0.15863207      43.26403625
2010    30      0.18779841      50.28148625
2010    31      0.1677368       45.70220875
2011    1       0.41613775      95.27272375
2011    2       0.60934754      123.7413825
2011    3       0.85591791      156.958875
2011    4       0.65697903      132.99325
2011    5       0.4525191       102.14056875
2011    6       0.2762063       68.9750675
2011    7       0.20824041      54.99494375
2011    8       0.23648478      60.6708175
2011    9       0.25887019      65.8758725
2011    10      0.28281699      70.4788525
2011    11      0.31438419      76.33984625
2011    12      0.31383701      75.5816125
2011    13      0.34347028      80.599885
2011    14      0.42023334      94.0748025
2011    15      0.44919476      99.81598375
2011    16      0.34654294      81.2990075
2011    17      0.43307454      96.59744375
2011    18      0.5730216       117.1818875
2011    19      0.37714996      86.90179
2011    20      0.4382778       95.5491975
2011    21      0.7734249       143.65155
2011    22      0.60321224      121.465515
2011    23      0.34493912      79.22739625
2011    24      0.43318509      93.21049625
2011    25      0.45606209      94.28897375
2011    26      0.19195719      50.7206825
2011    27      0.23952959      60.20221
2011    28      0.11915132      34.28501875
2011    29      0.17472441      47.1603825
2011    30      0.29712085      72.3321725
2011    31      0.38708068      88.54689
2012    1       0.23831751      61.42910875
2012    2       0.18396351      49.61942
2012    3       0.14534697      40.67945375
2012    4       0.27026294      66.2430225
2012    5       0.57895806      118.8240725
2012    6       0.58656322      121.7922375
2012    7       0.29340786      72.724325
2012    8       0.29091345      71.55113125
2012    9       0.38997584      88.9531875
2012    10      0.5143289       110.4761525
2012    11      0.31306675      75.87596875
2012    12      0.1642167       44.53034875
2012    13      0.17869825      47.7454275
2012    14      0.28297907      69.3338825
2012    15      0.27260361      68.08139625
2012    16      0.29802419      73.702635
2012    17      0.26812742      66.678255
2012    18      0.44153656      98.21659
2012    19      0.35235305      78.17503625
2012    20      0.18625869      48.49267625
2012    21      0.17268205      46.135815
2012    22      0.22801471      58.58398375
2012    23      0.63495284      128.1266375
2012    24      0.58301046      120.28742625
2012    25      0.25998552      64.4631425
2012    26      0.41331099      93.72570625
2012    27      0.31675903      74.40816375
2012    28      0.11016155      31.26858
2012    29      0.66602259      129.53547375
2012    30      0.8876818       158.2529325
2012    31      0.98402279      166.7948375
2013    1       0.46891376      105.476125
2013    2       0.43378914      98.6442625
2013    3       0.37167915      87.66887125
2013    4       0.32623104      79.18652
2013    5       0.23774884      61.59680125
2013    6       0.41659302      94.12077875
2013    7       0.21310038      55.63450875
2013    8       0.24585229      62.59301375
2013    9       0.26612801      67.0344375
2013    10      0.29158526      71.98803625
2013    11      0.21185525      55.64330125
2013    12      0.10101972      30.01516
2013    13      0.17619552      46.6847475
2013    14      0.27748504      69.17425375
2013    15      0.35853065      84.48520375
2013    16      0.25191319      63.533405
2013    17      0.26930612      65.610415
2013    18      0.29339874      71.9892475
2013    19      0.3399234       80.1085375
2013    20      0.1371454       38.40474625
2013    21      0.20394851      53.24899875
2013    22      0.35525265      83.3243575
2013    23      0.34342034      80.949205
2013    24      0.24610268      62.253555
2013    25      0.34404837      80.18822125
2013    26      0.28191519      68.18147875
2013    27      0.29174301      68.63336875
2013    28      0.48660555      104.3256175
2013    29      0.38068568      87.57116625
2013    30      0.23934757      60.55386375
2013    31      0.19144748      50.74163625
2014    1       0.34993804      82.646035
2014    2       0.44986625      101.08958875
2014    3       0.51194715      111.0789725
2014    4       0.23287283      59.6343975
2014    5       0.21050894      53.81024125
2014    6       0.32947419      78.97958375
2014    7       0.30519003      74.25144125
2014    8       0.19804556      51.84216375
2014    9       0.14944423      40.9715825
2014    10      0.38707366      87.5629525
2014    11      0.52491886      109.5042425
2014    12      0.11817043      34.21886625
2014    13      0.12855163      36.22192
2014    14      0.36374715      84.580705
2014    15      0.51177629      111.13217375
2014    16      0.31485659      76.9587
2014    17      0.26700051      64.63532
2014    18      0.5766658       119.8760175
2014    19      0.22697842      58.530925
2014    20      0.27541271      68.3471975
2014    21      0.24661024      62.81477375
2014    22      0.2542787       64.808475
2014    23      0.27055812      68.11843875
2014    24      0.26353683      66.2275075
2014    25      0.36729706      85.1460225
2014    26      0.5385951       113.5486925
2014    27      0.44213035      97.33023875
2014    28      0.48972353      105.10304875
2014    29      0.59719569      121.1963875
2014    30      0.46566379      101.56480125
2014    31      0.31570064      75.8546125
2015    1       0.20390348      53.5397825
2015    2       0.46064685      100.3895625
2015    3       0.6150721       126.5090125
2015    4       0.6059455       124.7279625
2015    5       0.71731088      141.06745
2015    6       0.54894707      118.65035
2015    7       0.49118028      108.787725
2015    8       0.18067762      48.31263
2015    9       0.15069598      41.35347625
2015    10      0.30104142      73.34851125
2015    11      0.29985418      73.93608375
2015    12      0.34758125      82.69451125
2015    13      0.13672093      38.1843225
2015    14      0.05177052      18.10733625
2015    15      0.10398952      30.39761625
2015    16      0.39490805      91.27597375
2015    17      0.53027312      111.14884375
2015    18      0.38226088      88.9084725
2015    19      0.4449949       100.37571875
2015    20      0.35017346      81.6328325
2015    21      0.22437315      57.67152125
2015    22      0.39135804      85.86799625
2015    23      0.9417043       165.29925
2015    24      0.90330619      161.273475
2015    25      0.70777249      136.53911875
2015    26      0.3886862       89.5270275
2015    27      0.14415965      39.9633875
2015    28      0.14237832      39.29575125
2015    29      0.27367159      67.06323375
2015    30      0.17622921      46.78691
2015    31      0.14383908      39.85078375
2016    1       0.22677019      58.30749
2016    2       0.2750618       68.9164775
2016    3       0.29005714      71.58685375
2016    4       0.48826636      105.6876
2016    5       0.60067874      123.2290625
2016    6       0.64174705      129.53975
2016    7       0.57134178      119.7271375
2016    8       0.5133178       109.8267825
2016    9       0.25375985      64.2338075
2016    10      0.20298401      53.12343375
2016    11      0.20484936      53.42508125
2016    12      0.14450206      39.96223
2016    13      0.21120784      53.01396125
2016    14      0.19909185      52.0827225
2016    15      0.21810459      56.20547375
2016    16      0.33430822      77.7770875
2016    17      0.72860498      138.975475
2016    18      0.6233189       125.21922125
2016    19      0.48367809      103.9113375
2016    20      0.64729947      128.217925
2016    21      0.41206089      94.27967
2016    22      0.16276862      44.42169125
2016    23      0.21671816      55.92997375
2016    24      0.23811075      60.465705
2016    25      0.68167759      129.7374975
2016    26      0.60847632      123.444105
2016    27      0.5117094       109.8683025
2016    28      0.52238378      111.5651625
2016    29      0.62858085      127.1448375
2016    30      0.60597772      123.7205
2016    31      0.45046282      100.17707
2017    1       0.32577588      78.4355575
2017    2       0.54725029      117.0225
2017    3       0.51586644      111.80937875
2017    4       0.56415458      119.3959375
2017    5       0.49752669      109.04919375
2017    6       0.37806946      87.40477
2017    7       0.3738156       87.28487625
2017    8       0.62802052      126.7101625
2017    9       0.65970651      131.863025
2017    10      0.63800554      128.7658625
2017    11      0.59388526      122.5504875
2017    12      0.56844932      118.6690125
2017    13      0.63832132      128.4674625
2017    14      0.58710902      120.717725
2017    15      0.51181741      109.03272125
2017    16      0.64565101      127.7836575
2017    17      0.68482666      134.235
2017    18      0.42785001      95.79802875
2017    19      0.34114528      80.4718725
2017    20      0.57468874      122.5741625
2017    21      0.49237692      109.307
2017    22      0.49584341      109.1006525
2017    23      0.39401526      91.94402
2017    24      0.2954941       73.002365
2017    25      0.37057896      87.32513625
2017    26      0.26123442      65.86382875
2017    27      0.16335942      44.62440875
2017    28      0.18009586      47.98783125
2017    29      0.20709305      53.4412475
2017    30      0.20306988      53.00109375
2017    31      0.15963134      43.87205875
2018    1       0.33649859      80.03888125
2018    2       0.2170203       55.8773
2018    3       0.42932025      96.95778875
2018    4       0.42488591      95.14783375
2018    5       0.46765397      102.27275125
2018    6       0.60914493      124.6014125
2018    7       0.54479214      115.38157
2018    8       0.51711538      109.95520875
2018    9       0.36640724      85.58541625
2018    10      0.50893202      101.729365
2018    11      0.20307094      53.58812125
2018    12      0.34415666      82.277185
2018    13      0.43508971      99.46673
2018    14      0.31901381      77.19869875
2018    15      0.14963868      41.31713625
2018    16      0.16728503      45.3058625
2018    17      0.19230295      51.53942375
2018    18      0.10152678      30.07677875
2018    19      0.32205922      76.2070575
2018    20      0.19570869      51.78651625
2018    21      0.17483001      46.71626125
2018    22      0.50499351      104.9641825
2018    23      0.3301003       76.701865
2018    24      0.19455384      51.85555625
2018    25      0.52942219      108.9600025
2018    26      0.79693155      148.53185
2018    27      0.58559257      118.47420375
2018    28      0.24421971      60.314415
2018    29      0.12891278      36.5772275
2018    30      0.33439744      76.44222875
2018    31      0.18050532      47.1348825
