####################################################################################################
# Month: 10Oct                                                                                     #
# Station: LEN                                                                                     #
# Frequency: 345 GHz                                                                               #
# Columns are: year    day     segment         tau     Tb (K)                                      #
####################################################################################################
2009    1       0       0.3462012       81.25786
2009    1       1       0.129309        37.36935
2009    1       2       0.1353022       38.30319
2009    1       3       0.1559151       42.68688
2009    1       4       0.2223198       56.40856
2009    1       5       0.2655652       65.00344
2009    1       6       0.3426401       79.9907
2009    1       7       0.4823892       102.7939
2009    2       0       0.5296611       109.2443
2009    2       1       0.6808923       131.009
2009    2       2       0.5804147       118.2573
2009    2       3       0.6497455       127.4907
2009    2       4       0.5711791       116.9507
2009    2       5       0.515058        108.2307
2009    2       6       0.4823536       102.4477
2009    2       7       0.3294544       77.31423
2009    3       0       0.2936098       70.12414
2009    3       1       0.2823184       67.82342
2009    3       2       0.2439472       60.65658
2009    3       3       0.275677        66.66665
2009    3       4       0.2432618       60.72362
2009    3       5       0.2749061       67.53791
2009    3       6       0.37032         84.52725
2009    3       7       0.4534099       97.6756
2009    4       0       0.425738        92.52227
2009    4       1       0.4147669       91.13893
2009    4       2       0.3513034       80.72717
2009    4       3       0.3297788       76.87595
2009    4       4       0.3057222       72.47363
2009    4       5       0.3686241       84.59522
2009    4       6       0.5886743       118.6873
2009    4       7       0.7558603       140.3683
2009    5       0       0.6530079       128.438
2009    5       1       0.559785        115.9132
2009    5       2       0.4059879       91.93446
2009    5       3       0.3897335       88.894
2009    5       4       0.4908258       105.0749
2009    5       5       0.6095253       121.7952
2009    5       6       0.7309986       137.0961
2009    5       7       0.6437205       126.3446
2009    6       0       0.4482618       97.1665
2009    6       1       0.3453569       79.3823
2009    6       2       0.333846        77.17219
2009    6       3       0.3386456       77.58874
2009    6       4       0.3569383       81.02098
2009    6       5       0.4066662       90.00518
2009    6       6       0.5655054       115.2558
2009    6       7       0.7275594       136.5326
2009    7       0       0.6176495       122.9094
2009    7       1       0.5650745       116.6043
2009    7       2       0.6656424       130.505
2009    7       3       0.7420282       140.8739
2009    7       4       0.8465119       152.7166
2009    7       5       0.9134274       159.72
2009    7       6       0.915412        160.5936
2009    7       7       0.8858978       158.2338
2009    8       0       0.7494667       143.2554
2009    8       1       0.6050504       124.2096
2009    8       2       0.4780013       105.1599
2009    8       3       0.4628136       102.9309
2009    8       4       0.4491936       100.8745
2009    8       5       0.5101837       110.5094
2009    8       6       0.6251761       127.3246
2009    8       7       0.6167272       126.5442
2009    9       0       0.4878334       107.2581
2009    9       1       0.3858499       89.91911
2009    9       2       0.3371724       80.99492
2009    9       3       0.3221667       78.06626
2009    9       4       0.262116        66.58555
2009    9       5       0.4104932       93.06839
2009    9       6       0.5322234       112.9006
2009    9       7       0.5423851       114.8749
2009    10      0       0.601455        123.0096
2009    10      1       0.569068        117.5551
2009    10      2       0.7611917       142.5013
2009    10      3       0.9466722       163.1221
2009    10      4       0.90981         158.3417
2009    10      5       0.8372679       149.9124
2009    10      6       0.7641324       141.734
2009    10      7       0.6494205       127.2212
2009    11      0       0.4548816       98.90419
2009    11      1       0.5993078       119.9726
2009    11      2       0.6445029       125.9221
2009    11      3       0.4320508       95.34504
2009    11      4       0.3487711       81.09704
2009    11      5       0.4378129       95.51537
2009    11      6       0.6048243       121.1302
2009    11      7       0.6737691       131.2446
2009    12      0       0.5899217       120.2181
2009    12      1       0.6541507       129.3455
2009    12      2       0.5530717       115.1043
2009    12      3       0.3675934       85.23843
2009    12      4       0.2872958       70.67406
2009    12      5       0.3242399       77.63984
2009    12      6       0.3355387       79.83274
2009    12      7       0.3452857       81.92245
2009    13      0       0.2899242       70.97289
2009    13      1       0.2942093       71.50507
2009    13      2       0.3109824       74.27866
2009    13      3       0.3500288       81.09662
2009    13      4       0.4082041       91.04318
2009    13      5       0.5306832       110.2036
2009    13      6       0.6876895       131.9729
2009    13      7       0.8350541       149.5649
2009    14      0       0.6455054       126.5149
2009    14      1       0.5766166       116.6421
2009    14      2       0.5913523       118.4307
2009    14      3       0.5620511       114.5685
2009    14      4       0.5311903       110.2295
2009    14      5       0.6510194       126.8683
2009    14      6       0.8848367       154.4532
2009    14      7       0.8904537       154.9305
2009    15      0       0.6201069       123.8377
2009    15      1       0.4898317       104.7245
2009    15      2       0.4056464       90.82185
2009    15      3       0.3775777       85.93285
2009    15      4       0.3683805       84.19567
2009    15      5       0.4861024       103.588
2009    15      6       0.9076071       156.7292
2009    15      7       1.06866         172.0645
2009    16      0       0.9263194       158.6604
2009    16      1       0.6715327       128.9557
2009    16      2       0.6221989       122.4125
2009    16      3       0.6101044       121.2294
2009    16      4       0.5009125       105.9122
2009    16      5       0.5023119       106.2673
2009    16      6       0.6381508       125.8092
2009    16      7       0.7657667       142.4463
2009    17      0       0.3730313       86.47321
2009    17      1       0.1908704       50.72793
2009    17      2       0.2162726       55.87653
2009    17      3       0.18766         49.8483
2009    17      4       0.1963554       51.92126
2009    17      5       0.2675152       66.52875
2009    17      6       0.421156        94.44604
2009    17      7       0.4797155       104.351
2009    18      0       0.4570175       101.2032
2009    18      1       0.3293901       78.68464
2009    18      2       0.4567757       100.6355
2009    18      3       0.2561301       64.10885
2009    18      4       0.2431964       61.28954
2009    18      5       0.3505716       81.36379
2009    18      6       0.5133722       108.3093
2009    18      7       0.4659136       101.6393
2009    19      0       0.2691101       66.49966
2009    19      1       0.1681026       45.05249
2009    19      2       0.2037765       52.83001
2009    19      3       0.2443351       60.74016
2009    19      4       0.2826912       68.49553
2009    19      5       0.3669359       84.4405
2009    19      6       0.469662        101.3992
2009    19      7       0.4463865       97.1812
2009    20      0       0.3020583       72.01741
2009    20      1       0.2535467       62.61355
2009    20      2       0.3014024       71.17151
2009    20      3       0.4345698       93.58954
2009    20      4       0.5067027       105.3582
2009    20      5       0.6915334       131.4928
2009    20      6       0.859691        151.7225
2009    20      7       0.8444738       150.3569
2009    21      0       0.6879554       132.2565
2009    21      1       0.351408        81.99596
2009    21      2       0.2980366       71.75802
2009    21      3       0.4456536       96.56097
2009    21      4       0.6718723       129.7508
2009    21      5       0.7773078       143.309
2009    21      6       0.8991905       157.2134
2009    21      7       0.8677663       155.0614
2009    22      0       0.9123973       159.8828
2009    22      1       1.016791        170.7015
2009    22      2       1.223008        189.6771
2009    22      3       1.238969        191.9791
2009    22      4       1.213142        189.9229
2009    22      5       1.055489        176.4658
2009    22      6       1.350171        199.4151
2009    22      7       1.24582         191.6905
2009    23      0       1.1695          185.1994
2009    23      1       0.9807658       168.3482
2009    23      2       0.9155404       161.8989
2009    23      3       1.178461        185.6141
2009    23      4       1.33766         197.2698
2009    23      5       1.191628        186.1889
2009    23      6       0.8797275       156.3493
2009    23      7       0.4659274       101.569
2009    24      0       0.2608202       65.04288
2009    24      1       0.1475151       40.96643
2009    24      2       0.1475262       41.15579
2009    24      3       0.1617598       44.10574
2009    24      4       0.1890816       49.64189
2009    24      5       0.275846        66.93234
2009    24      6       0.478466        101.2321
2009    24      7       0.4750257       101.0139
2009    25      0       0.5241924       108.1431
2009    25      1       0.5979954       120.1622
2009    25      2       0.6152505       123.8966
2009    25      3       0.470417        103.2736
2009    25      4       0.4098831       93.52753
2009    25      5       0.4696628       103.168
2009    25      6       0.5451067       114.4815
2009    25      7       0.6694314       131.1475
2009    26      0       0.8968128       157.1315
2009    26      1       0.8314913       151.0704
2009    26      2       0.7154554       138.1543
2009    26      3       0.6365159       128.357
2009    26      4       0.5827091       120.9146
2009    26      5       0.6504024       130.5062
2009    26      6       0.9040383       160.3892
2009    26      7       1.02118         172.0334
2009    27      0       0.9807137       168.475
2009    27      1       0.9047379       159.9397
2009    27      2       0.8772987       156.7484
2009    27      3       1.116341        179.8825
2009    27      4       1.27579         193.6639
2009    27      5       1.376443        200.4548
2009    27      6       1.507032        207.7068
2009    27      7       1.631091        214.7476
2009    28      0       1.28984         195.1111
2009    28      1       0.8974629       161.2226
2009    28      2       0.7297332       141.3678
2009    28      3       0.7680566       145.6306
2009    28      4       0.8587865       156.6932
2009    28      5       1.127526        182.9889
2009    28      6       1.529313        211.7059
2009    28      7       1.469491        209.1822
2009    29      0       0.9429612       166.6484
2009    29      1       0.6946148       136.9022
2009    29      2       0.598424        122.5975
2009    29      3       0.5351714       113.7065
2009    29      4       0.473075        102.3083
2009    29      5       0.5418852       114.8723
2009    29      6       0.635901        128.5616
2009    29      7       0.6765097       133.823
2009    30      0       0.4313883       97.54401
2009    30      1       0.3514064       82.89661
2009    30      2       0.3069058       74.82235
2009    30      3       0.2927899       72.26954
2009    30      4       0.3603301       84.88086
2009    30      5       0.5613193       117.9692
2009    30      6       0.6019916       124.1716
2009    30      7       0.5491682       116.7707
2009    31      0       0.4009762       92.58843
2009    31      1       0.333682        80.05251
2009    31      2       0.3946281       90.69575
2009    31      3       0.456208        100.5805
2009    31      4       0.3660089       85.30924
2009    31      5       0.4312466       96.44408
2009    31      6       0.6900805       134.3386
2009    31      7       0.6363057       127.1064
2010    1       0       0.2076316       53.79857
2010    1       1       0.240446        60.19781
2010    1       2       0.1635771       44.52115
2010    1       3       0.101781        30.82698
2010    1       4       0.1410625       39.72586
2010    1       5       0.1784644       47.74092
2010    1       6       0.2538927       63.23218
2010    1       7       0.3498935       81.11779
2010    2       0       0.360941        83.11589
2010    2       1       0.3321681       78.24921
2010    2       2       0.2713579       67.17865
2010    2       3       0.2399736       61.27112
2010    2       4       0.2271712       58.91734
2010    2       5       0.2118822       55.72449
2010    2       6       0.2625541       66.10494
2010    2       7       0.3182059       77.25545
2010    3       0       0.2772751       69.87511
2010    3       1       0.2068651       55.26717
2010    3       2       0.1760781       48.36762
2010    3       3       0.1373052       39.41656
2010    3       4       0.1494842       41.65421
2010    3       5       0.2829712       69.11698
2010    3       6       0.4547384       99.43398
2010    3       7       0.6302769       125.0584
2010    4       0       0.5630161       114.0967
2010    4       1       0.8135267       146.7135
2010    4       2       0.7803395       144.1038
2010    4       3       0.7215082       136.9431
2010    4       4       0.861368        153.0034
2010    4       5       0.8742894       153.899
2010    4       6       0.6829611       130.9033
2010    4       7       0.7849221       143.7419
2010    5       0       0.7209035       136.3061
2010    5       1       0.5494191       113.3637
2010    5       2       0.4825737       103.5663
2010    5       3       0.5010591       105.9249
2010    5       4       0.5132293       108.0331
2010    5       5       0.5963038       120.2878
2010    5       6       0.6903486       133.0183
2010    5       7       0.7709921       142.9353
2010    6       0       0.6588431       129.8176
2010    6       1       0.5664046       117.0358
2010    6       2       0.4969245       106.6461
2010    6       3       0.3953408       90.25384
2010    6       4       0.2865917       70.2619
2010    6       5       0.4819761       102.1201
2010    6       6       0.5166191       109.2471
2010    6       7       0.4726877       103.1727
2010    7       0       0.1658589       46.10438
2010    7       1       0.119533        35.01833
2010    7       2       0.1492993       41.23256
2010    7       3       0.2044451       52.9832
2010    7       4       0.2218525       56.94424
2010    7       5       0.3079942       73.66937
2010    7       6       0.3865527       88.69672
2010    7       7       0.4619685       102.0496
2010    8       0       0.3991881       92.10806
2010    8       1       0.2950437       72.4792
2010    8       2       0.2791529       69.06721
2010    8       3       0.2841463       69.89453
2010    8       4       0.2926289       71.47281
2010    8       5       0.3158069       75.90058
2010    8       6       0.441759        98.21109
2010    8       7       0.6354709       127.6376
2010    9       0       0.7439082       142.0227
2010    9       1       0.6338476       127.6695
2010    9       2       0.4724907       103.6666
2010    9       3       0.3508016       82.61183
2010    9       4       0.3047838       74.07591
2010    9       5       0.4545984       100.7313
2010    9       6       0.8230124       150.623
2010    9       7       1.083405        177.6156
2010    10      0       0.9906053       170.2264
2010    10      1       0.6722929       134.6975
2010    10      2       0.4767969       106.1208
2010    10      3       0.4103948       94.8213
2010    10      4       0.3453138       83.27039
2010    10      5       0.5661697       119.909
2010    10      6       0.9571897       167.8933
2010    10      7       1.341401        200.3614
2010    11      0       1.15233         186.7907
2010    11      1       0.9023136       163.1082
2010    11      2       0.8084954       152.1728
2010    11      3       0.7616843       146.1402
2010    11      4       0.6710444       134.1793
2010    11      5       0.8813481       159.8401
2010    11      6       1.247074        193.5417
2010    11      7       1.550359        213.5745
2010    12      0       1.390684        204.6206
2010    12      1       1.060422        179.628
2010    12      2       0.8835614       161.9421
2010    12      3       0.8014243       152.0996
2010    12      4       0.7774753       149.084
2010    12      5       1.021572        174.9628
2010    12      6       1.656718        218.6916
2010    12      7       2.010958        232.8519
2010    13      0       1.590657        214.2831
2010    13      1       1.305348        196.9394
2010    13      2       0.8901613       159.8829
2010    13      3       0.676369        132.3001
2010    13      4       0.5503228       114.471
2010    13      5       0.5406398       112.9315
2010    13      6       0.7123525       137.4608
2010    13      7       0.8854312       157.6353
2010    14      0       0.8673256       155.8081
2010    14      1       0.761109        143.8398
2010    14      2       0.5259659       111.2823
2010    14      3       0.4091379       90.95672
2010    14      4       0.5614533       114.6986
2010    14      5       0.7429136       138.4054
2010    14      6       0.7492444       139.1569
2010    14      7       1.048462        170.3979
2010    15      0       0.9111569       157.9788
2010    15      1       0.7252259       137.585
2010    15      2       0.5462695       113.9001
2010    15      3       0.3070323       74.11667
2010    15      4       0.1889827       50.44011
2010    15      5       0.2800471       68.53273
2010    15      6       0.4027286       90.86861
2010    15      7       0.4355409       96.59549
2010    16      0       0.3241768       77.47394
2010    16      1       0.2268168       58.32189
2010    16      2       0.1263401       36.0566
2010    16      3       0.1237861       35.61554
2010    16      4       0.1479233       41.03772
2010    16      5       0.1951721       51.35158
2010    16      6       0.2766033       68.00143
2010    16      7       0.3831371       87.62443
2010    17      0       0.3600895       84.0327
2010    17      1       0.2100058       54.63095
2010    17      2       0.194851        51.37709
2010    17      3       0.2067192       54.24276
2010    17      4       0.2977992       72.21051
2010    17      5       0.4705056       102.152
2010    17      6       0.5843894       119.599
2010    17      7       0.6575789       130.0118
2010    18      0       0.6507788       129.4821
2010    18      1       0.5424451       114.5941
2010    18      2       0.4777503       104.8713
2010    18      3       0.3744935       87.48024
2010    18      4       0.3506087       82.93772
2010    18      5       0.4825134       105.4011
2010    18      6       0.7579903       142.8826
2010    18      7       0.7875502       146.9666
2010    19      0       0.6550431       130.4582
2010    19      1       0.6085463       124.404
2010    19      2       0.6811659       134.3959
2010    19      3       0.5487758       116.1889
2010    19      4       0.4160796       94.27286
2010    19      5       0.40838         92.44394
2010    19      6       0.3691963       85.74215
2010    19      7       0.4805196       104.1243
2010    20      0       0.3218296       77.54917
2010    20      1       0.3857735       88.0329
2010    20      2       0.393833        89.61604
2010    20      3       0.3541776       82.73695
2010    20      4       0.3087489       75.30444
2010    20      5       0.4142002       94.43427
2010    20      6       0.6544514       130.9414
2010    20      7       0.7372301       141.2227
2010    21      0       0.4588239       101.2044
2010    21      1       0.4036384       92.17501
2010    21      2       0.4823008       104.869
2010    21      3       0.5339832       112.6511
2010    21      4       0.5165775       110.2858
2010    21      5       0.5715887       118.755
2010    21      6       0.6775019       133.7577
2010    21      7       0.7578803       144.2593
2010    22      0       0.7144497       138.7238
2010    22      1       0.6664809       132.4919
2010    22      2       0.5798704       119.9143
2010    22      3       0.5245672       111.3335
2010    22      4       0.43834         97.61951
2010    22      5       0.5429825       113.5703
2010    22      6       0.6624534       129.9057
2010    22      7       0.7351744       138.8614
2010    23      0       0.6008539       121.0337
2010    23      1       0.5981033       120.1517
2010    23      2       0.5215733       109.5297
2010    23      3       0.5340211       111.121
2010    23      4       0.5653638       116.0263
2010    23      5       0.6448807       127.4373
2010    23      6       0.7636232       142.4597
2010    23      7       0.6419835       127.3713
2010    24      0       0.3645023       84.97534
2010    24      1       0.2917825       71.08868
2010    24      2       0.3171681       75.75211
2010    24      3       0.3145048       75.26748
2010    24      4       0.307898        73.89892
2010    24      5       0.3708307       85.39584
2010    24      6       0.5638507       116.1735
2010    24      7       0.9119723       159.0896
2010    25      0       0.7183154       138.1235
2010    25      1       0.4626486       102.3065
2010    25      2       0.2430516       62.2409
2010    25      3       0.134277        38.28616
2010    25      4       0.1555308       42.65526
2010    25      5       0.2463179       61.73415
2010    25      6       0.4196868       94.28812
2010    25      7       0.6179363       124.8157
2010    26      0       0.5297571       112.7337
2010    26      1       0.30669         74.63176
2010    26      2       0.3373214       79.9861
2010    26      3       0.2738367       68.25534
2010    26      4       0.2309451       59.80793
2010    26      5       0.2877969       71.21007
2010    26      6       0.3922637       90.54994
2010    26      7       0.4997953       108.6045
2010    27      0       0.552983        117.2446
2010    27      1       0.546362        115.6451
2010    27      2       0.3478387       81.7433
2010    27      3       0.7319757       137.9129
2010    27      4       0.6465414       127.4227
2010    27      5       0.8641344       152.8245
2010    27      6       0.8349358       150.4343
2010    27      7       0.7058417       136.1542
2010    28      0       0.6084645       123.1177
2010    28      1       0.5015528       105.6261
2010    28      2       0.5786285       117.1213
2010    28      3       0.5953242       120.1499
2010    28      4       0.6183501       123.9351
2010    28      5       0.7484212       139.9773
2010    28      6       0.9129335       157.3656
2010    28      7       0.862389        152.2438
2010    29      0       0.889688        154.692
2010    29      1       0.6770324       129.6896
2010    29      2       0.5199093       107.3399
2010    29      3       0.3581975       81.20829
2010    29      4       0.4902164       102.3325
2010    29      5       0.4541103       96.73228
2010    29      6       0.5438728       110.5339
2010    29      7       0.5295594       109.2115
2010    30      0       0.349561        80.87816
2010    30      1       0.3710446       83.43567
2010    30      2       0.5546326       113.5824
2010    30      3       0.5550939       114.5724
2010    30      4       0.6286797       125.1923
2010    30      5       0.6943528       133.5284
2010    30      6       0.7334761       139.0165
2010    30      7       0.7786318       145.0882
2010    31      0       0.8169597       149.2037
2010    31      1       0.9094215       159.0247
2010    31      2       0.7810048       145.1965
2010    31      3       0.7613943       143.0845
2010    31      4       0.7731512       144.9314
2010    31      5       0.6754746       133.4729
2010    31      6       0.7217535       139.8204
2010    31      7       0.8051559       150.2405
2011    1       0       0.5292925       110.5195
2011    1       1       0.5364235       111.7081
2011    1       2       0.5257587       110.364
2011    1       3       0.3737278       85.97299
2011    1       4       0.3117211       74.76088
2011    1       5       0.3526522       82.36942
2011    1       6       0.4607811       100.9011
2011    1       7       0.6248397       124.9715
2011    2       0       0.6679644       130.9127
2011    2       1       0.7439087       140.4045
2011    2       2       0.7353659       139.9145
2011    2       3       0.6514965       130.419
2011    2       4       0.5133721       111.0001
2011    2       5       0.5049978       109.4369
2011    2       6       0.553742        116.5441
2011    2       7       0.6032267       122.9926
2011    3       0       0.616655        125.0644
2011    3       1       0.5161737       110.6511
2011    3       2       0.5201209       111.8728
2011    3       3       0.4704914       104.228
2011    3       4       0.485142        107.2608
2011    3       5       0.5085581       111.2193
2011    3       6       0.6601561       132.6605
2011    3       7       0.864989        157.1114
2011    4       0       0.5790995       120.238
2011    4       1       0.5099842       108.9789
2011    4       2       0.4956726       107.126
2011    4       3       0.3522911       83.12739
2011    4       4       0.37939         86.97338
2011    4       5       0.5278544       111.3682
2011    4       6       0.8684547       153.4856
2011    4       7       0.7845477       145.1827
2011    5       0       0.6997483       134.1669
2011    5       1       0.6992245       133.4918
2011    5       2       0.7869412       144.0662
2011    5       3       0.8678848       154.2167
2011    5       4       0.8481272       152.5894
2011    5       5       0.9482346       163.3787
2011    5       6       1.096818        177.8922
2011    5       7       1.06581         175.8814
2011    6       0       1.049156        174.0253
2011    6       1       0.884453        157.4512
2011    6       2       0.6679168       131.4753
2011    6       3       0.575275        118.8113
2011    6       4       0.5821258       119.925
2011    6       5       0.6900229       134.7161
2011    6       6       0.8811386       157.2863
2011    6       7       0.935383        162.433
2011    7       0       0.7694948       143.8814
2011    7       1       0.5983333       121.8225
2011    7       2       0.5340417       112.4978
2011    7       3       0.4425878       98.08289
2011    7       4       0.4690198       102.1468
2011    7       5       0.8629486       152.1316
2011    7       6       0.7191152       135.6926
2011    7       7       0.7251916       136.2268
2011    8       0       0.4226107       93.36623
2011    8       1       0.4219705       92.97422
2011    8       2       0.4768806       101.6688
2011    8       3       0.4674512       99.82151
2011    8       4       0.4146034       91.01283
2011    8       5       0.6536083       124.8784
2011    8       6       0.7279607       134.9142
2011    8       7       0.7366143       136.7261
2011    9       0       0.7295351       137.2246
2011    9       1       0.7842636       145.2858
2011    9       2       0.5315519       112.5947
2011    9       3       0.3575033       83.66642
2011    9       4       0.2783161       68.2954
2011    9       5       0.263858        66.45083
2011    9       6       0.2445875       62.80994
2011    9       7       0.2690185       67.39746
2011    10      0       0.2455008       62.59441
2011    10      1       0.2195714       57.30825
2011    10      2       0.2572096       64.63084
2011    10      3       0.286613        70.03562
2011    10      4       0.3015937       72.64009
2011    10      5       0.3952316       89.52655
2011    10      6       0.5539289       114.3913
2011    10      7       0.5136415       109.1013
2011    11      0       0.3577297       83.63944
2011    11      1       0.2548727       64.25391
2011    11      2       0.2511201       63.19457
2011    11      3       0.2630756       65.56302
2011    11      4       0.2572109       64.39393
2011    11      5       0.384244        87.55197
2011    11      6       0.4996463       105.8497
2011    11      7       0.4808154       102.8723
2011    12      0       0.3797225       86.2166
2011    12      1       0.3575993       82.3977
2011    12      2       0.3124858       73.96973
2011    12      3       0.2584078       63.94472
2011    12      4       0.1684194       45.97504
2011    12      5       0.2572642       63.86375
2011    12      6       0.4559622       97.9288
2011    12      7       0.4839472       102.3366
2011    13      0       0.5123169       106.4223
2011    13      1       0.7003085       131.7851
2011    13      2       0.6801974       129.3772
2011    13      3       0.7519945       137.8847
2011    13      4       0.7261779       135.0836
2011    13      5       0.8166604       145.4836
2011    13      6       0.7768928       141.4352
2011    13      7       0.890682        154.361
2011    14      0       0.8684494       152.3035
2011    14      1       0.7250187       135.6593
2011    14      2       0.5938186       118.139
2011    14      3       0.6139224       121.1442
2011    14      4       0.572536        115.5983
2011    14      5       0.6047216       120.1691
2011    14      6       0.6224542       123.3515
2011    14      7       0.5889956       119.6005
2011    15      0       0.3822157       87.88449
2011    15      1       0.2534991       63.79235
2011    15      2       0.3541801       82.69692
2011    15      3       0.4551158       99.59781
2011    15      4       0.4966687       106.9935
2011    15      5       0.562676        117.0354
2011    15      6       0.5242792       111.3374
2011    15      7       0.5776618       119.0019
2011    16      0       0.7849296       145.7442
2011    16      1       0.9196691       160.5932
2011    16      2       0.9444667       163.2774
2011    16      3       0.9951823       168.3842
2011    16      4       1.024236        170.9121
2011    16      5       1.173244        183.7206
2011    16      6       0.9535239       164.3916
2011    16      7       0.6684688       131.8752
2011    17      0       0.7252107       138.1807
2011    17      1       0.8817362       156.5608
2011    17      2       0.9645968       165.1646
2011    17      3       0.6610695       129.7129
2011    17      4       0.6882744       132.9311
2011    17      5       0.7283679       138.0522
2011    17      6       0.7394179       139.1601
2011    17      7       0.803872        146.7681
2011    18      0       0.661604        128.7043
2011    18      1       0.6583348       127.412
2011    18      2       0.7499439       139.1623
2011    18      3       0.4974359       106.4125
2011    18      4       0.3557099       83.56557
2011    18      5       0.3717963       86.61155
2011    18      6       0.471439        103.3723
2011    18      7       0.6226836       126.0042
2011    19      0       0.6169302       125.5839
2011    19      1       0.4978792       108.2216
2011    19      2       0.2464329       62.8129
2011    19      3       0.173447        47.00532
2011    19      4       0.243656        61.84689
2011    19      5       0.3370913       80.44343
2011    19      6       0.4493475       100.9787
2011    19      7       0.7055157       139.5075
2011    20      0       0.7020726       139.5509
2011    20      1       0.4438668       99.47652
2011    20      2       0.3415633       80.72641
2011    20      3       0.3779204       87.61582
2011    20      4       0.3926868       90.04109
2011    20      5       0.4564569       100.9246
2011    20      6       0.6065804       124.5779
2011    20      7       0.6490332       130.892
2011    21      0       0.4751846       104.85
2011    21      1       0.3131891       75.4473
2011    21      2       0.3434681       80.44666
2011    21      3       0.4528324       100.3785
2011    21      4       0.429325        96.51756
2011    21      5       0.5185956       110.6596
2011    21      6       0.6539915       130.0492
2011    21      7       0.8382968       152.7519
2011    22      0       0.7446402       141.5055
2011    22      1       0.7154057       137.971
2011    22      2       0.5896459       120.7217
2011    22      3       0.4911154       105.5731
2011    22      4       0.4250244       94.99183
2011    22      5       0.4690551       102.6101
2011    22      6       0.6913076       135.1718
2011    22      7       0.8650874       155.73
2011    23      0       0.7555999       143.5555
2011    23      1       0.4172745       95.03085
2011    23      2       0.3119991       75.5078
2011    23      3       0.3060226       73.94764
2011    23      4       0.3233486       77.14838
2011    23      5       0.4439177       98.66628
2011    23      6       0.7157925       137.9383
2011    23      7       0.8115667       149.6738
2011    24      0       0.5439595       115.0734
2011    24      1       0.4708623       103.2856
2011    24      2       0.6306525       125.8199
2011    24      3       0.529733        110.649
2011    24      4       0.3700245       84.60625
2011    24      5       0.4872048       104.7161
2011    24      6       0.6914956       134.9217
2011    24      7       0.8792198       156.964
2011    25      0       0.9526792       164.4315
2011    25      1       0.7972162       147.6132
2011    25      2       0.5135695       108.5443
2011    25      3       0.4238548       93.6647
2011    25      4       0.4942858       105.9033
2011    25      5       0.6040687       122.6579
2011    25      6       0.757005        142.6588
2011    25      7       0.7422956       141.3254
2011    26      0       0.58189         120.5673
2011    26      1       0.4755075       104.4172
2011    26      2       0.3687141       86.3155
2011    26      3       0.2356817       60.67854
2011    26      4       0.2208852       57.70686
2011    26      5       0.3214998       77.64935
2011    26      6       0.4547178       101.42
2011    26      7       0.5402799       114.9195
2011    27      0       0.487822        106.7065
2011    27      1       0.1815234       49.43709
2011    27      2       0.1422809       40.58111
2011    27      3       0.1350772       38.86314
2011    27      4       0.1411061       40.3582
2011    27      5       0.1687582       46.70565
2011    27      6       0.2604965       66.19267
2011    27      7       0.297235        73.72206
2011    28      0       0.2006814       54.00362
2011    28      1       0.1602411       45.02179
2011    28      2       0.1490377       42.44146
2011    28      3       0.1635916       45.4657
2011    28      4       0.202405        53.69339
2011    28      5       0.2761309       68.52916
2011    28      6       0.3239108       77.6613
2011    28      7       0.3584759       84.00093
2011    29      0       0.3511481       82.82766
2011    29      1       0.3004522       73.36102
2011    29      2       0.3206011       76.95387
2011    29      3       0.22631         58.5875
2011    29      4       0.1804988       49.06931
2011    29      5       0.2040233       54.09117
2011    29      6       0.2870666       71.06047
2011    29      7       0.4205922       95.44536
2011    30      0       0.4944761       107.9235
2011    30      1       0.3780628       88.92898
2011    30      2       0.2408872       62.56376
2011    30      3       0.1525636       43.30782
2011    30      4       0.1786309       49.0714
2011    30      5       0.3198115       78.02006
2011    30      6       0.449218        101.1827
2011    30      7       0.643986        130.7066
2011    31      0       0.6507014       132.2881
2011    31      1       0.4213648       97.44345
2011    31      2       0.2743586       69.65991
2011    31      3       0.1541593       43.45895
2011    31      4       0.1344297       38.82346
2011    31      5       0.2241419       58.61657
2011    31      6       0.3957975       91.67138
2011    31      7       0.5908333       122.7706
2012    1       0       0.3625069       84.26737
2012    1       1       0.2346228       59.94374
2012    1       2       0.1965514       52.02696
2012    1       3       0.2021767       52.42327
2012    1       4       0.3985097       87.86501
2012    1       5       0.608702        119.4221
2012    1       6       0.8039981       143.9017
2012    1       7       0.8256849       146.5971
2012    2       0       0.6206737       121.5783
2012    2       1       0.4737561       100.6867
2012    2       2       0.2354042       59.65171
2012    2       3       0.1478298       41.34477
2012    2       4       0.1072338       31.97619
2012    2       5       0.1580174       43.1624
2012    2       6       0.1883228       49.78327
2012    2       7       0.2550041       63.59774
2012    3       0       0.283339        68.75617
2012    3       1       0.1719778       45.80142
2012    3       2       0.1621191       43.83834
2012    3       3       0.1419799       39.94663
2012    3       4       0.1318291       38.00777
2012    3       5       0.1781558       48.35175
2012    3       6       0.2295412       59.43866
2012    3       7       0.2246321       58.52491
2012    4       0       0.1534857       43.11467
2012    4       1       0.1977911       52.91562
2012    4       2       0.239905        61.60388
2012    4       3       0.2608274       65.58205
2012    4       4       0.3212475       76.32158
2012    4       5       0.5647149       116.1546
2012    4       6       0.7497495       140.7177
2012    4       7       0.9211125       159.9308
2012    5       0       0.9323554       161.9574
2012    5       1       0.9131941       160.2235
2012    5       2       1.045903        172.9555
2012    5       3       1.119492        179.1098
2012    5       4       1.336952        195.1347
2012    5       5       1.459086        202.4614
2012    5       6       1.431619        200.5845
2012    5       7       1.407655        199.1936
2012    6       0       1.485413        204.4057
2012    6       1       1.449617        202.0965
2012    6       2       1.106214        177.2074
2012    6       3       1.093947        176.1948
2012    6       4       1.144744        180.0427
2012    6       5       1.143429        179.2965
2012    6       6       1.032138        169.8823
2012    6       7       1.128242        177.4226
2012    7       0       0.9184661       158.24
2012    7       1       0.8647333       152.761
2012    7       2       0.999706        167.059
2012    7       3       1.116225        177.6867
2012    7       4       1.124049        178.3425
2012    7       5       1.140822        179.1191
2012    7       6       1.273784        189.5582
2012    7       7       1.17678         182.6685
2012    8       0       1.0169          169.2089
2012    8       1       1.042485        170.996
2012    8       2       0.9375771       160.9219
2012    8       3       0.6846574       132.5583
2012    8       4       0.4775518       103.219
2012    8       5       0.6042776       121.3814
2012    8       6       0.7271591       137.0119
2012    8       7       0.7103638       135.1462
2012    9       0       0.6122664       122.5024
2012    9       1       0.5962588       120.582
2012    9       2       0.5106565       107.9091
2012    9       3       0.4462288       97.41748
2012    9       4       0.4317954       95.18841
2012    9       5       0.5444262       112.949
2012    9       6       0.6521209       128.2622
2012    9       7       0.9215564       159.5461
2012    10      0       0.8987179       158.4183
2012    10      1       0.6817326       133.2632
2012    10      2       0.540649        113.802
2012    10      3       0.5062835       108.5471
2012    10      4       0.466097        102.6191
2012    10      5       0.5072545       109.5891
2012    10      6       0.5948589       123.0606
2012    10      7       0.7078697       138.6843
2012    11      0       0.4061838       94.28676
2012    11      1       0.2149653       56.85159
2012    11      2       0.1554124       43.54734
2012    11      3       0.1793089       48.90014
2012    11      4       0.1829401       49.78209
2012    11      5       0.316908        77.39299
2012    11      6       0.5054794       110.0743
2012    11      7       0.6839906       135.8002
2012    12      0       0.4668656       104.3715
2012    12      1       0.1447269       41.26589
2012    12      2       0.1876708       50.76496
2012    12      3       0.2129401       55.79263
2012    12      4       0.29105         70.23744
2012    12      5       0.4290519       94.82226
2012    12      6       0.5281651       110.9664
2012    12      7       0.5190335       110.2366
2012    13      0       0.4592411       101.3248
2012    13      1       0.3407868       81.079
2012    13      2       0.2691701       67.54555
2012    13      3       0.3321666       80.17466
2012    13      4       0.2698678       68.05064
2012    13      5       0.3546438       84.13513
2012    13      6       0.4625767       101.941
2012    13      7       0.4772808       104.4168
2012    14      0       0.6380503       128.5258
2012    14      1       1.076717        177.6352
2012    14      2       1.024703        173.5522
2012    14      3       0.5867306       122.2095
2012    14      4       0.4436859       99.63931
2012    14      5       0.6809561       133.7041
2012    14      6       0.8734487       155.2442
2012    14      7       0.7485757       141.0284
2012    15      0       0.6121673       123.0418
2012    15      1       0.3782215       86.15532
2012    15      2       0.2502022       62.25763
2012    15      3       0.2749996       67.45417
2012    15      4       0.2526675       63.36232
2012    15      5       0.3057906       73.57281
2012    15      6       0.5180919       109.4207
2012    15      7       0.5267962       111.3478
2012    16      0       0.3084243       74.63885
2012    16      1       0.3935132       90.12647
2012    16      2       0.4069623       92.59549
2012    16      3       0.3539632       83.32891
2012    16      4       0.3831862       88.31843
2012    16      5       0.4547178       100.5107
2012    16      6       0.5520304       115.8293
2012    16      7       0.5925554       121.5291
2012    17      0       0.6467301       128.3495
2012    17      1       0.7235583       137.634
2012    17      2       0.623908        124.3913
2012    17      3       0.668328        129.8435
2012    17      4       0.4185094       93.46361
2012    17      5       0.3280073       78.17467
2012    17      6       0.4190192       94.94608
2012    17      7       0.60002         123.442
2012    18      0       0.4224808       94.40959
2012    18      1       0.4283809       95.05654
2012    18      2       0.2889491       71.05126
2012    18      3       0.2788942       68.88808
2012    18      4       0.218504        56.83042
2012    18      5       0.2585441       65.09717
2012    18      6       0.3965066       91.03877
2012    18      7       0.4682595       103.0326
2012    19      0       0.2841679       70.06584
2012    19      1       0.2511118       63.49442
2012    19      2       0.2763614       68.5882
2012    19      3       0.3224236       77.23457
2012    19      4       0.3091546       74.47982
2012    19      5       0.3768018       86.53538
2012    19      6       0.5594722       115.5519
2012    19      7       0.627703        124.9238
2012    20      0       0.5062907       106.3778
2012    20      1       0.5358724       110.4966
2012    20      2       0.5617558       114.3415
2012    20      3       0.6003943       119.634
2012    20      4       0.6877928       131.1817
2012    20      5       0.7558398       140.1473
2012    20      6       0.9067996       157.5426
2012    20      7       0.8662762       153.1776
2012    21      0       0.764908        142.2721
2012    21      1       0.8081842       146.5929
2012    21      2       0.8321529       148.8517
2012    21      3       0.7722579       141.6124
2012    21      4       0.8748692       153.3904
2012    21      5       1.075613        173.0027
2012    21      6       1.106196        175.2037
2012    21      7       0.9774067       163.5738
2012    22      0       0.9110423       156.9959
2012    22      1       0.8452605       150.2718
2012    22      2       0.7659261       140.8437
2012    22      3       0.8209905       147.1124
2012    22      4       0.8365969       149.2019
2012    22      5       0.6942848       131.8555
2012    22      6       0.7086468       133.6695
2012    22      7       0.71688         134.8755
2012    23      0       0.7185563       135.6837
2012    23      1       0.3160148       75.46842
2012    23      2       0.1778822       47.77499
2012    23      3       0.16346         44.57656
2012    23      4       0.1569891       42.97542
2012    23      5       0.2787174       67.51768
2012    23      6       0.3664383       83.39227
2012    23      7       0.4654093       99.97187
2012    24      0       0.5156448       108.031
2012    24      1       0.649111        126.4484
2012    24      2       0.7122342       134.6468
2012    24      3       0.6552688       127.427
2012    24      4       0.7935466       144.0492
2012    24      5       0.8005924       145.3336
2012    24      6       0.9088355       157.646
2012    24      7       1.020149        168.9095
2012    25      0       0.8460799       151.9761
2012    25      1       0.382839        87.69862
2012    25      2       0.3092067       74.48126
2012    25      3       0.341649        80.64614
2012    25      4       0.3388771       80.28806
2012    25      5       0.490208        105.9522
2012    25      6       0.7131742       137.2688
2012    25      7       0.7963448       147.6504
2012    26      0       0.4596163       101.7225
2012    26      1       0.2700953       67.37076
2012    26      2       0.1828092       49.16323
2012    26      3       0.1815631       48.57119
2012    26      4       0.2737067       67.48744
2012    26      5       0.3712231       85.5362
2012    26      6       0.519426        110.6158
2012    26      7       0.5529871       115.7454
2012    27      0       0.4703271       102.5738
2012    27      1       0.3916788       88.97279
2012    27      2       0.4473849       97.39681
2012    27      3       0.6553723       127.2855
2012    27      4       0.9853329       165.6452
2012    27      5       1.210481        185.607
2012    27      6       0.8806908       156.2721
2012    27      7       0.7181228       138.1523
2012    28      0       0.6285841       126.8245
2012    28      1       0.6255802       126.3252
2012    28      2       0.5887452       120.3764
2012    28      3       0.5014127       107.166
2012    28      4       0.6191982       124.3484
2012    28      5       0.6436554       127.9289
2012    28      6       0.6911045       135.3816
2012    28      7       0.6565939       131.6902
2012    29      0       0.6476959       130.2656
2012    29      1       0.772574        145.5508
2012    29      2       0.6727776       132.2435
2012    29      3       0.4971558       106.7387
2012    29      4       0.3222846       77.14339
2012    29      5       0.3645563       85.37078
2012    29      6       0.3893807       90.37669
2012    29      7       0.4890975       107.3163
2012    30      0       0.4474354       100.4898
2012    30      1       0.204683        54.46061
2012    30      2       0.1696894       46.66488
2012    30      3       0.2164554       55.72284
2012    30      4       0.3166772       75.10953
2012    30      5       0.4652384       101.3596
2012    30      6       0.5398431       114.5157
2012    30      7       0.5902563       122.5726
2012    31      0       0.4137876       94.40544
2012    31      1       0.3671476       84.0975
2012    31      2       0.5429306       111.2075
2012    31      3       0.58251         116.9355
2012    31      4       0.5224603       109.0344
2012    31      5       0.6128602       122.9271
2012    31      6       0.7923219       146.7121
2012    31      7       0.8308262       151.6858
2013    1       0       0.6275327       122.8526
2013    1       1       0.6131851       121.3478
2013    1       2       0.5698338       116.3208
2013    1       3       0.4517226       98.54006
2013    1       4       0.4267617       94.42824
2013    1       5       0.41167         92.20941
2013    1       6       0.4536615       99.17275
2013    1       7       0.4402637       96.91634
2013    2       0       0.3345659       78.33957
2013    2       1       0.3888385       87.47888
2013    2       2       0.4577173       98.76633
2013    2       3       0.4962217       104.6663
2013    2       4       0.49542         104.5018
2013    2       5       0.5832986       117.491
2013    2       6       0.8145994       146.0928
2013    2       7       0.8783798       152.739
2013    3       0       0.7198777       135.2785
2013    3       1       0.5457211       112.4497
2013    3       2       0.4886825       103.79
2013    3       3       0.436672        95.61716
2013    3       4       0.4468498       97.12721
2013    3       5       0.5302998       109.4469
2013    3       6       0.5613286       114.075
2013    3       7       0.5960659       119.8444
2013    4       0       0.4771769       103.2583
2013    4       1       0.3679845       85.20859
2013    4       2       0.2680034       66.2818
2013    4       3       0.3912954       87.51277
2013    4       4       0.4394061       95.81295
2013    4       5       0.4820353       104.1525
2013    4       6       0.5106947       109.0493
2013    4       7       0.6307245       126.5711
2013    5       0       0.5581794       116.5853
2013    5       1       0.5536707       115.5933
2013    5       2       0.6412737       127.8687
2013    5       3       0.6752015       133.2405
2013    5       4       0.5795947       120.8171
2013    5       5       0.5569259       117.5991
2013    5       6       0.7009815       137.1009
2013    5       7       0.8176479       151.48
2013    6       0       0.7286477       141.2063
2013    6       1       0.4888323       107.0693
2013    6       2       0.4315759       97.23962
2013    6       3       0.3846163       89.05141
2013    6       4       0.340972        81.13754
2013    6       5       0.4025664       92.18471
2013    6       6       0.6119462       125.2325
2013    6       7       1.06131         175.4518
2013    7       0       1.130193        182.3228
2013    7       1       1.176156        185.967
2013    7       2       1.242852        190.5561
2013    7       3       1.070402        176.9008
2013    7       4       1.206252        188.2679
2013    7       5       1.153654        183.885
2013    7       6       1.089485        178.3919
2013    7       7       1.306596        195.6148
2013    8       0       1.228247        190.9991
2013    8       1       0.6553504       131.4033
2013    8       2       0.3704965       84.59355
2013    8       3       0.3497756       80.63036
2013    8       4       0.3394102       78.1845
2013    8       5       0.4093504       91.25253
2013    8       6       0.3331363       79.86302
2013    8       7       0.4226417       95.9844
2013    9       0       0.2577896       65.27533
2013    9       1       0.171941        47.23405
2013    9       2       0.1432852       40.88672
2013    9       3       0.1084648       32.87011
2013    9       4       0.1123278       33.73167
2013    9       5       0.1573553       43.94661
2013    9       6       0.2264425       58.6981
2013    9       7       0.2753063       68.36125
2013    10      0       0.2091048       54.9048
2013    10      1       0.1560378       42.82359
2013    10      2       0.1985461       51.77894
2013    10      3       0.2498143       62.20231
2013    10      4       0.3458646       80.4446
2013    10      5       0.4098529       91.76115
2013    10      6       0.600543        121.2588
2013    10      7       0.7884275       146.0293
2013    11      0       0.6545644       129.6068
2013    11      1       0.5025612       107.4765
2013    11      2       0.3968753       90.20389
2013    11      3       0.2997214       72.76045
2013    11      4       0.2069811       54.61768
2013    11      5       0.2407177       61.58341
2013    11      6       0.2990702       73.33808
2013    11      7       0.3509254       82.8968
2013    12      0       0.2855267       70.57808
2013    12      1       0.1932434       51.32844
2013    12      2       0.1655353       45.51184
2013    12      3       0.1600811       44.55231
2013    12      4       0.1412195       40.51611
2013    12      5       0.178845        49.08671
2013    12      6       0.2815614       70.2942
2013    12      7       0.3785559       88.59256
2013    13      0       0.2918202       72.63283
2013    13      1       0.1082766       32.8259
2013    13      2       0.1333222       38.53882
2013    13      3       0.1746991       47.6154
2013    13      4       0.1768276       48.44327
2013    13      5       0.2429434       62.46855
2013    13      6       0.3347746       80.36512
2013    13      7       0.4213644       95.77008
2013    14      0       0.3062633       74.95164
2013    14      1       0.2649818       66.2763
2013    14      2       0.1941972       51.28479
2013    14      3       0.1591519       43.46454
2013    14      4       0.15598         42.94649
2013    14      5       0.1931803       51.52706
2013    14      6       0.3623275       85.35996
2013    14      7       0.6173572       126.4885
2013    15      0       0.4509719       101.1077
2013    15      1       0.32849         79.17239
2013    15      2       0.7396592       142.9392
2013    15      3       0.7412253       143.255
2013    15      4       0.2118146       55.84251
2013    15      5       0.2789906       69.92672
2013    15      6       0.4222156       96.1584
2013    15      7       0.5375266       114.852
2013    16      0       0.4272608       97.28323
2013    16      1       0.24974         63.7186
2013    16      2       0.1958247       52.16262
2013    16      3       0.1655345       45.99909
2013    16      4       0.1662245       46.15646
2013    16      5       0.273401        68.57023
2013    16      6       0.4400018       98.7851
2013    16      7       0.5946781       122.7867
2013    17      0       0.5964792       122.7727
2013    17      1       0.4251044       95.7555
2013    17      2       0.2519405       63.11647
2013    17      3       0.2211611       56.58562
2013    17      4       0.2091601       54.58546
2013    17      5       0.2816428       69.92394
2013    17      6       0.3669832       86.22597
2013    17      7       0.4424121       99.36435
2013    18      0       0.3648269       85.69706
2013    18      1       0.2088032       54.55385
2013    18      2       0.1756357       47.32251
2013    18      3       0.2123573       54.89573
2013    18      4       0.2400885       60.36222
2013    18      5       0.361974        83.16749
2013    18      6       0.577564        116.7088
2013    18      7       0.6371878       125.8821
2013    19      0       0.2889725       70.25432
2013    19      1       0.2710503       65.83739
2013    19      2       0.230753        57.80204
2013    19      3       0.2947973       70.59065
2013    19      4       0.3507264       81.11377
2013    19      5       0.4272617       95.0048
2013    19      6       0.5987679       122.3356
2013    19      7       0.6311213       126.5727
2013    20      0       0.5538252       114.9363
2013    20      1       0.5573605       115.6117
2013    20      2       0.5603433       115.4971
2013    20      3       0.711012        135.3873
2013    20      4       0.7729162       142.4815
2013    20      5       0.8723885       153.4236
2013    20      6       0.8954314       155.6583
2013    20      7       0.9295096       159.6599
2013    21      0       0.6747427       131.9734
2013    21      1       0.5299812       111.628
2013    21      2       0.3106792       74.80468
2013    21      3       0.2054726       53.93924
2013    21      4       0.191952        50.81135
2013    21      5       0.2975168       71.98787
2013    21      6       0.3654274       84.5059
2013    21      7       0.424568        94.76118
2013    22      0       0.4929476       105.2981
2013    22      1       0.3958587       89.20588
2013    22      2       0.3844718       86.89782
2013    22      3       0.3817624       86.20819
2013    22      4       0.4462447       96.90333
2013    22      5       0.5100148       107.4377
2013    22      6       0.7622353       141.1788
2013    22      7       0.786217        143.8183
2013    23      0       0.6108662       121.9023
2013    23      1       0.4419982       97.06442
2013    23      2       0.3811154       87.04013
2013    23      3       0.2962261       71.76664
2013    23      4       0.2693593       66.67728
2013    23      5       0.3015972       72.87667
2013    23      6       0.3723558       85.68632
2013    23      7       0.4182102       93.49078
2013    24      0       0.4461658       98.17133
2013    24      1       0.2705328       67.25236
2013    24      2       0.2885763       70.14335
2013    24      3       0.3863769       87.88546
2013    24      4       0.4575914       100.1218
2013    24      5       0.6489583       127.9735
2013    24      6       1.184077        182.8161
2013    24      7       1.270861        189.5753
2013    25      0       0.8122254       147.7787
2013    25      1       0.7393706       139.4577
2013    25      2       0.7030344       135.2552
2013    25      3       0.5596228       116.1069
2013    25      4       0.4263977       95.15735
2013    25      5       0.485365        104.7997
2013    25      6       0.6079601       123.0333
2013    25      7       0.6622269       130.5806
2013    26      0       0.4315425       96.23788
2013    26      1       0.3313918       78.27062
2013    26      2       0.3058689       73.72465
2013    26      3       0.2650871       66.20825
2013    26      4       0.2483736       63.30328
2013    26      5       0.3020531       73.95407
2013    26      6       0.3670651       86.08389
2013    26      7       0.5029039       108.3469
2013    27      0       0.5965454       121.8819
2013    27      1       0.843181        153.6565
2013    27      2       0.5914677       122.1875
2013    27      3       0.5508269       115.6972
2013    27      4       0.4233268       95.08136
2013    27      5       0.5105645       107.9538
2013    27      6       0.6709191       130.0431
2013    27      7       0.6585931       128.8295
2013    28      0       0.4281906       96.31016
2013    28      1       0.5280812       112.7074
2013    28      2       0.4556219       99.95956
2013    28      3       0.5369732       111.9352
2013    28      4       0.4990115       106.8954
2013    28      5       0.4730021       104.1418
2013    28      6       0.6257706       127.7378
2013    28      7       0.5554901       117.8221
2013    29      0       0.3030953       73.91966
2013    29      1       0.2540878       63.97311
2013    29      2       0.2865137       71.0028
2013    29      3       0.2436482       61.89804
2013    29      4       0.2481234       62.25037
2013    29      5       0.3159426       75.4254
2013    29      6       0.3510634       83.0579
2013    29      7       0.4496866       99.62586
2013    30      0       0.5090887       108.3092
2013    30      1       0.5668018       116.941
2013    30      2       0.6362834       126.1917
2013    30      3       0.8115159       148.0503
2013    30      4       0.7777282       144.6074
2013    30      5       0.8857899       156.8329
2013    30      6       1.082654        176.2058
2013    30      7       1.113807        179.541
2013    31      0       0.961916        166.1571
2013    31      1       0.7881543       147.6025
2013    31      2       0.8023588       148.6053
2013    31      3       0.7718371       143.9711
2013    31      4       0.6693498       130.8592
2013    31      5       0.6352665       126.1539
2013    31      6       0.9302623       160.6096
2013    31      7       1.076049        174.1942
2014    1       0       0.6363154       126.3816
2014    1       1       0.552211        114.8134
2014    1       2       0.4199006       93.41643
2014    1       3       0.406318        91.3025
2014    1       4       0.4331663       96.48054
2014    1       5       0.5849567       120.1032
2014    1       6       0.6560345       130.6253
2014    1       7       0.7078511       137.9293
2014    2       0       0.70519         137.8148
2014    2       1       0.6176984       126.3471
2014    2       2       0.4975541       108.4324
2014    2       3       0.3221904       77.76954
2014    2       4       0.3127648       76.09189
2014    2       5       0.4571593       101.8432
2014    2       6       0.6296161       127.8792
2014    2       7       0.715425        139.2085
2014    3       0       0.6607773       132.1632
2014    3       1       0.6929612       136.8583
2014    3       2       0.5263681       112.9003
2014    3       3       0.4357238       98.48817
2014    3       4       0.2898446       72.09894
2014    3       5       0.4313385       97.76393
2014    3       6       0.6060007       124.9204
2014    3       7       0.7450913       142.8402
2014    4       0       1.076083        176.6574
2014    4       1       1.471887        205.9846
2014    4       2       1.264226        191.8876
2014    4       3       1.162002        181.3413
2014    4       4       1.101409        174.8088
2014    4       5       1.032718        167.5003
2014    4       6       1.058875        169.719
2014    4       7       0.7019427       134.0684
2014    5       0       0.5967057       120.634
2014    5       1       0.5391396       111.9895
2014    5       2       0.6207262       123.0144
2014    5       3       0.9465371       160.1687
2014    5       4       0.7263309       136.4732
2014    5       5       0.4148791       92.80794
2014    5       6       0.2938639       72.68353
2014    5       7       0.4075584       94.00926
2014    6       0       0.3558742       84.52751
2014    6       1       0.407903        93.40875
2014    6       2       0.3948405       90.98687
2014    6       3       0.3681812       86.41747
2014    6       4       0.3608761       85.05992
2014    6       5       0.4173834       95.29938
2014    6       6       0.4977696       109.0241
2014    6       7       0.4962323       108.7462
2014    7       0       0.301033        74.13327
2014    7       1       0.2631151       66.4099
2014    7       2       0.2539226       64.44731
2014    7       3       0.2547993       64.8368
2014    7       4       0.2484467       63.66533
2014    7       5       0.3170725       77.06536
2014    7       6       0.4150702       94.68853
2014    7       7       0.4238828       96.32654
2014    8       0       0.2790489       69.34134
2014    8       1       0.2640694       66.13577
2014    8       2       0.2334104       59.80305
2014    8       3       0.2510947       63.18673
2014    8       4       0.3652647       84.31721
2014    8       5       0.5594596       115.4591
2014    8       6       0.614134        123.7914
2014    8       7       0.4687716       102.2933
2014    9       0       0.3081744       73.84983
2014    9       1       0.2355748       59.51011
2014    9       2       0.2413487       60.52329
2014    9       3       0.2121282       54.5941
2014    9       4       0.1892341       49.86926
2014    9       5       0.2349899       59.40877
2014    9       6       0.2647246       65.46438
2014    9       7       0.2230615       57.18982
2014    10      0       0.1758984       47.11996
2014    10      1       0.1648915       44.62303
2014    10      2       0.1719483       46.08675
2014    10      3       0.1749494       46.82245
2014    10      4       0.176764        47.40828
2014    10      5       0.2342765       59.56794
2014    10      6       0.306774        73.71233
2014    10      7       0.2663191       66.08847
2014    11      0       0.1470741       41.27019
2014    11      1       0.1471607       40.59248
2014    11      2       0.1507192       41.62989
2014    11      3       0.1787046       47.39479
2014    11      4       0.1900858       49.7335
2014    11      5       0.2340631       58.74719
2014    11      6       0.3474043       80.27558
2014    11      7       0.3342615       78.69929
2014    12      0       0.2212529       56.21222
2014    12      1       0.1644179       44.44573
2014    12      2       0.1446503       40.05289
2014    12      3       0.1628811       43.65452
2014    12      4       0.15839         42.67018
2014    12      5       0.2292736       57.31187
2014    12      6       0.3414372       78.24748
2014    12      7       0.4135322       90.47309
2014    13      0       0.3407223       78.45832
2014    13      1       0.3739846       84.20514
2014    13      2       0.332387        76.92928
2014    13      3       0.2965926       70.68974
2014    13      4       0.3155019       74.57521
2014    13      5       0.3493165       81.38637
2014    13      6       0.4055453       91.66357
2014    13      7       0.4718464       102.0409
2014    14      0       0.368926        84.46215
2014    14      1       0.3061647       73.60618
2014    14      2       0.2712261       67.16396
2014    14      3       0.2885069       70.46854
2014    14      4       0.4887793       104.472
2014    14      5       0.4756196       102.1749
2014    14      6       0.4772449       102.4837
2014    14      7       0.4787494       102.5207
2014    15      0       0.4202906       92.67342
2014    15      1       0.3483904       80.86171
2014    15      2       0.3489614       81.5006
2014    15      3       0.3439675       80.74472
2014    15      4       0.3213887       76.45261
2014    15      5       0.4211227       94.25174
2014    15      6       0.5083977       108.1178
2014    15      7       0.308937        74.90318
2014    16      0       0.1663708       45.36539
2014    16      1       0.1433825       39.81327
2014    16      2       0.1823016       48.03005
2014    16      3       0.2034636       52.16578
2014    16      4       0.2309988       57.53487
2014    16      5       0.3062607       72.15978
2014    16      6       0.3764311       85.39771
2014    16      7       0.4471169       97.065
2014    17      0       0.3227496       74.68632
2014    17      1       0.4383873       95.0231
2014    17      2       0.6434509       125.8311
2014    17      3       0.4795305       102.0135
2014    17      4       0.2879801       70.07112
2014    17      5       0.3955061       88.62708
2014    17      6       0.4330098       95.02213
2014    17      7       0.5635842       115.9499
2014    18      0       0.6784509       131.6198
2014    18      1       0.6233678       125.7851
2014    18      2       0.7093124       137.3208
2014    18      3       1.029814        170.7565
2014    18      4       1.238674        186.9897
2014    18      5       1.277954        189.9154
2014    18      6       1.067603        174.7941
2014    18      7       0.8771193       157.3024
2014    19      0       0.6669874       132.3637
2014    19      1       0.7114975       137.5924
2014    19      2       0.7250703       139.2582
2014    19      3       0.5426887       113.9613
2014    19      4       0.5203863       110.2075
2014    19      5       0.7162428       137.3163
2014    19      6       0.8525883       153.7935
2014    19      7       1.049592        173.4311
2014    20      0       0.952862        164.503
2014    20      1       0.9076872       159.7225
2014    20      2       1.105155        179.1021
2014    20      3       1.336013        198.6495
2014    20      4       1.248354        193.9388
2014    20      5       1.324357        197.8149
2014    20      6       1.212991        190.36
2014    20      7       1.220067        190.7219
2014    21      0       1.007907        172.5515
2014    21      1       0.7809686       147.6499
2014    21      2       0.651941        130.8122
2014    21      3       0.5707867       119.9637
2014    21      4       0.5239693       113.0962
2014    21      5       0.6727736       135.7074
2014    21      6       0.9049741       164.2308
2014    21      7       0.9400989       168.4035
2014    22      0       0.5871705       124.4839
2014    22      1       0.5250563       114.7587
2014    22      2       0.5182654       113.691
2014    22      3       0.514453        112.9176
2014    22      4       0.4851585       108.0885
2014    22      5       0.6061326       126.7885
2014    22      6       0.8472684       158.5354
2014    22      7       0.9990107       174.8147
2014    23      0       0.9156176       166.5861
2014    23      1       0.6916694       139.4078
2014    23      2       0.6013016       126.4582
2014    23      3       0.5407593       116.9949
2014    23      4       0.4790239       107.024
2014    23      5       0.6846864       137.6465
2014    23      6       0.972602        170.7427
2014    23      7       1.141561        186.743
2014    24      0       1.065748        180.0983
2014    24      1       1.037773        177.37
2014    24      2       0.6768556       136.3485
2014    24      3       0.5188196       112.7493
2014    24      4       0.4568885       102.5636
2014    24      5       0.5476065       117.8249
2014    24      6       0.6769472       136.7903
2014    24      7       0.7902941       151.7191
2014    25      0       0.8299539       156.9983
2014    25      1       0.6903667       139.6104
2014    25      2       0.4184821       97.20125
2014    25      3       0.3778715       89.46736
2014    25      4       0.4320745       98.98325
2014    25      5       0.5070136       111.8258
2014    25      6       0.6887905       139.1133
2014    25      7       0.7902999       152.8465
2014    26      0       0.6336212       132.392
2014    26      1       0.3939677       93.37981
2014    26      2       0.5179999       114.4815
2014    26      3       0.3991322       93.76198
2014    26      4       0.4885354       108.8232
2014    26      5       0.7065154       140.4078
2014    26      6       0.8977241       163.2649
2014    26      7       1.114776        183.9336
2014    27      0       1.126121        185.0909
2014    27      1       1.059267        178.9942
2014    27      2       0.9548804       167.6076
2014    27      3       1.072214        176.9014
2014    27      4       0.9993306       169.0583
2014    27      5       0.5381302       114.3483
2014    27      6       0.776393        145.7295
2014    27      7       0.8970841       158.8244
2014    28      0       0.7855971       146.8524
2014    28      1       0.6405849       128.2512
2014    28      2       0.6282526       125.2843
2014    28      3       0.6355311       127.5843
2014    28      4       0.6079829       125.085
2014    28      5       0.5887221       122.8551
2014    28      6       0.6394501       130.2032
2014    28      7       0.7658254       146.1754
2014    29      0       0.6054528       124.2346
2014    29      1       0.4846433       104.8584
2014    29      2       0.49952         106.8837
2014    29      3       0.4140029       93.59025
2014    29      4       0.5231782       111.0906
2014    29      5       0.5946908       121.3104
2014    29      6       0.472722        103.1347
2014    29      7       0.3943945       90.14625
2014    30      0       0.2719825       67.65411
2014    30      1       0.1992157       52.5597
2014    30      2       0.1714602       46.58035
2014    30      3       0.1493458       41.86551
2014    30      4       0.2254782       58.37719
2014    30      5       0.2477876       63.14032
2014    30      6       0.3081015       75.09743
2014    30      7       0.3031024       74.04599
2014    31      0       0.2146425       56.32969
2014    31      1       0.1653408       45.6188
2014    31      2       0.2013664       53.30207
2014    31      3       0.1852375       49.76191
2014    31      4       0.1872136       50.35864
2014    31      5       0.2208838       57.44121
2014    31      6       0.3033047       73.6108
2014    31      7       0.3565346       83.45754
2015    1       0       1.226903        188.8477
2015    1       1       1.228444        188.1289
2015    1       2       1.264601        190.6759
2015    1       3       1.183568        184.9293
2015    1       4       1.217596        187.1133
2015    1       5       1.246408        188.5651
2015    1       6       1.084145        174.8651
2015    1       7       1.107215        176.848
2015    2       0       1.195097        184.4092
2015    2       1       0.9178356       159.9707
2015    2       2       0.8181566       149.0165
2015    2       3       0.5927305       120.8709
2015    2       4       0.4579527       100.9721
2015    2       5       0.427079        96.43907
2015    2       6       0.4611985       101.3193
2015    2       7       0.4690674       101.5761
2015    3       0       0.4370375       96.43784
2015    3       1       0.3744308       86.51102
2015    3       2       0.4413832       97.75744
2015    3       3       0.5494105       114.9004
2015    3       4       0.7747929       144.8177
2015    3       5       0.9154451       161.1606
2015    3       6       1.05084         174.4951
2015    3       7       1.318526        195.9068
2015    4       0       1.420839        203.0288
2015    4       1       1.423438        203.475
2015    4       2       1.449835        204.4179
2015    4       3       1.185603        184.9936
2015    4       4       0.9724023       165.2713
2015    4       5       1.215036        185.7044
2015    4       6       1.303655        192.6685
2015    4       7       1.286309        191.7955
2015    5       0       1.168595        182.8999
2015    5       1       1.031696        171.1308
2015    5       2       0.8936429       156.8531
2015    5       3       0.9091308       157.6748
2015    5       4       0.7367521       138.3984
2015    5       5       0.6556654       127.6803
2015    5       6       0.814847        147.2366
2015    5       7       0.887264        155.521
2015    6       0       0.7021063       133.9819
2015    6       1       0.5328238       110.4531
2015    6       2       0.4592766       99.53904
2015    6       3       0.5094672       106.3523
2015    6       4       0.5155297       107.2655
2015    6       5       0.6993174       132.9256
2015    6       6       0.7431421       138.6366
2015    6       7       0.7549705       139.5195
2015    7       0       0.3867403       87.95718
2015    7       1       0.2266278       58.10615
2015    7       2       0.1541595       42.85009
2015    7       3       0.1491501       41.77751
2015    7       4       0.1290744       37.25427
2015    7       5       0.2282058       58.17846
2015    7       6       0.5553357       112.9683
2015    7       7       0.5925505       117.8456
2015    8       0       0.3889082       87.56707
2015    8       1       0.2412348       60.15483
2015    8       2       0.1520271       41.85412
2015    8       3       0.1709019       45.86492
2015    8       4       0.2232544       56.02677
2015    8       5       0.3074883       72.1887
2015    8       6       0.4271867       93.25746
2015    8       7       0.5374571       110.1756
2015    9       0       0.6978644       131.8602
2015    9       1       0.646449        125.3657
2015    9       2       0.6351625       123.9684
2015    9       3       0.5433392       111.6929
2015    9       4       0.6021466       119.9616
2015    9       5       0.8130549       145.0921
2015    9       6       0.7704161       140.8122
2015    9       7       0.4752459       102.1554
2015    10      0       0.3416607       80.30233
2015    10      1       0.2317396       59.42546
2015    10      2       0.1786831       48.381
2015    10      3       0.1540607       42.88699
2015    10      4       0.1608474       44.30484
2015    10      5       0.2382106       60.45239
2015    10      6       0.3916969       88.84078
2015    10      7       0.4291979       95.15976
2015    11      0       0.2964908       72.02251
2015    11      1       0.1855876       49.77989
2015    11      2       0.1421608       40.34593
2015    11      3       0.1074043       32.40153
2015    11      4       0.08622784      27.43594
2015    11      5       0.1378357       39.36724
2015    11      6       0.2205688       57.19297
2015    11      7       0.3012808       73.15827
2015    12      0       0.2765          67.4577
2015    12      1       0.2949563       69.76076
2015    12      2       0.5354663       109.5145
2015    12      3       0.6314659       124.6065
2015    12      4       0.7104866       135.5601
2015    12      5       0.4995142       106.4386
2015    12      6       0.556803        114.9236
2015    12      7       0.5921702       119.9844
2015    13      0       0.6374784       125.9571
2015    13      1       0.6023998       121.9449
2015    13      2       0.4280926       95.56467
2015    13      3       0.3743851       86.58873
2015    13      4       0.3651184       85.03296
2015    13      5       0.5475221       114.1498
2015    13      6       0.9091019       157.9781
2015    13      7       1.027564        168.9667
2015    14      0       1.053149        171.168
2015    14      1       1.029142        169.0465
2015    14      2       0.843501        150.589
2015    14      3       0.8153629       146.9547
2015    14      4       0.6285586       123.9592
2015    14      5       0.7771156       142.6318
2015    14      6       0.6620504       127.2551
2015    14      7       0.6402532       124.1984
2015    15      0       0.5826138       116.5155
2015    15      1       0.5470342       111.5258
2015    15      2       0.5082031       105.694
2015    15      3       0.4401631       95.31079
2015    15      4       0.2649776       64.83734
2015    15      5       0.3267938       76.29532
2015    15      6       0.401734        89.87867
2015    15      7       0.4754796       101.7409
2015    16      0       0.3804597       85.96159
2015    16      1       0.3890662       87.44865
2015    16      2       0.3665077       82.83773
2015    16      3       0.4524214       96.21282
2015    16      4       0.590558        116.9808
2015    16      5       0.7421757       136.8698
2015    16      6       0.8704932       151.8758
2015    16      7       0.8553637       150.8121
2015    17      0       0.7835099       143.3534
2015    17      1       0.5737601       117.2357
2015    17      2       0.4300615       95.7097
2015    17      3       0.3653417       84.7356
2015    17      4       0.3740712       86.21317
2015    17      5       0.4887677       105.4427
2015    17      6       0.7077546       136.1577
2015    17      7       0.7858291       145.6427
2015    18      0       0.6274737       125.4079
2015    18      1       0.4346653       95.4922
2015    18      2       0.3659988       83.64448
2015    18      3       0.4760766       101.7035
2015    18      4       0.4965128       104.998
2015    18      5       0.4213266       94.07373
2015    18      6       0.5786346       119.6942
2015    18      7       0.7672348       144.1611
2015    19      0       1.049708        174.3356
2015    19      1       1.177115        185.86
2015    19      2       1.09728         178.2885
2015    19      3       1.645767        215.1619
2015    19      4       1.691557        216.913
2015    19      5       1.22482         187.2698
2015    19      6       1.08355         173.8041
2015    19      7       0.8422708       150.4972
2015    20      0       0.7542254       140.8937
2015    20      1       0.5259849       110.9237
2015    20      2       0.3086841       73.3056
2015    20      3       0.2245522       57.73085
2015    20      4       0.2230333       57.14923
2015    20      5       0.3418084       80.02766
2015    20      6       0.4400538       97.08813
2015    20      7       0.668976        131.1021
2015    21      0       0.4667442       102.1248
2015    21      1       0.248915        62.21095
2015    21      2       0.2702489       65.95401
2015    21      3       0.3047834       72.10746
2015    21      4       0.3116784       73.42331
2015    21      5       0.4599167       99.55225
2015    21      6       0.7104484       134.8323
2015    21      7       0.6635823       129.0724
2015    22      0       0.5108332       107.9005
2015    22      1       0.4204104       93.84238
2015    22      2       0.3842213       88.02972
2015    22      3       0.3512816       82.25795
2015    22      4       0.2342258       60.0005
2015    22      5       0.3136228       75.28809
2015    22      6       0.449516        98.98742
2015    22      7       0.6689362       131.2828
2015    23      0       0.6319739       126.9732
2015    23      1       0.46039         101.7923
2015    23      2       0.4505396       99.91439
2015    23      3       0.4691808       102.6699
2015    23      4       0.4474254       99.28915
2015    23      5       0.6811607       133.4783
2015    23      6       0.9010412       158.9032
2015    23      7       0.9557216       164.2935
2015    24      0       0.8352439       151.3034
2015    24      1       0.6286862       125.2077
2015    24      2       0.6060567       122.2852
2015    24      3       0.6219661       124.6098
2015    24      4       0.6481967       127.7574
2015    24      5       0.7242868       137.7496
2015    24      6       0.8164933       148.5255
2015    24      7       0.8251494       149.4099
2015    25      0       0.5486069       114.1591
2015    25      1       0.3594411       83.28911
2015    25      2       0.4614254       100.4062
2015    25      3       0.4008591       90.56697
2015    25      4       0.2989833       72.37248
2015    25      5       0.314555        75.40064
2015    25      6       0.384058        88.16925
2015    25      7       0.3928934       90.08265
2015    26      0       0.1876289       50.01329
2015    26      1       0.1707464       45.63201
2015    26      2       0.1874125       49.35967
2015    26      3       0.1781002       48.04275
2015    26      4       0.1722412       47.1935
2015    26      5       0.2838912       70.36441
2015    26      6       0.3629214       85.28223
2015    26      7       0.3865667       89.60468
2015    27      0       0.2663513       66.63122
2015    27      1       0.1813472       48.16412
2015    27      2       0.2346457       59.3355
2015    27      3       0.4837749       102.8227
2015    27      4       0.6937768       133.1279
2015    27      5       0.7273899       137.9803
2015    27      6       0.820998        149.0708
2015    27      7       0.9363833       161.9127
2015    28      0       0.9837772       166.1105
2015    28      1       0.8910457       156.4792
2015    28      2       0.7008128       134.7115
2015    28      3       0.6201974       124.1324
2015    28      4       0.632935        125.7753
2015    28      5       0.7009363       135.692
2015    28      6       0.8217794       151.1668
2015    28      7       0.8020687       149.461
2015    29      0       0.5553212       116.8907
2015    29      1       0.4202695       95.5294
2015    29      2       0.4010262       91.81372
2015    29      3       0.442213        98.083
2015    29      4       0.5105281       108.6891
2015    29      5       0.7126405       136.9814
2015    29      6       0.9868955       167.4414
2015    29      7       1.048497        172.6099
2015    30      0       0.65934         130.7492
2015    30      1       0.4717205       102.6161
2015    30      2       0.3981882       89.98074
2015    30      3       0.3234887       76.6023
2015    30      4       0.3980943       89.57125
2015    30      5       0.5913902       119.5775
2015    30      6       0.7779757       144.171
2015    30      7       0.8317754       150.6026
2015    31      0       0.7465211       141.1208
2015    31      1       0.5806078       119.7291
2015    31      2       0.4138921       93.75728
2015    31      3       0.2915322       71.61319
2015    31      4       0.2799201       69.33653
2015    31      5       0.4070995       92.55003
2015    31      6       0.6928827       134.6579
2015    31      7       0.8728098       155.5639
2016    1       0       0.3856674       87.03528
2016    1       1       0.4285587       94.04477
2016    1       2       0.39805         88.97783
2016    1       3       0.3706514       84.16907
2016    1       4       0.4588773       98.96451
2016    1       5       0.5519929       113.9224
2016    1       6       0.6674204       130.0536
2016    1       7       0.7321757       139.0385
2016    2       0       0.5420919       113.9085
2016    2       1       0.4461029       98.78519
2016    2       2       0.3708115       86.53124
2016    2       3       0.3066072       74.67165
2016    2       4       0.285672        70.68479
2016    2       5       0.3836481       89.05449
2016    2       6       0.5295154       113.455
2016    2       7       0.6425778       129.5661
2016    3       0       0.4622374       103.386
2016    3       1       0.277287        69.24121
2016    3       2       0.3087371       75.12464
2016    3       3       0.3214271       76.87687
2016    3       4       0.308651        75.46774
2016    3       5       0.4274312       96.66699
2016    3       6       0.5523628       116.292
2016    3       7       0.6003871       122.3292
2016    4       0       0.6524072       127.9884
2016    4       1       0.8745966       154.5337
2016    4       2       0.8553538       154.0957
2016    4       3       0.4292457       96.06606
2016    4       4       0.3300665       78.6275
2016    4       5       0.3190052       76.20958
2016    4       6       0.3898982       88.56382
2016    4       7       0.4732631       101.7324
2016    5       0       0.5620512       114.7688
2016    5       1       0.6381641       125.5636
2016    5       2       0.7489027       140.0825
2016    5       3       0.7028413       136.2997
2016    5       4       0.8088806       149.6553
2016    5       5       0.9462403       164.0966
2016    5       6       1.065165        175.983
2016    5       7       1.148894        183.4576
2016    6       0       1.119999        181.4981
2016    6       1       1.196117        188.4928
2016    6       2       1.256234        193.4116
2016    6       3       1.211288        189.7814
2016    6       4       1.313047        196.3573
2016    6       5       1.528519        209.6067
2016    6       6       1.369442        199.4275
2016    6       7       1.172162        184.6245
2016    7       0       0.7923239       147.7087
2016    7       1       0.6726465       132.6297
2016    7       2       0.56771         117.4667
2016    7       3       0.3004261       73.2098
2016    7       4       0.1746289       47.65247
2016    7       5       0.2130914       55.6136
2016    7       6       0.4459077       98.49421
2016    7       7       0.5784075       118.549
2016    8       0       0.4238353       95.45705
2016    8       1       0.2171656       56.54786
2016    8       2       0.16034         43.60309
2016    8       3       0.2235574       56.68417
2016    8       4       0.2925218       70.08808
2016    8       5       0.367838        83.93224
2016    8       6       0.463841        100.1507
2016    8       7       0.4740101       102.4372
2016    9       0       0.3836575       87.30956
2016    9       1       0.2330482       59.6057
2016    9       2       0.2215547       56.93474
2016    9       3       0.2665218       65.21395
2016    9       4       0.3004255       71.76641
2016    9       5       0.4459161       97.81972
2016    9       6       0.8771287       156.1176
2016    9       7       0.9740732       166.1646
2016    10      0       0.8037607       148.3337
2016    10      1       0.6566082       129.9368
2016    10      2       0.6429725       127.7389
2016    10      3       0.5756169       118.3894
2016    10      4       0.5609514       116.4015
2016    10      5       0.7210235       138.0294
2016    10      6       0.8308321       151.465
2016    10      7       0.8608688       154.5153
2016    11      0       0.7290383       139.1397
2016    11      1       0.6766117       132.1623
2016    11      2       0.6716471       130.9872
2016    11      3       0.7617766       141.3899
2016    11      4       0.7624929       142.5005
2016    11      5       0.7783598       144.4734
2016    11      6       0.7971741       146.7068
2016    11      7       0.7798476       144.8269
2016    12      0       0.7143687       136.9107
2016    12      1       0.6953182       134.8224
2016    12      2       0.679004        132.5602
2016    12      3       0.7233906       138.2914
2016    12      4       0.8773209       156.2796
2016    12      5       1.050479        173.0779
2016    12      6       1.092524        177.0242
2016    12      7       0.9993564       168.6221
2016    13      0       0.8413322       153.2415
2016    13      1       0.7853648       147.0935
2016    13      2       0.7458374       142.1766
2016    13      3       0.7651026       143.8917
2016    13      4       0.7367506       140.2642
2016    13      5       0.7363072       140.6321
2016    13      6       0.8237092       150.7058
2016    13      7       1.035509        172.1682
2016    14      0       0.7720655       144.3296
2016    14      1       0.6948397       134.6376
2016    14      2       0.6302105       125.8294
2016    14      3       0.7598203       142.1532
2016    14      4       0.7605975       142.7311
2016    14      5       0.9038634       158.5986
2016    14      6       1.232886        187.801
2016    14      7       1.005399        169.6007
2016    15      0       0.9659633       166.8784
2016    15      1       0.8217425       151.9236
2016    15      2       0.8482523       154.3965
2016    15      3       0.9828455       167.7572
2016    15      4       1.198401        186.0438
2016    15      5       1.348462        196.2685
2016    15      6       1.165831        182.6534
2016    15      7       1.081819        174.7404
2016    16      0       1.190432        183.3925
2016    16      1       1.20733         184.4171
2016    16      2       0.7940246       145.6157
2016    16      3       0.8501031       151.6688
2016    16      4       0.7273377       137.3595
2016    16      5       0.6058983       121.3039
2016    16      6       0.6076863       121.9332
2016    16      7       0.5922715       120.1415
2016    17      0       0.2446271       61.90686
2016    17      1       0.1418469       39.4983
2016    17      2       0.1762248       46.55118
2016    17      3       0.3329809       77.60931
2016    17      4       0.4120036       90.96782
2016    17      5       0.755512        139.5742
2016    17      6       1.034209        168.8419
2016    17      7       0.9780807       163.6541
2016    18      0       0.8002068       145.6734
2016    18      1       0.73982         139.1372
2016    18      2       0.8563617       152.432
2016    18      3       0.7915733       145.3516
2016    18      4       0.894668        155.4604
2016    18      5       0.890609        154.8075
2016    18      6       0.746745        138.1568
2016    18      7       0.430447        94.51465
2016    19      0       0.1944132       51.31293
2016    19      1       0.1328827       37.91886
2016    19      2       0.1795661       47.62825
2016    19      3       0.2301727       57.92939
2016    19      4       0.346201        79.1918
2016    19      5       0.6362011       123.4816
2016    19      6       0.78451         142.0696
2016    19      7       0.8743094       152.1466
2016    20      0       0.7830167       142.5997
2016    20      1       0.6202282       122.7174
2016    20      2       0.524862        109.4262
2016    20      3       0.4176432       92.85173
2016    20      4       0.2838399       69.21772
2016    20      5       0.3310826       78.11574
2016    20      6       0.46867         101.8265
2016    20      7       0.5392589       113.3548
2016    21      0       0.4193621       94.97126
2016    21      1       0.165392        45.86599
2016    21      2       0.1439862       40.77579
2016    21      3       0.1481173       41.17179
2016    21      4       0.2279921       58.51407
2016    21      5       0.2974466       72.27054
2016    21      6       0.4079336       91.74453
2016    21      7       0.4586759       99.937
2016    22      0       0.4633406       100.4701
2016    22      1       0.3407897       80.03775
2016    22      2       0.2013123       52.93704
2016    22      3       0.4275226       96.51455
2016    22      4       0.3522307       82.82793
2016    22      5       0.4514686       99.49809
2016    22      6       0.6303368       125.8011
2016    22      7       0.8951454       157.187
2016    23      0       0.6819973       132.6284
2016    23      1       0.5834202       118.9975
2016    23      2       0.6316269       125.8544
2016    23      3       0.4943282       106.0776
2016    23      4       0.4729865       103.2497
2016    23      5       0.5952136       120.8533
2016    23      6       0.5564137       115.6215
2016    23      7       0.6543768       129.1269
2016    24      0       0.5514794       115.5973
2016    24      1       0.4388571       97.56968
2016    24      2       0.5196377       109.8956
2016    24      3       0.3400304       79.84799
2016    24      4       0.2251961       57.72048
2016    24      5       0.4020556       89.40683
2016    24      6       0.581079        116.9837
2016    24      7       0.8211599       146.9059
2016    25      0       0.6378134       125.1372
2016    25      1       0.3715935       84.38398
2016    25      2       0.3397025       78.83753
2016    25      3       0.4163761       92.0834
2016    25      4       0.6390925       125.3813
2016    25      5       0.8206596       148.9685
2016    25      6       0.9704855       165.8007
2016    25      7       1.006065        169.8798
2016    26      0       0.8638569       156.3536
2016    26      1       0.580998        120.9548
2016    26      2       0.5255742       112.1184
2016    26      3       0.812902        151.163
2016    26      4       0.7744869       147.4437
2016    26      5       0.7367345       143.019
2016    26      6       0.7825462       149.3275
2016    26      7       0.9655418       169.3901
2016    27      0       0.9431978       167.3685
2016    27      1       0.5835112       123.826
2016    27      2       0.4499775       102.5557
2016    27      3       0.4847056       107.8822
2016    27      4       0.543113        116.287
2016    27      5       0.6613692       133.3734
2016    27      6       0.7653848       147.1992
2016    27      7       0.9014312       162.9497
2016    28      0       0.6891823       138.2101
2016    28      1       0.402505        93.65675
2016    28      2       0.3410252       82.20572
2016    28      3       0.3294898       80.16806
2016    28      4       0.3109179       76.46759
2016    28      5       0.38812         90.88802
2016    28      6       0.5837957       123.0583
2016    28      7       0.87173         160.3989
2016    29      0       0.8253932       155.8916
2016    29      1       0.5420009       118.1151
2016    29      2       0.3375081       82.3347
2016    29      3       0.2511925       64.83644
2016    29      4       0.2661792       67.55026
2016    29      5       0.4752417       105.3122
2016    29      6       0.8276481       153.2944
2016    29      7       0.9958459       170.7782
2016    30      0       0.8808658       159.199
2016    30      1       0.6848063       135.4132
2016    30      2       0.6558264       131.0359
2016    30      3       0.657586        129.7448
2016    30      4       0.7036074       135.8953
2016    30      5       1.003154        168.6907
2016    30      6       1.172741        183.5001
2016    30      7       1.055628        172.8567
2016    31      0       0.9580276       164.3452
2016    31      1       0.4826024       105.0591
2016    31      2       0.4466973       98.69715
2016    31      3       0.5728318       115.566
2016    31      4       0.6127302       122.6653
2016    31      5       0.8326004       150.503
2016    31      6       0.9947353       166.9314
2016    31      7       0.7327979       137.7417
2017    1       0       0.5608233       115.0717
2017    1       1       0.3596352       83.03886
2017    1       2       0.3525925       81.73492
2017    1       3       0.4149403       92.29386
2017    1       4       0.357565        82.39915
2017    1       5       0.5125599       107.5399
2017    1       6       0.5071697       107.256
2017    1       7       0.4591726       100.1992
2017    2       0       0.3670263       84.1805
2017    2       1       0.3591374       82.53364
2017    2       2       0.3724977       85.42053
2017    2       3       0.4687773       100.457
2017    2       4       0.6066288       120.4796
2017    2       5       0.9313698       159.5011
2017    2       6       0.9792483       165.4473
2017    2       7       0.947874        163.2721
2017    3       0       0.8404149       152.4876
2017    3       1       0.8483587       154.1931
2017    3       2       0.6186843       125.6422
2017    3       3       0.6851766       134.5485
2017    3       4       0.6657828       132.0809
2017    3       5       0.7205752       138.7114
2017    3       6       0.7347588       140.8256
2017    3       7       0.860981        155.468
2017    4       0       0.8165782       149.7507
2017    4       1       0.7629482       143.1891
2017    4       2       0.7755043       144.3156
2017    4       3       0.7356823       138.6284
2017    4       4       1.110397        177.1031
2017    4       5       1.214687        185.8263
2017    4       6       1.242522        187.6385
2017    4       7       1.273633        190.327
2017    5       0       1.047258        169.9132
2017    5       1       0.8384707       149.0794
2017    5       2       0.5112963       108.0829
2017    5       3       0.3518231       82.2291
2017    5       4       0.4615978       99.99526
2017    5       5       0.4915826       104.9567
2017    5       6       0.5802333       118.2935
2017    5       7       0.5832271       119.1492
2017    6       0       0.4269844       95.71144
2017    6       1       0.3203376       77.44052
2017    6       2       0.2653303       67.1902
2017    6       3       0.2610473       66.21501
2017    6       4       0.2801851       69.71527
2017    6       5       0.3344616       79.96871
2017    6       6       0.4565324       101.7664
2017    6       7       0.5559645       117.5377
2017    7       0       0.4921846       107.7469
2017    7       1       0.3444579       81.63604
2017    7       2       0.3288168       78.31146
2017    7       3       0.3612421       84.53935
2017    7       4       0.3021923       73.75373
2017    7       5       0.355589        84.02343
2017    7       6       0.6986888       136.4744
2017    7       7       0.6559832       130.0653
2017    8       0       0.5778778       118.3578
2017    8       1       0.562401        116.1914
2017    8       2       0.6322147       125.6736
2017    8       3       0.6640942       129.9719
2017    8       4       0.5319416       111.8432
2017    8       5       0.5929415       120.5771
2017    8       6       0.7417067       140.0101
2017    8       7       0.6598656       130.1571
2017    9       0       0.3670259       85.33763
2017    9       1       0.2478916       62.52088
2017    9       2       0.2180357       56.4124
2017    9       3       0.2289415       58.14829
2017    9       4       0.2579377       63.12142
2017    9       5       0.3705127       84.52276
2017    9       6       0.3675173       85.0345
2017    9       7       0.4167711       93.6076
2017    10      0       0.3744319       86.25713
2017    10      1       0.3337547       78.62253
2017    10      2       0.3229166       76.50577
2017    10      3       0.2617203       64.62075
2017    10      4       0.3175496       74.7901
2017    10      5       0.533006        110.2056
2017    10      6       0.5188849       108.4072
2017    10      7       0.4355288       95.81624
2017    11      0       0.2582527       64.46321
2017    11      1       0.1417104       40.16431
2017    11      2       0.2427905       61.20894
2017    11      3       0.4909928       104.3764
2017    11      4       0.5980121       119.9419
2017    11      5       0.7265789       136.0159
2017    11      6       0.834812        148.5135
2017    11      7       0.9465235       159.5822
2017    12      0       0.8500759       149.2913
2017    12      1       0.790481        142.9332
2017    12      2       0.7449837       138.0172
2017    12      3       0.769834        140.5864
2017    12      4       0.8340455       147.5663
2017    12      5       0.928464        156.6796
2017    12      6       0.7780182       141.2605
2017    12      7       0.7337337       136.2649
2017    13      0       0.5266652       109.1586
2017    13      1       0.3762362       85.04882
2017    13      2       0.2906515       70.5997
2017    13      3       0.1962066       52.08207
2017    13      4       0.1481385       41.67606
2017    13      5       0.1695878       46.64054
2017    13      6       0.1924061       51.58392
2017    13      7       0.1889901       51.01256
2017    14      0       0.125722        36.95208
2017    14      1       0.09631352      29.58725
2017    14      2       0.1426111       40.37729
2017    14      3       0.1793941       48.60304
2017    14      4       0.1878019       50.44628
2017    14      5       0.1934072       51.73246
2017    14      6       0.2431584       62.85704
2017    14      7       0.3005533       74.85333
2017    15      0       0.2593162       66.7313
2017    15      1       0.1708735       47.78292
2017    15      2       0.1106719       33.78786
2017    15      3       0.2715158       69.06621
2017    15      4       0.2829747       71.18453
2017    15      5       0.4187404       95.79717
2017    15      6       0.7460667       143.0311
2017    15      7       0.5874283       121.8803
2017    16      0       0.2762054       68.66675
2017    16      1       0.1740115       47.77164
2017    16      2       0.3470753       80.10906
2017    16      3       0.4477797       98.20303
2017    16      4       0.4217735       94.80396
2017    16      5       0.4103048       93.30862
2017    16      6       0.4650462       102.7992
2017    16      7       0.5235184       111.9497
2017    17      0       0.2960322       73.09216
2017    17      1       0.2432221       62.36743
2017    17      2       0.2956999       71.32809
2017    17      3       0.3050418       72.85965
2017    17      4       0.3397928       79.08804
2017    17      5       0.3984928       89.64528
2017    17      6       0.4811849       103.4121
2017    17      7       0.5342939       111.8244
2017    18      0       0.4697539       101.4411
2017    18      1       0.5497991       113.9922
2017    18      2       0.6859263       132.8291
2017    18      3       0.8514564       153.273
2017    18      4       0.3739344       87.28754
2017    18      5       0.279084        69.95684
2017    18      6       0.3692491       86.95542
2017    18      7       0.2980944       73.55813
2017    19      0       0.1912594       50.39214
2017    19      1       0.2796674       67.21606
2017    19      2       0.3783966       85.61528
2017    19      3       0.4275094       94.70964
2017    19      4       0.4889489       105.0545
2017    19      5       0.5775754       118.9846
2017    19      6       0.5241389       110.6841
2017    19      7       0.5412637       112.987
2017    20      0       0.5981056       120.6635
2017    20      1       0.7117638       136.215
2017    20      2       0.7976795       146.9335
2017    20      3       1.130994        180.999
2017    20      4       1.312543        195.3459
2017    20      5       1.237569        189.9082
2017    20      6       1.084341        177.1416
2017    20      7       0.8032997       148.8823
2017    21      0       0.5982141       122.4851
2017    21      1       0.5250094       111.7515
2017    21      2       0.3907628       90.35122
2017    21      3       0.1620947       45.17673
2017    21      4       0.1410762       40.34959
2017    21      5       0.208984        55.13267
2017    21      6       0.3227641       77.73644
2017    21      7       0.4994913       108.0034
2017    22      0       0.4781225       105.1859
2017    22      1       0.2582088       64.59685
2017    22      2       0.2218649       56.65588
2017    22      3       0.2310247       58.08436
2017    22      4       0.4491282       96.33815
2017    22      5       0.773181        141.8331
2017    22      6       1.091357        177.0695
2017    22      7       1.063622        175.4345
2017    23      0       0.9884687       168.4129
2017    23      1       0.8089629       149.6942
2017    23      2       0.6318938       127.6562
2017    23      3       0.5161599       111.2742
2017    23      4       0.3732008       87.68712
2017    23      5       0.4728455       104.5536
2017    23      6       0.8150019       150.7919
2017    23      7       1.082037        177.693
2017    24      0       0.7110356       137.777
2017    24      1       0.4905859       105.6047
2017    24      2       0.4708179       101.9157
2017    24      3       0.4925127       105.067
2017    24      4       0.472382        102.3212
2017    24      5       0.5597621       116.3317
2017    24      6       0.6714408       132.5866
2017    24      7       0.6639452       132.424
2017    25      0       0.4597178       102.0452
2017    25      1       0.2836399       69.85503
2017    25      2       0.2819927       69.14392
2017    25      3       0.3497839       80.52836
2017    25      4       0.3976567       88.97934
2017    25      5       0.5645907       115.9858
2017    25      6       0.7392857       140.1062
2017    25      7       0.7927845       147.0026
2017    26      0       0.5931399       120.8094
2017    26      1       0.5067822       106.1627
2017    26      2       0.4588376       98.35198
2017    26      3       0.2380838       59.93992
2017    26      4       0.2877825       70.70924
2017    26      5       0.4648694       102.0568
2017    26      6       0.6193352       125.361
2017    26      7       0.6666349       132.3026
2017    27      0       0.3905809       90.32634
2017    27      1       0.2623835       66.0272
2017    27      2       0.2968354       71.96915
2017    27      3       0.3243713       76.76638
2017    27      4       0.295578        71.60179
2017    27      5       0.3082884       75.03363
2017    27      6       0.4149343       94.29549
2017    27      7       0.4687302       103.345
2017    28      0       0.4365808       97.34247
2017    28      1       0.4232814       94.59367
2017    28      2       0.416341        93.40105
2017    28      3       0.5310397       111.7221
2017    28      4       0.634269        127.3117
2017    28      5       0.5568569       116.7141
2017    28      6       0.6371409       127.8048
2017    28      7       0.7425916       140.725
2017    29      0       0.6075376       122.801
2017    29      1       0.4933536       105.654
2017    29      2       0.4459111       97.87182
2017    29      3       0.5998455       120.4806
2017    29      4       0.6609932       127.7283
2017    29      5       0.6972739       132.7906
2017    29      6       0.6607502       128.5279
2017    29      7       0.5605576       114.7241
2017    30      0       0.4592219       99.20228
2017    30      1       0.3737184       85.12797
2017    30      2       0.2836765       69.31046
2017    30      3       0.2819599       68.13896
2017    30      4       0.3519026       81.11349
2017    30      5       0.5670327       115.6824
2017    30      6       0.7362422       138.4881
2017    30      7       0.7437019       140.0311
2017    31      0       0.6202493       124.8894
2017    31      1       0.6343967       126.2407
2017    31      2       0.5495104       114.2638
2017    31      3       0.5031116       107.6047
2017    31      4       0.5685317       116.9858
2017    31      5       0.5909153       119.9865
2017    31      6       0.6511802       128.6501
2017    31      7       0.6757862       131.8003
