####################################################################################################
# Month: 09Sep                                                                                     #
# Station: CNI                                                                                     #
# Frequency: 230 GHz                                                                               #
# Columns are: year    day     segment         tau     Tb (K)                                      #
####################################################################################################
2009    1       0       0.589771        124.5911
2009    1       1       0.6380701       130.8576
2009    1       2       0.729355        143.3007
2009    1       3       0.7708443       148.4459
2009    1       4       0.6038106       125.8972
2009    1       5       0.5284715       114.4146
2009    1       6       0.4815383       106.7354
2009    1       7       0.4796641       106.5629
2009    2       0       0.476021        106.2479
2009    2       1       0.3288883       80.02935
2009    2       2       0.1419624       40.18721
2009    2       3       0.1210054       35.25422
2009    2       4       0.1597036       44.22603
2009    2       5       0.1864081       50.19833
2009    2       6       0.2118133       55.79836
2009    2       7       0.2264694       58.97957
2009    3       0       0.2361686       61.01296
2009    3       1       0.2383209       61.44421
2009    3       2       0.242209        62.27074
2009    3       3       0.2274294       59.21846
2009    3       4       0.2062802       54.7124
2009    3       5       0.184982        50.08085
2009    3       6       0.1824891       49.45545
2009    3       7       0.214166        56.00895
2009    4       0       0.2313666       59.87561
2009    4       1       0.2839799       71.17846
2009    4       2       0.3648194       87.29467
2009    4       3       0.4053079       94.92269
2009    4       4       0.503426        111.8285
2009    4       5       0.4895047       108.7755
2009    4       6       0.4734454       105.903
2009    4       7       0.526331        114.7168
2009    5       0       0.5122768       112.517
2009    5       1       0.520278        113.733
2009    5       2       0.462443        104.2975
2009    5       3       0.3410119       82.03047
2009    5       4       0.3287413       79.77213
2009    5       5       0.2727831       68.5752
2009    5       6       0.1740264       47.34019
2009    5       7       0.1289691       36.86896
2009    6       0       0.138809        39.37657
2009    6       1       0.1388632       39.57278
2009    6       2       0.1245236       36.17922
2009    6       3       0.1403455       39.82773
2009    6       4       0.1751723       47.81394
2009    6       5       0.2136623       56.28988
2009    6       6       0.2373822       61.40754
2009    6       7       0.2484263       63.64966
2009    7       0       0.2660622       67.19246
2009    7       1       0.2909708       72.1902
2009    7       2       0.3286282       79.63374
2009    7       3       0.3482688       83.52458
2009    7       4       0.3777549       89.06403
2009    7       5       0.4258717       97.5679
2009    7       6       0.4322339       99.08845
2009    7       7       0.4154566       96.64652
2009    8       0       0.4096808       95.44935
2009    8       1       0.4297391       98.75004
2009    8       2       0.4601574       103.9814
2009    8       3       0.4734835       106.1807
2009    8       4       0.4894407       108.7612
2009    8       5       0.5125607       112.3378
2009    8       6       0.4716901       105.5082
2009    8       7       0.444083        100.6885
2009    9       0       0.4429307       100.1833
2009    9       1       0.4773309       105.5497
2009    9       2       0.4804893       105.9222
2009    9       3       0.4823564       106.1382
2009    9       4       0.4733447       105.1361
2009    9       5       0.4478977       101.3785
2009    9       6       0.3919987       91.73709
2009    9       7       0.3316691       80.57347
2009    10      0       0.2869316       71.77337
2009    10      1       0.2593637       66.24209
2009    10      2       0.2838904       71.38672
2009    10      3       0.2915307       73.0445
2009    10      4       0.2606472       66.90709
2009    10      5       0.2454996       63.77863
2009    10      6       0.2574038       66.24824
2009    10      7       0.2533082       65.34735
2009    11      0       0.229851        60.44507
2009    11      1       0.2074059       55.61389
2009    11      2       0.1986126       53.60839
2009    11      3       0.2018229       54.21591
2009    11      4       0.2133422       56.61743
2009    11      5       0.2125517       56.40881
2009    11      6       0.2083459       55.43072
2009    11      7       0.2208548       57.98019
2009    12      0       0.2306761       60.04213
2009    12      1       0.2393497       61.79517
2009    12      2       0.2621212       66.30471
2009    12      3       0.2767361       69.11886
2009    12      4       0.2606242       66.1108
2009    12      5       0.2420092       62.66787
2009    12      6       0.2402805       62.48432
2009    12      7       0.2260491       59.52377
2009    13      0       0.1858657       50.70959
2009    13      1       0.1558901       43.84348
2009    13      2       0.1403365       40.16316
2009    13      3       0.1269544       36.93283
2009    13      4       0.1303141       37.69069
2009    13      5       0.1531705       42.90379
2009    13      6       0.1849243       49.84446
2009    13      7       0.2029474       53.58477
2009    14      0       0.2396393       61.02999
2009    14      1       0.2608855       65.28913
2009    14      2       0.2294469       59.0261
2009    14      3       0.2216523       57.23062
2009    14      4       0.2341376       59.72726
2009    14      5       0.2850364       69.42939
2009    14      6       0.2692343       66.4932
2009    14      7       0.2863056       69.81165
2009    15      0       0.3841138       88.28181
2009    15      1       0.4355851       97.89484
2009    15      2       0.3965627       91.59184
2009    15      3       0.3023409       73.9318
2009    15      4       0.2452529       62.34885
2009    15      5       0.2158762       56.17714
2009    15      6       0.164015        45.00967
2009    15      7       0.1267847       36.71935
2009    16      0       0.10084         30.55775
2009    16      1       0.08801293      27.27492
2009    16      2       0.07905207      24.86318
2009    16      3       0.07884422      24.66551
2009    16      4       0.08874155      26.94082
2009    16      5       0.09619043      28.73133
2009    16      6       0.1035665       30.45621
2009    16      7       0.1031677       30.43166
2009    17      0       0.1068948       31.22449
2009    17      1       0.1147545       33.03394
2009    17      2       0.1083558       31.86856
2009    17      3       0.1193909       34.58925
2009    17      4       0.1315305       37.5537
2009    17      5       0.167169        45.89052
2009    17      6       0.2051186       54.45005
2009    17      7       0.2897209       71.50378
2009    18      0       0.4074013       93.10324
2009    18      1       0.4646677       102.6451
2009    18      2       0.4869519       106.4487
2009    18      3       0.524085        112.694
2009    18      4       0.7061244       139.4988
2009    18      5       0.8288631       155.7596
2009    18      6       0.8554761       158.4092
2009    18      7       0.9875149       171.7313
2009    19      0       1.024992        175.0143
2009    19      1       0.7621866       145.5353
2009    19      2       0.2852956       71.23284
2009    19      3       0.1794738       49.26185
2009    19      4       0.1730581       47.6082
2009    19      5       0.1976892       52.97202
2009    19      6       0.2347506       60.81879
2009    19      7       0.2663758       66.95888
2009    20      0       0.3251432       78.39611
2009    20      1       0.3712935       86.63122
2009    20      2       0.361572        84.25219
2009    20      3       0.392022        89.39676
2009    20      4       0.4717623       103.2443
2009    20      5       0.5448668       115.4673
2009    20      6       0.5385662       115.26
2009    20      7       0.4794467       105.8109
2009    21      0       0.4461222       99.85909
2009    21      1       0.5702637       120.0851
2009    21      2       0.8651345       159.2835
2009    21      3       0.95896         169.3045
2009    21      4       0.9048289       163.9573
2009    21      5       0.865352        159.4227
2009    21      6       0.7329137       143.99
2009    21      7       0.6566609       134.1751
2009    22      0       0.64144         132.3375
2009    22      1       0.6052848       127.0763
2009    22      2       0.6255301       129.6559
2009    22      3       0.6423139       131.9017
2009    22      4       0.6057948       126.6735
2009    22      5       0.6334991       130.9116
2009    22      6       0.6991666       139.6782
2009    22      7       0.6505464       132.9356
2009    23      0       0.4825624       107.3635
2009    23      1       0.3680057       87.40163
2009    23      2       0.3314249       80.58794
2009    23      3       0.3176889       77.76688
2009    23      4       0.2859388       71.45002
2009    23      5       0.2792547       70.09833
2009    23      6       0.2729315       68.67847
2009    23      7       0.2555051       64.91715
2009    24      0       0.2500773       63.95513
2009    24      1       0.2713811       68.36574
2009    24      2       0.2729858       68.5428
2009    24      3       0.2302419       59.71564
2009    24      4       0.2258982       58.72306
2009    24      5       0.2294784       59.38192
2009    24      6       0.2187398       57.11176
2009    24      7       0.1999707       53.05685
2009    25      0       0.1907201       51.10689
2009    25      1       0.2069961       54.71573
2009    25      2       0.2231762       58.0471
2009    25      3       0.2124447       55.81952
2009    25      4       0.1949584       51.73874
2009    25      5       0.1976567       52.16252
2009    25      6       0.1937584       51.47189
2009    25      7       0.1880777       50.38917
2009    26      0       0.163735        45.16611
2009    26      1       0.1592638       44.20892
2009    26      2       0.1741956       47.4707
2009    26      3       0.1818986       49.04574
2009    26      4       0.1767225       47.82105
2009    26      5       0.1772574       47.64779
2009    26      6       0.1678603       45.61342
2009    26      7       0.1644329       44.9535
2009    27      0       0.1729706       47.11578
2009    27      1       0.2068447       54.53961
2009    27      2       0.2232257       58.03041
2009    27      3       0.2343039       60.24675
2009    27      4       0.2633994       66.13735
2009    27      5       0.2567366       64.93756
2009    27      6       0.2180058       57.23413
2009    27      7       0.1916589       51.5019
2009    28      0       0.1763961       47.87025
2009    28      1       0.1617603       44.26775
2009    28      2       0.1465363       40.71962
2009    28      3       0.1174756       33.71203
2009    28      4       0.1085801       31.55873
2009    28      5       0.1340094       37.51941
2009    28      6       0.1417284       39.37085
2009    28      7       0.1332823       37.54206
2009    29      0       0.1253976       35.87697
2009    29      1       0.1283263       36.66445
2009    29      2       0.1321575       37.56024
2009    29      3       0.1493607       41.39767
2009    29      4       0.1840444       48.75576
2009    29      5       0.3420595       79.44971
2009    29      6       0.3250181       78.22244
2009    29      7       0.3568204       84.43349
2009    30      0       0.4474651       100.4434
2009    30      1       0.5745381       121.0933
2009    30      2       0.6263982       129.0047
2009    30      3       0.5537045       118.0337
2009    30      4       0.430481        97.99606
2009    30      5       0.4785517       106.584
2009    30      6       0.5497071       118.2593
2009    30      7       0.6003468       126.6368
2010    1       0       0.2581063       65.44853
2010    1       1       0.2608578       66.38079
2010    1       2       0.2781369       70.15827
2010    1       3       0.2961413       74.04219
2010    1       4       0.2954985       74.02592
2010    1       5       0.2855471       72.05207
2010    1       6       0.2645412       67.81599
2010    1       7       0.2245574       59.30308
2010    2       0       0.1797942       49.20946
2010    2       1       0.1556773       43.55975
2010    2       2       0.1512214       42.486
2010    2       3       0.1525768       42.86336
2010    2       4       0.1500348       42.41612
2010    2       5       0.1516154       42.92715
2010    2       6       0.1606102       45.10096
2010    2       7       0.1647766       46.16863
2010    3       0       0.1649153       46.36121
2010    3       1       0.1727359       48.25888
2010    3       2       0.1785882       49.56283
2010    3       3       0.1521039       43.22848
2010    3       4       0.1340402       38.88468
2010    3       5       0.1312215       38.17772
2010    3       6       0.1506515       42.8251
2010    3       7       0.1956387       53.2578
2010    4       0       0.2631422       68.20925
2010    4       1       0.3270776       81.3012
2010    4       2       0.3564068       86.95848
2010    4       3       0.3683611       89.31444
2010    4       4       0.3538071       86.52519
2010    4       5       0.3417038       84.08677
2010    4       6       0.3535896       86.369
2010    4       7       0.3631026       88.13325
2010    5       0       0.3316806       81.94755
2010    5       1       0.3345461       82.70588
2010    5       2       0.2758341       70.59555
2010    5       3       0.2575939       66.699
2010    5       4       0.2557538       66.29506
2010    5       5       0.2569894       66.51146
2010    5       6       0.2542435       65.73465
2010    5       7       0.2387402       62.252
2010    6       0       0.2262496       59.18788
2010    6       1       0.2678347       67.06987
2010    6       2       0.3065109       74.35129
2010    6       3       0.2979729       72.47907
2010    6       4       0.2990495       72.87072
2010    6       5       0.3170609       76.72535
2010    6       6       0.306648        74.95473
2010    6       7       0.2856878       70.85318
2010    7       0       0.310992        75.8032
2010    7       1       0.3232451       78.42647
2010    7       2       0.284893        71.14394
2010    7       3       0.2653812       67.2364
2010    7       4       0.3191825       77.97022
2010    7       5       0.3748611       88.43379
2010    7       6       0.3500256       83.83198
2010    7       7       0.3214447       78.41091
2010    8       0       0.2790791       70.09522
2010    8       1       0.2455356       62.94378
2010    8       2       0.2697319       67.22394
2010    8       3       0.3230522       77.21793
2010    8       4       0.3723886       86.12546
2010    8       5       0.3621892       84.88346
2010    8       6       0.3715943       87.01399
2010    8       7       0.3854256       89.94032
2010    9       0       0.357538        85.13108
2010    9       1       0.3482023       83.37189
2010    9       2       0.40261         93.19318
2010    9       3       0.3965843       92.36993
2010    9       4       0.3260171       79.71136
2010    9       5       0.2122159       56.58881
2010    9       6       0.1454165       41.42501
2010    9       7       0.1437914       40.97479
2010    10      0       0.1464397       41.61345
2010    10      1       0.1311736       38.11506
2010    10      2       0.1157603       34.45664
2010    10      3       0.113387        33.86333
2010    10      4       0.1391737       40.01724
2010    10      5       0.1764894       48.63974
2010    10      6       0.2050162       55.05934
2010    10      7       0.2293204       60.35208
2010    11      0       0.2747538       70.05595
2010    11      1       0.2872072       72.5759
2010    11      2       0.2151275       57.06907
2010    11      3       0.1685987       46.61384
2010    11      4       0.1601339       44.71889
2010    11      5       0.1599297       44.74482
2010    11      6       0.1459714       41.46909
2010    11      7       0.1363739       39.08026
2010    12      0       0.1459156       41.29248
2010    12      1       0.163307        45.27792
2010    12      2       0.173658        47.33703
2010    12      3       0.1853483       49.68332
2010    12      4       0.2091205       55.27839
2010    12      5       0.2151398       56.7268
2010    12      6       0.1850827       49.98184
2010    12      7       0.1595217       43.99681
2010    13      0       0.1560337       43.23723
2010    13      1       0.1839317       49.6312
2010    13      2       0.282025        70.4834
2010    13      3       0.4111168       94.86457
2010    13      4       0.5131491       112.2581
2010    13      5       0.5575612       119.7147
2010    13      6       0.6580045       134.1496
2010    13      7       0.7698592       148.7456
2010    14      0       0.7997496       153.0415
2010    14      1       0.7799307       150.3741
2010    14      2       0.831657        155.9945
2010    14      3       1.206035        192.7183
2010    14      4       1.134659        185.8517
2010    14      5       1.186971        190.426
2010    14      6       1.222265        194.0517
2010    14      7       0.9123265       164.6278
2010    15      0       0.8720418       159.5427
2010    15      1       0.8734129       159.9651
2010    15      2       0.8551921       158.9402
2010    15      3       0.814299        154.2503
2010    15      4       0.9111957       165.2099
2010    15      5       0.9193586       166.5287
2010    15      6       0.7327385       144.6924
2010    15      7       0.7210863       143.081
2010    16      0       0.7276793       143.9875
2010    16      1       0.7269246       143.6227
2010    16      2       0.8466151       158.0227
2010    16      3       0.7890846       151.5917
2010    16      4       0.7854888       151.7512
2010    16      5       0.7756952       150.3315
2010    16      6       0.6168954       128.4989
2010    16      7       0.440383        100.83
2010    17      0       0.2622222       66.76241
2010    17      1       0.2716032       68.6295
2010    17      2       0.210589        55.46089
2010    17      3       0.08862188      27.38413
2010    17      4       0.05701469      19.46431
2010    17      5       0.06774043      22.21367
2010    17      6       0.09320175      28.4541
2010    17      7       0.1126095       33.10105
2010    18      0       0.1305078       37.37738
2010    18      1       0.1382085       39.25681
2010    18      2       0.1264689       36.512
2010    18      3       0.1247925       36.01752
2010    18      4       0.144453        40.49085
2010    18      5       0.1565672       43.239
2010    18      6       0.1502766       41.83511
2010    18      7       0.1524129       42.32687
2010    19      0       0.1429777       40.21372
2010    19      1       0.1439822       40.64082
2010    19      2       0.1636949       45.2215
2010    19      3       0.1604947       44.50021
2010    19      4       0.1537074       43.09282
2010    19      5       0.1532311       43.0028
2010    19      6       0.157601        43.90052
2010    19      7       0.1497255       42.04144
2010    20      0       0.1481705       41.46753
2010    20      1       0.1361749       38.58402
2010    20      2       0.1134289       33.35623
2010    20      3       0.1006553       30.37436
2010    20      4       0.1055795       31.67509
2010    20      5       0.1107985       33.01909
2010    20      6       0.1082274       32.39092
2010    20      7       0.1131033       33.43269
2010    21      0       0.1197216       35.02164
2010    21      1       0.1216843       35.4864
2010    21      2       0.1494986       41.9972
2010    21      3       0.1648001       45.4287
2010    21      4       0.2181251       57.56729
2010    21      5       0.3467958       84.05805
2010    21      6       0.433585        100.0165
2010    21      7       0.6335217       130.4776
2010    22      0       0.899696        163.8352
2010    22      1       0.7947272       150.7645
2010    22      2       0.9143249       163.987
2010    22      3       1.086179        180.4994
2010    22      4       1.128065        184.2204
2010    22      5       1.224154        193.0992
2010    22      6       1.378081        204.9645
2010    22      7       1.476389        211.8846
2010    23      0       1.279706        198.8473
2010    23      1       1.252389        196.1256
2010    23      2       1.271736        197.6203
2010    23      3       1.477825        214.3947
2010    23      4       1.549974        218.6911
2010    23      5       1.137069        187.8734
2010    23      6       1.290591        200.0104
2010    23      7       1.489512        213.9158
2010    24      0       1.23181         195.1577
2010    24      1       0.9394522       167.962
2010    24      2       0.8897668       162.1356
2010    24      3       0.8263613       155.3759
2010    24      4       0.8114496       153.8079
2010    24      5       0.8439759       157.6109
2010    24      6       0.8214048       154.0077
2010    24      7       0.9049857       163.3765
2010    25      0       0.9886053       172.4237
2010    25      1       1.069967        180.4969
2010    25      2       0.9703586       171.172
2010    25      3       0.910898        164.9329
2010    25      4       0.8405263       157.3993
2010    25      5       0.7796502       150.3499
2010    25      6       0.7836663       150.7508
2010    25      7       0.7585856       147.5003
2010    26      0       0.7214602       142.7855
2010    26      1       0.8063879       153.186
2010    26      2       0.8180843       154.7691
2010    26      3       0.8439501       157.9816
2010    26      4       1.059623        181.0089
2010    26      5       0.9153299       165.4737
2010    26      6       0.9289591       166.9236
2010    26      7       0.8981739       163.6007
2010    27      0       0.8558848       158.9498
2010    27      1       0.9322899       167.1638
2010    27      2       0.8219022       155.2741
2010    27      3       0.7821121       150.5609
2010    27      4       0.8008791       152.9414
2010    27      5       0.8098538       154.2607
2010    27      6       0.7527657       147.7612
2010    27      7       0.7444367       147.1309
2010    28      0       0.7307999       145.4561
2010    28      1       0.6655799       136.6436
2010    28      2       0.5723435       123.2002
2010    28      3       0.4581026       104.7131
2010    28      4       0.3514023       85.33797
2010    28      5       0.2486109       64.53632
2010    28      6       0.1644975       45.86081
2010    28      7       0.1130735       33.55907
2010    29      0       0.1040132       31.30965
2010    29      1       0.1113054       33.08637
2010    29      2       0.1188674       34.86307
2010    29      3       0.1259621       36.53724
2010    29      4       0.1314875       37.85573
2010    29      5       0.1349813       38.70225
2010    29      6       0.1339031       38.42173
2010    29      7       0.1306178       37.58103
2010    30      0       0.1217837       35.49906
2010    30      1       0.115203        33.91898
2010    30      2       0.1158447       34.03315
2010    30      3       0.1154589       33.91514
2010    30      4       0.1192636       34.83897
2010    30      5       0.1255958       36.3482
2010    30      6       0.130415        37.48494
2010    30      7       0.1259026       36.41669
2011    1       0       0.305807        76.05486
2011    1       1       0.3141963       77.4923
2011    1       2       0.3439815       82.99616
2011    1       3       0.3380591       81.74334
2011    1       4       0.3767661       89.04735
2011    1       5       0.4209931       97.34589
2011    1       6       0.4158055       96.96424
2011    1       7       0.3997805       94.31649
2011    2       0       0.3768909       90.03949
2011    2       1       0.3496659       84.74039
2011    2       2       0.3114936       77.18802
2011    2       3       0.2989182       74.54228
2011    2       4       0.2920146       73.07978
2011    2       5       0.2782157       70.27182
2011    2       6       0.2604993       66.76504
2011    2       7       0.2408174       62.78784
2011    3       0       0.2262094       59.63579
2011    3       1       0.2157193       57.3638
2011    3       2       0.2076335       55.72307
2011    3       3       0.2012086       54.31821
2011    3       4       0.2269437       59.57007
2011    3       5       0.260255        66.15315
2011    3       6       0.2520312       64.23909
2011    3       7       0.2358851       60.58391
2011    4       0       0.2257285       58.27856
2011    4       1       0.24619         62.81498
2011    4       2       0.2829053       70.55875
2011    4       3       0.3021007       74.30014
2011    4       4       0.3020221       74.63105
2011    4       5       0.2937037       73.25394
2011    4       6       0.3023052       74.93911
2011    4       7       0.3023279       74.96058
2011    5       0       0.2896543       72.56978
2011    5       1       0.2888005       72.5219
2011    5       2       0.2971906       74.31804
2011    5       3       0.2958027       74.07377
2011    5       4       0.2720461       69.24402
2011    5       5       0.2417271       62.92378
2011    5       6       0.2273202       59.91019
2011    5       7       0.222165        58.87645
2011    6       0       0.222905        59.02523
2011    6       1       0.2194257       58.06691
2011    6       2       0.2017888       54.04035
2011    6       3       0.177408        48.50964
2011    6       4       0.1641876       45.5049
2011    6       5       0.15248         42.82652
2011    6       6       0.1248797       36.34046
2011    6       7       0.1035397       31.19105
2011    7       0       0.1093799       32.67811
2011    7       1       0.1478312       41.85659
2011    7       2       0.1848477       50.3153
2011    7       3       0.2056522       55.06275
2011    7       4       0.2699261       68.94901
2011    7       5       0.3334163       81.76262
2011    7       6       0.3662429       88.13745
2011    7       7       0.4260869       99.20771
2011    8       0       0.41881         97.78457
2011    8       1       0.4265498       99.09929
2011    8       2       0.4172798       97.21678
2011    8       3       0.430131        99.53856
2011    8       4       0.4917628       109.9705
2011    8       5       0.6009692       126.8112
2011    8       6       0.6729065       136.8052
2011    8       7       0.6538564       134.5519
2011    9       0       0.6024618       127.4618
2011    9       1       0.5634856       121.3102
2011    9       2       0.5441828       118.1542
2011    9       3       0.5389262       117.1705
2011    9       4       0.5331555       116.2156
2011    9       5       0.5281164       115.2885
2011    9       6       0.5050964       111.8115
2011    9       7       0.453422        103.4961
2011    10      0       0.4256947       98.82814
2011    10      1       0.4265877       99.03917
2011    10      2       0.383917        91.39865
2011    10      3       0.3344759       82.08206
2011    10      4       0.3125183       77.86285
2011    10      5       0.3150901       78.49621
2011    10      6       0.3064229       76.77832
2011    10      7       0.2746919       70.2856
2011    11      0       0.2667339       68.66364
2011    11      1       0.2711315       69.6329
2011    11      2       0.2811385       71.72968
2011    11      3       0.2819951       71.93296
2011    11      4       0.2857834       72.77797
2011    11      5       0.2818456       71.95894
2011    11      6       0.2618065       67.71497
2011    11      7       0.236116        62.24416
2011    12      0       0.2175153       58.2622
2011    12      1       0.2076872       56.07337
2011    12      2       0.2130011       57.18163
2011    12      3       0.2120448       56.94946
2011    12      4       0.2129615       57.12279
2011    12      5       0.2147532       57.41195
2011    12      6       0.2055466       55.14122
2011    12      7       0.1961305       52.79128
2011    13      0       0.1651664       45.37202
2011    13      1       0.1873234       50.54664
2011    13      2       0.1684103       46.27996
2011    13      3       0.1547193       43.20827
2011    13      4       0.1592411       44.31429
2011    13      5       0.1677223       46.31779
2011    13      6       0.1685511       46.54725
2011    13      7       0.1657347       45.936
2011    14      0       0.1719797       47.37979
2011    14      1       0.1783205       48.82919
2011    14      2       0.1701795       46.91192
2011    14      3       0.1607368       44.67181
2011    14      4       0.157553        43.98975
2011    14      5       0.1587151       44.37378
2011    14      6       0.165173        45.91112
2011    14      7       0.1692644       46.89952
2011    15      0       0.1637364       45.61527
2011    15      1       0.1540932       43.36851
2011    15      2       0.1420568       40.51764
2011    15      3       0.1281512       37.22299
2011    15      4       0.1176653       34.69673
2011    15      5       0.1055948       31.73228
2011    15      6       0.09077934      28.02668
2011    15      7       0.08003584      25.29167
2011    16      0       0.0782193       24.76887
2011    16      1       0.08181598      25.54505
2011    16      2       0.09059646      27.57798
2011    16      3       0.1041219       30.85334
2011    16      4       0.1049148       31.14
2011    16      5       0.1010937       30.21396
2011    16      6       0.09540797      28.81584
2011    16      7       0.09015135      27.60912
2011    17      0       0.09918566      29.87649
2011    17      1       0.1100723       32.5268
2011    17      2       0.1105662       32.44961
2011    17      3       0.1141844       33.05828
2011    17      4       0.1133985       32.80216
2011    17      5       0.1203871       34.2755
2011    17      6       0.1283959       36.05664
2011    17      7       0.1340581       37.27116
2011    18      0       0.1387728       38.34701
2011    18      1       0.1438279       39.57381
2011    18      2       0.1336862       37.30832
2011    18      3       0.1341835       37.6098
2011    18      4       0.1480403       40.74338
2011    18      5       0.1566535       42.80107
2011    18      6       0.151043        41.81629
2011    18      7       0.1458507       40.80108
2011    19      0       0.1412565       39.81966
2011    19      1       0.1336124       38.10078
2011    19      2       0.1230086       35.5756
2011    19      3       0.1182791       34.4168
2011    19      4       0.1164212       34.0095
2011    19      5       0.1106917       32.76166
2011    19      6       0.1059246       31.68432
2011    19      7       0.1013619       30.56573
2011    20      0       0.09950079      30.14995
2011    20      1       0.09869215      30.00223
2011    20      2       0.1004821       30.37345
2011    20      3       0.09916944      29.93382
2011    20      4       0.09724364      29.44403
2011    20      5       0.1226635       35.67377
2011    20      6       0.2155428       56.78772
2011    20      7       0.331041        80.4902
2011    21      0       0.3838853       90.21678
2011    21      1       0.4182838       96.29839
2011    21      2       0.44891         101.9053
2011    21      3       0.4739358       105.9388
2011    21      4       0.4930045       108.4457
2011    21      5       0.5086693       110.9276
2011    21      6       0.5503623       117.7858
2011    21      7       0.5961461       124.7593
2011    22      0       0.6987245       138.994
2011    22      1       0.7792508       149.0422
2011    22      2       0.9144052       164.5314
2011    22      3       1.023098        175.6523
2011    22      4       0.9043973       162.1331
2011    22      5       0.990999        171.3783
2011    22      6       1.099356        182.4034
2011    22      7       1.07072         179.4652
2011    23      0       0.7732639       146.8477
2011    23      1       0.5577239       118.3882
2011    23      2       0.4785044       106.7522
2011    23      3       0.4051641       94.44331
2011    23      4       0.3576278       85.91865
2011    23      5       0.256916        65.94971
2011    23      6       0.175746        48.2373
2011    23      7       0.1992681       53.55016
2011    24      0       0.2046566       54.78053
2011    24      1       0.1961281       52.89128
2011    24      2       0.1937502       52.21878
2011    24      3       0.1894263       51.09198
2011    24      4       0.1862682       50.42956
2011    24      5       0.1829325       49.63675
2011    24      6       0.1615816       44.70854
2011    24      7       0.1463607       41.13428
2011    25      0       0.1556476       43.31737
2011    25      1       0.1778076       48.40638
2011    25      2       0.2088326       55.28215
2011    25      3       0.2751078       69.30934
2011    25      4       0.3932196       92.09185
2011    25      5       0.4904895       108.6918
2011    25      6       0.5730455       121.5621
2011    25      7       0.626398        129.0239
2011    26      0       0.6635419       134.1965
2011    26      1       0.7050792       139.7669
2011    26      2       0.4944531       109.4357
2011    26      3       0.4221315       97.23673
2011    26      4       0.5231156       113.9128
2011    26      5       0.5498429       118.0048
2011    26      6       0.4896509       108.4839
2011    26      7       0.4942083       109.2769
2011    27      0       0.5078045       111.931
2011    27      1       0.5409745       117.3517
2011    27      2       0.5786345       123.0357
2011    27      3       0.6586707       134.3278
2011    27      4       0.6519          133.5608
2011    27      5       0.653741        133.9423
2011    27      6       0.6712228       136.2375
2011    27      7       0.6485023       132.9518
2011    28      0       0.6347084       131.2201
2011    28      1       0.6617329       134.8692
2011    28      2       0.6683216       135.3221
2011    28      3       0.6445499       132.1825
2011    28      4       0.6824486       137.3772
2011    28      5       0.7586899       146.9528
2011    28      6       0.7052558       139.9058
2011    28      7       0.6766595       135.9452
2011    29      0       0.6276106       128.8067
2011    29      1       0.5697814       120.699
2011    29      2       0.5671737       120.6241
2011    29      3       0.5732686       121.5897
2011    29      4       0.5513131       118.3484
2011    29      5       0.5355139       116.1967
2011    29      6       0.5449247       117.769
2011    29      7       0.5493779       118.4269
2011    30      0       0.5455088       117.89
2011    30      1       0.5310148       115.6555
2011    30      2       0.4894914       108.8364
2011    30      3       0.4752516       106.4981
2011    30      4       0.5121344       112.8632
2011    30      5       0.5617632       121.0377
2011    30      6       0.5706583       122.4181
2011    30      7       0.5502946       119.233
2012    1       0       0.1440545       41.45213
2012    1       1       0.1523125       43.42372
2012    1       2       0.1419187       40.98089
2012    1       3       0.1294979       38.02422
2012    1       4       0.1268451       37.39678
2012    1       5       0.1229537       36.41496
2012    1       6       0.1182151       35.18575
2012    1       7       0.1163596       34.62039
2012    2       0       0.1170543       34.76457
2012    2       1       0.1143275       34.15522
2012    2       2       0.11088         33.2788
2012    2       3       0.106263        32.12945
2012    2       4       0.1105459       33.23978
2012    2       5       0.1142173       34.16464
2012    2       6       0.1210282       35.79219
2012    2       7       0.1346233       39.03196
2012    3       0       0.1525483       43.2241
2012    3       1       0.180223        49.59757
2012    3       2       0.2019937       54.54156
2012    3       3       0.1973144       53.57872
2012    3       4       0.1818531       50.16333
2012    3       5       0.1804416       49.86098
2012    3       6       0.1668457       46.69053
2012    3       7       0.1385307       40.05676
2012    4       0       0.1265911       37.17417
2012    4       1       0.1200837       35.55489
2012    4       2       0.1179165       34.98989
2012    4       3       0.11425         34.10469
2012    4       4       0.110329        33.14886
2012    4       5       0.1077312       32.49907
2012    4       6       0.09452861      29.21794
2012    4       7       0.08204997      26.07051
2012    5       0       0.07677636      24.70568
2012    5       1       0.07816989      25.00029
2012    5       2       0.07792261      24.81483
2012    5       3       0.07130326      23.09485
2012    5       4       0.06977122      22.74584
2012    5       5       0.07703157      24.55979
2012    5       6       0.08514384      26.53696
2012    5       7       0.09398971      28.66723
2012    6       0       0.09597003      29.18596
2012    6       1       0.09581557      29.14232
2012    6       2       0.08788754      27.18974
2012    6       3       0.07918445      24.99173
2012    6       4       0.07417561      23.77519
2012    6       5       0.07136194      23.07325
2012    6       6       0.07293258      23.42684
2012    6       7       0.07458511      23.76583
2012    7       0       0.07250585      23.26446
2012    7       1       0.07610287      24.07182
2012    7       2       0.09264022      28.21322
2012    7       3       0.1411478       40.16577
2012    7       4       0.186464        50.89304
2012    7       5       0.2327975       61.26163
2012    7       6       0.3066927       76.75524
2012    7       7       0.3641298       88.0296
2012    8       0       0.38656         92.1512
2012    8       1       0.3599206       86.96295
2012    8       2       0.3081093       76.74136
2012    8       3       0.3118351       77.31594
2012    8       4       0.3189646       78.76301
2012    8       5       0.3349152       81.98588
2012    8       6       0.378559        90.22758
2012    8       7       0.39588         93.14812
2012    9       0       0.4107586       95.48718
2012    9       1       0.4156349       96.85297
2012    9       2       0.4739269       106.8392
2012    9       3       0.4784791       107.6545
2012    9       4       0.442336        101.5435
2012    9       5       0.403198        94.46906
2012    9       6       0.3772556       89.59698
2012    9       7       0.3488654       83.88026
2012    10      0       0.3003064       74.04589
2012    10      1       0.2783062       69.3212
2012    10      2       0.297181        73.02315
2012    10      3       0.3149906       76.88025
2012    10      4       0.2936744       73.12269
2012    10      5       0.2455622       63.34026
2012    10      6       0.1825085       49.42407
2012    10      7       0.1516627       42.25237
2012    11      0       0.1726227       47.18694
2012    11      1       0.2494505       64.28547
2012    11      2       0.3251017       79.66936
2012    11      3       0.370897        88.3681
2012    11      4       0.4626439       104.7961
2012    11      5       0.5772434       123.2575
2012    11      6       0.5981972       126.3066
2012    11      7       0.5059079       111.9424
2012    12      0       0.3829881       90.57512
2012    12      1       0.3319297       80.7728
2012    12      2       0.332748        80.94767
2012    12      3       0.3544302       84.77912
2012    12      4       0.3654589       86.85911
2012    12      5       0.334651        81.02514
2012    12      6       0.2868025       71.73724
2012    12      7       0.2543917       65.44969
2012    13      0       0.2364425       61.85542
2012    13      1       0.2118808       56.5334
2012    13      2       0.1899591       51.44818
2012    13      3       0.1892964       51.1757
2012    13      4       0.1989301       53.44636
2012    13      5       0.2048664       54.87749
2012    13      6       0.2172441       57.63548
2012    13      7       0.2242506       59.14103
2012    14      0       0.2248029       59.26877
2012    14      1       0.2361896       61.60833
2012    14      2       0.2527702       64.79914
2012    14      3       0.2568384       65.57755
2012    14      4       0.2777158       70.17973
2012    14      5       0.319242        78.55745
2012    14      6       0.3214275       78.7734
2012    14      7       0.2699775       68.449
2012    15      0       0.22831         59.93081
2012    15      1       0.2516867       64.94537
2012    15      2       0.2464448       63.76136
2012    15      3       0.2387476       62.05343
2012    15      4       0.2565704       65.74705
2012    15      5       0.2824086       71.08757
2012    15      6       0.3336615       81.38707
2012    15      7       0.4145547       96.92695
2012    16      0       0.4313973       100.0708
2012    16      1       0.3861014       91.65203
2012    16      2       0.304366        75.69593
2012    16      3       0.2321836       60.63228
2012    16      4       0.1858971       50.48685
2012    16      5       0.1648719       45.78251
2012    16      6       0.141674        40.34131
2012    16      7       0.1258326       36.58489
2012    17      0       0.1355668       38.96397
2012    17      1       0.2943415       74.07114
2012    17      2       0.4510614       103.6636
2012    17      3       0.4874141       109.786
2012    17      4       0.5813629       124.6988
2012    17      5       0.6783792       138.5073
2012    17      6       0.6871058       139.0729
2012    17      7       0.6517923       133.8827
2012    18      0       0.6156699       128.7691
2012    18      1       0.5840589       124.1513
2012    18      2       0.4789744       107.1444
2012    18      3       0.4016722       93.4233
2012    18      4       0.4021369       93.58488
2012    18      5       0.4285296       98.37353
2012    18      6       0.4603897       103.9669
2012    18      7       0.472946        106.1623
2012    19      0       0.4509961       102.5366
2012    19      1       0.4100441       95.49618
2012    19      2       0.3641299       87.29802
2012    19      3       0.3175567       78.48599
2012    19      4       0.3188          78.84311
2012    19      5       0.3420969       83.48643
2012    19      6       0.3270301       80.66721
2012    19      7       0.2805041       71.36661
2012    20      0       0.2622861       67.58422
2012    20      1       0.258445        66.73028
2012    20      2       0.2485677       64.49288
2012    20      3       0.2506498       64.8509
2012    20      4       0.2632432       67.5242
2012    20      5       0.2716837       69.34313
2012    20      6       0.2659697       68.15515
2012    20      7       0.2471247       64.28558
2012    21      0       0.2312601       60.99109
2012    21      1       0.2141943       57.25293
2012    21      2       0.2100555       56.32483
2012    21      3       0.2217388       58.92592
2012    21      4       0.2130261       57.1038
2012    21      5       0.2309412       61.07811
2012    21      6       0.2522046       65.50229
2012    21      7       0.2360115       61.80677
2012    22      0       0.2248175       59.21374
2012    22      1       0.2130145       56.77319
2012    22      2       0.220816        58.69255
2012    22      3       0.2366013       62.12227
2012    22      4       0.2566826       66.40668
2012    22      5       0.2754663       70.28084
2012    22      6       0.4603842       105.4555
2012    22      7       0.3602023       86.60941
2012    23      0       0.3871932       91.46983
2012    23      1       0.411401        95.82012
2012    23      2       0.4201876       97.44026
2012    23      3       0.419385        97.31833
2012    23      4       0.4844394       108.4676
2012    23      5       0.5685399       121.704
2012    23      6       0.6376912       131.8633
2012    23      7       0.6571466       134.5683
2012    24      0       0.6100285       127.8126
2012    24      1       0.6163643       128.9678
2012    24      2       0.552018        119.0126
2012    24      3       0.496637        110.1894
2012    24      4       0.4306805       99.26542
2012    24      5       0.3617733       86.84693
2012    24      6       0.3370366       82.09505
2012    24      7       0.3137614       77.53823
2012    25      0       0.2859635       71.9391
2012    25      1       0.2588868       66.32207
2012    25      2       0.2137869       56.70907
2012    25      3       0.1868662       50.73449
2012    25      4       0.186622        50.6933
2012    25      5       0.1963915       52.84659
2012    25      6       0.205094        54.7741
2012    25      7       0.2426354       62.83643
2012    26      0       0.2405234       62.3062
2012    26      1       0.2215525       58.22117
2012    26      2       0.1956907       52.66177
2012    26      3       0.1892806       51.31274
2012    26      4       0.221493        58.3962
2012    26      5       0.3313879       81.08861
2012    26      6       0.2440383       63.11099
2012    26      7       0.2318823       60.49016
2012    27      0       0.3075373       75.64936
2012    27      1       0.4392818       99.40544
2012    27      2       0.5095544       111.2498
2012    27      3       0.654549        133.0052
2012    27      4       0.6639246       134.3683
2012    27      5       0.4494511       101.9384
2012    27      6       0.1847096       50.21969
2012    27      7       0.06621492      21.69744
2012    28      0       0.06366034      21.10496
2012    28      1       0.07091601      22.83078
2012    28      2       0.09040955      27.64212
2012    28      3       0.1143709       33.4448
2012    28      4       0.169047        46.19501
2012    28      5       0.2351843       60.92348
2012    28      6       0.2799126       70.61375
2012    28      7       0.2683985       68.31844
2012    29      0       0.270355        68.65075
2012    29      1       0.261904        66.87863
2012    29      2       0.2563416       65.72202
2012    29      3       0.2411313       62.58191
2012    29      4       0.2338283       61.14058
2012    29      5       0.2422685       62.9689
2012    29      6       0.2388146       62.20444
2012    29      7       0.2080866       55.53652
2012    30      0       0.1883992       51.156
2012    30      1       0.1825477       49.82983
2012    30      2       0.1795943       49.11702
2012    30      3       0.1788904       48.93722
2012    30      4       0.1733843       47.75096
2012    30      5       0.1682404       46.64293
2012    30      6       0.1608696       45.01457
2012    30      7       0.154001        43.4503
2013    1       0       0.6561144       135.6979
2013    1       1       0.6125509       129.154
2013    1       2       0.5041614       112.09
2013    1       3       0.4774272       107.7921
2013    1       4       0.515983        114.6393
2013    1       5       0.5075242       113.4829
2013    1       6       0.5003594       112.382
2013    1       7       0.5041424       113.0754
2013    2       0       0.4823167       109.3989
2013    2       1       0.4586161       105.2713
2013    2       2       0.4745448       108.1031
2013    2       3       0.5002899       112.5507
2013    2       4       0.4638519       106.4898
2013    2       5       0.4147807       97.75042
2013    2       6       0.3869393       92.55424
2013    2       7       0.3629505       88.06951
2013    3       0       0.3444935       84.59165
2013    3       1       0.3332106       82.36297
2013    3       2       0.3160871       78.90518
2013    3       3       0.3029839       76.19677
2013    3       4       0.3752252       90.51897
2013    3       5       0.3279587       81.1727
2013    3       6       0.3169817       79.03882
2013    3       7       0.3135021       78.2215
2013    4       0       0.2722837       69.74103
2013    4       1       0.2377734       62.37478
2013    4       2       0.2364168       62.03232
2013    4       3       0.2374641       62.21447
2013    4       4       0.258382        66.66238
2013    4       5       0.2824641       71.65571
2013    4       6       0.2507193       65.07066
2013    4       7       0.1977191       53.56658
2013    5       0       0.1762912       48.61205
2013    5       1       0.1795031       49.19563
2013    5       2       0.1926689       52.0942
2013    5       3       0.1443187       40.69081
2013    5       4       0.1634192       44.57592
2013    5       5       0.19417         50.92435
2013    5       6       0.1904143       50.17507
2013    5       7       0.1917593       50.79527
2013    6       0       0.2142788       56.20139
2013    6       1       0.2827183       70.40834
2013    6       2       0.2666881       67.17332
2013    6       3       0.2003394       53.25762
2013    6       4       0.1886333       50.72836
2013    6       5       0.1838386       49.74321
2013    6       6       0.1605524       44.65009
2013    6       7       0.13305         38.4163
2013    7       0       0.1145802       33.78942
2013    7       1       0.1161982       33.75751
2013    7       2       0.1052043       30.88668
2013    7       3       0.1640926       43.21774
2013    7       4       0.2349458       58.2531
2013    7       5       0.2585132       64.03041
2013    7       6       0.2040005       54.0139
2013    7       7       0.2084791       55.23161
2013    8       0       0.2037793       54.31447
2013    8       1       0.1907331       51.45449
2013    8       2       0.1749122       48.02485
2013    8       3       0.1761439       48.37375
2013    8       4       0.1660632       46.04141
2013    8       5       0.1621989       45.15382
2013    8       6       0.1572051       44.08743
2013    8       7       0.1412408       40.41126
2013    9       0       0.1220887       35.76691
2013    9       1       0.1161861       34.30229
2013    9       2       0.1134682       33.64151
2013    9       3       0.1077295       32.25681
2013    9       4       0.1003409       30.45946
2013    9       5       0.09321498      28.67233
2013    9       6       0.09501116      29.1498
2013    9       7       0.1027689       31.12909
2013    10      0       0.1058834       31.91228
2013    10      1       0.1080245       32.40554
2013    10      2       0.1121219       33.38243
2013    10      3       0.1110564       33.11109
2013    10      4       0.1148454       34.02186
2013    10      5       0.1301804       37.704
2013    10      6       0.1503597       42.56578
2013    10      7       0.1849673       50.55714
2013    11      0       0.2282381       60.09667
2013    11      1       0.2204357       58.3559
2013    11      2       0.1925092       52.08337
2013    11      3       0.1730641       47.60849
2013    11      4       0.1989932       53.49731
2013    11      5       0.2656379       67.82938
2013    11      6       0.3316522       81.10079
2013    11      7       0.3881027       91.81235
2013    12      0       0.4596548       104.5039
2013    12      1       0.504015        112.0963
2013    12      2       0.5270097       115.8913
2013    12      3       0.5487622       119.2354
2013    12      4       0.5701085       122.5727
2013    12      5       0.5626599       121.5231
2013    12      6       0.5342324       117.1345
2013    12      7       0.5061543       112.5409
2013    13      0       0.4175945       97.39743
2013    13      1       0.2932304       73.78833
2013    13      2       0.1915096       51.94967
2013    13      3       0.1566828       44.0183
2013    13      4       0.1246368       36.54784
2013    13      5       0.09792595      30.04266
2013    13      6       0.08997322      28.1236
2013    13      7       0.08069195      25.74177
2013    14      0       0.07746685      24.88164
2013    14      1       0.0783516       25.04963
2013    14      2       0.07632442      24.51548
2013    14      3       0.07912705      25.1671
2013    14      4       0.0941749       28.94217
2013    14      5       0.134115        38.69776
2013    14      6       0.1820307       49.87812
2013    14      7       0.1875529       51.02839
2013    15      0       0.2119672       56.29636
2013    15      1       0.1932551       52.04278
2013    15      2       0.1811378       49.03078
2013    15      3       0.1697667       46.18325
2013    15      4       0.1970148       52.1186
2013    15      5       0.2439553       62.22692
2013    15      6       0.2638144       66.36863
2013    15      7       0.2967311       73.01639
2013    16      0       0.3577232       84.82345
2013    16      1       0.4051617       93.82926
2013    16      2       0.4196572       96.72907
2013    16      3       0.3926641       92.24729
2013    16      4       0.3756892       89.23552
2013    16      5       0.3584672       86.16013
2013    16      6       0.3226252       79.15652
2013    16      7       0.2845654       71.37763
2013    17      0       0.2797313       70.38819
2013    17      1       0.2514852       64.6086
2013    17      2       0.2002319       53.82534
2013    17      3       0.1689836       46.87333
2013    17      4       0.1644942       45.82707
2013    17      5       0.1786319       48.96293
2013    17      6       0.193109        52.1684
2013    17      7       0.198091        53.27654
2013    18      0       0.2249275       59.1777
2013    18      1       0.2490385       64.27585
2013    18      2       0.2566071       65.79768
2013    18      3       0.2494158       64.28415
2013    18      4       0.2573086       66.08416
2013    18      5       0.2642844       67.6865
2013    18      6       0.2520958       65.17198
2013    18      7       0.2393215       62.4704
2013    19      0       0.2408406       62.79527
2013    19      1       0.2476586       64.22241
2013    19      2       0.238665        62.30559
2013    19      3       0.210897        56.3193
2013    19      4       0.186863        51.02645
2013    19      5       0.1675329       46.60796
2013    19      6       0.1515152       42.85317
2013    19      7       0.1315765       38.11129
2013    20      0       0.1186822       34.94439
2013    20      1       0.1171044       34.47037
2013    20      2       0.1091595       32.39773
2013    20      3       0.1021786       30.55896
2013    20      4       0.09383678      28.47114
2013    20      5       0.08502151      26.3343
2013    20      6       0.08039953      25.19152
2013    20      7       0.07662342      24.24809
2013    21      0       0.07611841      24.17628
2013    21      1       0.07635912      24.31384
2013    21      2       0.07515253      24.03243
2013    21      3       0.07399819      23.7582
2013    21      4       0.07628471      24.35386
2013    21      5       0.0792492       25.12635
2013    21      6       0.07531027      24.22575
2013    21      7       0.07192497      23.42208
2013    22      0       0.07835393      24.97366
2013    22      1       0.08339434      26.21131
2013    22      2       0.08284801      26.07602
2013    22      3       0.0933227       28.37565
2013    22      4       0.110879        32.6179
2013    22      5       0.1252111       36.1728
2013    22      6       0.1380955       38.93252
2013    22      7       0.1409637       39.42748
2013    23      0       0.1459175       40.58542
2013    23      1       0.1557058       42.91433
2013    23      2       0.147395        41.13692
2013    23      3       0.1459706       40.8276
2013    23      4       0.1444162       40.36905
2013    23      5       0.1546374       42.63227
2013    23      6       0.1450062       40.46173
2013    23      7       0.140452        39.42944
2013    24      0       0.1628364       44.30731
2013    24      1       0.155394        42.68842
2013    24      2       0.1670814       45.30712
2013    24      3       0.2352519       60.43098
2013    24      4       0.3596049       86.00501
2013    24      5       0.4477357       102.7651
2013    24      6       0.3904239       92.5738
2013    24      7       0.3159539       78.00522
2013    25      0       0.2645986       67.14474
2013    25      1       0.2355977       60.65331
2013    25      2       0.2360542       61.17481
2013    25      3       0.2930439       73.69214
2013    25      4       0.3373896       82.79167
2013    25      5       0.3307798       81.29984
2013    25      6       0.2554141       65.71675
2013    25      7       0.2151812       57.15176
2013    26      0       0.2078457       55.52838
2013    26      1       0.2226764       58.54019
2013    26      2       0.2628552       66.85681
2013    26      3       0.2340991       61.1781
2013    26      4       0.2575696       65.71046
2013    26      5       0.3353293       80.57564
2013    26      6       0.3518762       83.61409
2013    26      7       0.371544        87.28556
2013    27      0       0.466718        104.5081
2013    27      1       0.6994919       140.8715
2013    27      2       0.6850544       139.2286
2013    27      3       0.5250819       115.5283
2013    27      4       0.6328133       132.483
2013    27      5       0.5836289       125.0076
2013    27      6       0.5075224       113.1481
2013    27      7       0.4174774       97.86986
2013    28      0       0.384759        91.96016
2013    28      1       0.3830079       91.48732
2013    28      2       0.3225932       79.63261
2013    28      3       0.310314        76.76089
2013    28      4       0.3301187       80.66619
2013    28      5       0.3434721       83.51896
2013    28      6       0.3559998       86.13029
2013    28      7       0.3637725       87.65941
2013    29      0       0.3948794       93.31121
2013    29      1       0.4544373       103.7026
2013    29      2       0.4634932       105.341
2013    29      3       0.4290805       99.56773
2013    29      4       0.4194904       97.99434
2013    29      5       0.4167714       97.65773
2013    29      6       0.4105482       96.65443
2013    29      7       0.3927428       93.53126
2013    30      0       0.3436492       84.20155
2013    30      1       0.3054524       76.6563
2013    30      2       0.3236856       80.47391
2013    30      3       0.326123        81.05782
2013    30      4       0.261973        67.85777
2013    30      5       0.2250937       59.66978
2013    30      6       0.3028369       75.46006
2013    30      7       0.4194009       96.88808
2014    1       0       0.7018175       140.0058
2014    1       1       0.7118696       140.5881
2014    1       2       0.570312        120.9078
2014    1       3       0.4215997       97.08427
2014    1       4       0.4229219       97.31466
2014    1       5       0.4521834       102.244
2014    1       6       0.4365669       99.5844
2014    1       7       0.4462084       101.4762
2014    2       0       0.4465946       101.7102
2014    2       1       0.4197042       97.15963
2014    2       2       0.3896051       91.80048
2014    2       3       0.3592675       86.23332
2014    2       4       0.3386059       82.32793
2014    2       5       0.3342213       81.49343
2014    2       6       0.3247276       79.728
2014    2       7       0.3177921       78.43929
2014    3       0       0.3005599       75.03019
2014    3       1       0.3289787       80.28277
2014    3       2       0.3768818       89.3383
2014    3       3       0.3706808       88.29214
2014    3       4       0.36575         87.67843
2014    3       5       0.3833121       91.21753
2014    3       6       0.3524327       85.39987
2014    3       7       0.2386829       62.00368
2014    4       0       0.2315186       60.47543
2014    4       1       0.2646555       67.6641
2014    4       2       0.2549753       65.75264
2014    4       3       0.2393502       62.37024
2014    4       4       0.2305059       60.39047
2014    4       5       0.2193229       57.97404
2014    4       6       0.2043366       54.68885
2014    4       7       0.2009532       53.9519
2014    5       0       0.200482        53.93038
2014    5       1       0.196936        53.12151
2014    5       2       0.187984        51.14513
2014    5       3       0.1671931       46.54704
2014    5       4       0.1547427       43.67159
2014    5       5       0.1778285       48.70654
2014    5       6       0.2600826       65.88642
2014    5       7       0.3203598       77.70725
2014    6       0       0.3694232       86.89626
2014    6       1       0.5106846       111.4487
2014    6       2       0.5190403       113.0012
2014    6       3       0.5094126       111.4752
2014    6       4       0.3948389       91.93987
2014    6       5       0.3370099       81.13897
2014    6       6       0.2965696       73.41384
2014    6       7       0.2704282       68.39958
2014    7       0       0.2675804       67.98668
2014    7       1       0.2787333       70.51676
2014    7       2       0.245703        63.80898
2014    7       3       0.201129        54.22535
2014    7       4       0.1930153       52.34093
2014    7       5       0.1887655       51.51656
2014    7       6       0.1914094       52.33661
2014    7       7       0.204447        55.37476
2014    8       0       0.19139         52.40292
2014    8       1       0.1770752       48.95534
2014    8       2       0.1749968       48.32322
2014    8       3       0.1822839       49.93845
2014    8       4       0.2038461       54.85904
2014    8       5       0.2317935       61.19332
2014    8       6       0.231308        61.20326
2014    8       7       0.2270315       60.17099
2014    9       0       0.2224605       59.10077
2014    9       1       0.209554        56.2034
2014    9       2       0.2122469       56.74419
2014    9       3       0.2393926       62.60119
2014    9       4       0.263867        67.81614
2014    9       5       0.2669089       68.46685
2014    9       6       0.240731        62.88531
2014    9       7       0.2442683       63.64513
2014    10      0       0.2698798       69.0675
2014    10      1       0.2811114       71.40976
2014    10      2       0.2674587       68.62136
2014    10      3       0.2416911       63.20455
2014    10      4       0.2444669       63.73095
2014    10      5       0.2708632       69.21714
2014    10      6       0.2840482       71.97575
2014    10      7       0.2871257       72.59278
2014    11      0       0.3191849       78.95138
2014    11      1       0.3786948       90.37248
2014    11      2       0.4603316       105.2153
2014    11      3       0.5216805       115.7137
2014    11      4       0.5693064       123.1301
2014    11      5       0.6047336       128.394
2014    11      6       0.6058653       128.5673
2014    11      7       0.6223612       130.8132
2014    12      0       0.6368573       132.6567
2014    12      1       0.6861862       139.4034
2014    12      2       0.6988302       140.6618
2014    12      3       0.695491        139.8575
2014    12      4       0.6913153       139.4075
2014    12      5       0.7302264       144.5721
2014    12      6       0.8202513       156.0972
2014    12      7       0.7074873       141.4646
2014    13      0       0.6888376       138.9596
2014    13      1       0.6820274       137.787
2014    13      2       0.6585677       134.225
2014    13      3       0.6337908       130.7212
2014    13      4       0.6248866       129.7818
2014    13      5       0.5964435       125.5319
2014    13      6       0.569894        121.4483
2014    13      7       0.5877671       124.0918
2014    14      0       0.5927462       124.6832
2014    14      1       0.5807711       122.9225
2014    14      2       0.6029581       126.3992
2014    14      3       0.5962975       125.2629
2014    14      4       0.5158388       112.9778
2014    14      5       0.5079478       111.7703
2014    14      6       0.5050148       110.5362
2014    14      7       0.4102049       94.78228
2014    15      0       0.4433148       100.8372
2014    15      1       0.4431438       100.9718
2014    15      2       0.4266044       97.84093
2014    15      3       0.3759081       88.84196
2014    15      4       0.4186351       96.71218
2014    15      5       0.4698781       105.9041
2014    15      6       0.4860451       108.507
2014    15      7       0.4642491       104.9235
2014    16      0       0.4526315       103.0333
2014    16      1       0.4308815       99.22498
2014    16      2       0.3945234       92.63161
2014    16      3       0.3710976       88.07871
2014    16      4       0.3734525       88.5695
2014    16      5       0.3761902       88.86022
2014    16      6       0.3199613       77.58241
2014    16      7       0.2774448       69.1329
2014    17      0       0.2486602       63.80834
2014    17      1       0.2343852       61.02001
2014    17      2       0.2380941       61.82348
2014    17      3       0.2388906       61.95942
2014    17      4       0.2334157       60.79802
2014    17      5       0.2246788       58.85482
2014    17      6       0.2064588       55.06879
2014    17      7       0.2349253       60.9853
2014    18      0       0.2481164       63.10187
2014    18      1       0.1949408       51.56067
2014    18      2       0.1330201       37.96981
2014    18      3       0.1423298       40.04637
2014    18      4       0.160534        43.90515
2014    18      5       0.14571         40.62489
2014    18      6       0.1732791       46.24038
2014    18      7       0.1889005       50.16084
2014    19      0       0.2293154       58.58892
2014    19      1       0.3248552       76.47763
2014    19      2       0.3191823       75.78428
2014    19      3       0.3150558       75.21665
2014    19      4       0.3832928       88.84138
2014    19      5       0.5179496       112.4984
2014    19      6       0.5876036       123.6925
2014    19      7       0.597111        125.1849
2014    20      0       0.6335911       130.1736
2014    20      1       0.6406546       131.0542
2014    20      2       0.5886794       124.0049
2014    20      3       0.5056275       111.7667
2014    20      4       0.4504248       102.7896
2014    20      5       0.3651355       87.65708
2014    20      6       0.2696725       69.19636
2014    20      7       0.202531        54.57424
2014    21      0       0.1784621       48.9378
2014    21      1       0.1104613       32.87812
2014    21      2       0.08298429      26.02505
2014    21      3       0.07127923      23.03229
2014    21      4       0.06568426      21.68216
2014    21      5       0.06281661      20.91711
2014    21      6       0.0628839       20.81526
2014    21      7       0.06851069      22.15719
2014    22      0       0.07609195      24.01675
2014    22      1       0.08306102      25.80118
2014    22      2       0.09256916      28.21094
2014    22      3       0.1016056       30.47246
2014    22      4       0.1053423       31.37886
2014    22      5       0.1073077       31.81272
2014    22      6       0.1051687       31.2562
2014    22      7       0.1023634       30.61371
2014    23      0       0.1185812       34.55086
2014    23      1       0.1361579       38.69908
2014    23      2       0.1465155       41.17571
2014    23      3       0.1437966       40.53068
2014    23      4       0.1352345       38.50517
2014    23      5       0.1365406       38.84877
2014    23      6       0.1407697       39.93941
2014    23      7       0.1682936       46.28186
2014    24      0       0.2171832       56.93963
2014    24      1       0.2607592       66.0667
2014    24      2       0.2753092       69.25273
2014    24      3       0.2701796       68.17505
2014    24      4       0.2443387       62.83831
2014    24      5       0.2214382       58.09947
2014    24      6       0.2489887       63.96625
2014    24      7       0.263802        67.26874
2014    25      0       0.4141703       95.79099
2014    25      1       0.7316036       143.3186
2014    25      2       0.9924536       172.7495
2014    25      3       0.8675209       159.8416
2014    25      4       0.7768553       149.439
2014    25      5       0.8281645       155.3766
2014    25      6       0.9847684       172.3247
2014    25      7       0.957501        169.4159
2014    26      0       0.9605274       169.5655
2014    26      1       0.8867408       161.7111
2014    26      2       0.8360252       155.858
2014    26      3       0.8764835       160.5569
2014    26      4       0.7204959       141.9772
2014    26      5       0.6577883       133.8926
2014    26      6       0.659747        134.3886
2014    26      7       0.6404289       131.6637
2014    27      0       0.6349255       130.4164
2014    27      1       0.5817355       122.8552
2014    27      2       0.495483        109.6573
2014    27      3       0.4571272       103.3846
2014    27      4       0.486607        108.4586
2014    27      5       0.508031        112.1959
2014    27      6       0.5176902       113.8509
2014    27      7       0.5138561       113.0285
2014    28      0       0.4677236       105.3527
2014    28      1       0.4202916       97.32783
2014    28      2       0.3867259       91.12508
2014    28      3       0.3821932       89.83172
2014    28      4       0.3916077       91.62306
2014    28      5       0.4254992       97.847
2014    28      6       0.5609252       120.9347
2014    28      7       0.4703147       105.838
2014    29      0       0.4601585       104.3284
2014    29      1       0.4578745       103.7885
2014    29      2       0.4282958       98.82747
2014    29      3       0.3836985       91.01854
2014    29      4       0.3260998       80.19453
2014    29      5       0.3166241       78.05317
2014    29      6       0.3732775       88.46063
2014    29      7       0.456949        103.3222
2014    30      0       0.5097711       111.9145
2014    30      1       0.4961534       109.6345
2014    30      2       0.5613412       119.846
2014    30      3       0.6204549       128.719
2014    30      4       0.6164561       128.377
2014    30      5       0.5935067       125.2889
2014    30      6       0.5504206       118.8382
2014    30      7       0.4938906       109.7876
2015    1       0       0.195485        52.85747
2015    1       1       0.1746877       48.10482
2015    1       2       0.157641        44.13569
2015    1       3       0.1416088       40.28443
2015    1       4       0.1435805       40.74295
2015    1       5       0.1445895       41.05204
2015    1       6       0.1469426       41.67406
2015    1       7       0.1638548       45.57865
2015    2       0       0.1732086       47.63951
2015    2       1       0.1658825       45.8577
2015    2       2       0.1748211       47.94361
2015    2       3       0.1686108       46.46326
2015    2       4       0.152314        42.74372
2015    2       5       0.1516763       42.64875
2015    2       6       0.1654078       45.82843
2015    2       7       0.1759861       48.27641
2015    3       0       0.1769843       48.57018
2015    3       1       0.17612         48.40477
2015    3       2       0.1824158       49.68169
2015    3       3       0.1889659       51.29649
2015    3       4       0.2189375       58.10389
2015    3       5       0.2514297       65.17937
2015    3       6       0.2615163       67.35081
2015    3       7       0.2690898       68.92165
2015    4       0       0.2709564       69.38246
2015    4       1       0.2433655       63.51333
2015    4       2       0.2368262       62.10117
2015    4       3       0.2431736       63.44159
2015    4       4       0.2656771       68.34567
2015    4       5       0.2622772       68.07137
2015    4       6       0.2301457       61.05567
2015    4       7       0.1981586       53.71206
2015    5       0       0.185728        50.68789
2015    5       1       0.2060873       55.15367
2015    5       2       0.227666        59.96237
2015    5       3       0.2313251       60.64618
2015    5       4       0.2597169       66.38021
2015    5       5       0.3570902       85.96036
2015    5       6       0.4562818       104.105
2015    5       7       0.4833923       108.7151
2015    6       0       0.4881996       109.4174
2015    6       1       0.4560084       103.8721
2015    6       2       0.4135247       96.25645
2015    6       3       0.3646982       87.03343
2015    6       4       0.3425595       82.64939
2015    6       5       0.3451693       83.10042
2015    6       6       0.3153121       77.40877
2015    6       7       0.2835841       71.12554
2015    7       0       0.2688248       68.11396
2015    7       1       0.2710518       68.67193
2015    7       2       0.2744508       69.40048
2015    7       3       0.2959367       73.87993
2015    7       4       0.3082981       76.2603
2015    7       5       0.3223266       79.07204
2015    7       6       0.3199778       78.95776
2015    7       7       0.3044058       76.07928
2015    8       0       0.283836        71.77426
2015    8       1       0.2811811       71.14109
2015    8       2       0.2743355       69.62225
2015    8       3       0.2703936       68.89004
2015    8       4       0.2595345       66.82856
2015    8       5       0.2516248       65.35376
2015    8       6       0.2134608       57.14271
2015    8       7       0.1801928       49.65617
2015    9       0       0.1790632       49.39076
2015    9       1       0.1885643       51.52451
2015    9       2       0.1818992       49.97597
2015    9       3       0.155482        43.83559
2015    9       4       0.1389264       39.8486
2015    9       5       0.1375904       39.54185
2015    9       6       0.1444623       41.04669
2015    9       7       0.159563        44.29682
2015    10      0       0.2007598       53.34131
2015    10      1       0.2478979       63.38309
2015    10      2       0.2818141       70.33299
2015    10      3       0.3328591       79.93808
2015    10      4       0.4136575       94.48969
2015    10      5       0.4604488       103.2481
2015    10      6       0.4249958       97.52681
2015    10      7       0.338798        81.88099
2015    11      0       0.3294656       80.07794
2015    11      1       0.3338886       80.89164
2015    11      2       0.2614397       66.2019
2015    11      3       0.1821864       48.85551
2015    11      4       0.1802412       48.28133
2015    11      5       0.1855325       49.64577
2015    11      6       0.1895856       50.73056
2015    11      7       0.2141413       56.17966
2015    12      0       0.2363802       61.15356
2015    12      1       0.264884        67.17809
2015    12      2       0.2959455       73.42363
2015    12      3       0.3047485       75.0179
2015    12      4       0.2996776       73.88445
2015    12      5       0.2966664       73.12223
2015    12      6       0.2744055       68.65621
2015    12      7       0.2464872       62.9887
2015    13      0       0.2442346       62.62422
2015    13      1       0.2560855       65.15093
2015    13      2       0.2264196       58.85241
2015    13      3       0.2111239       55.72277
2015    13      4       0.189756        50.98701
2015    13      5       0.1840922       49.73745
2015    13      6       0.1792728       48.71393
2015    13      7       0.1717485       47.08256
2015    14      0       0.1770096       48.23208
2015    14      1       0.1763627       48.06259
2015    14      2       0.159076        44.16402
2015    14      3       0.1466146       41.32674
2015    14      4       0.1533636       42.9362
2015    14      5       0.1732088       47.6195
2015    14      6       0.1762395       48.37001
2015    14      7       0.1793043       49.1716
2015    15      0       0.1949833       52.76453
2015    15      1       0.2126895       56.71461
2015    15      2       0.2142714       57.12576
2015    15      3       0.200524        54.17923
2015    15      4       0.1963042       53.26826
2015    15      5       0.1908677       52.09223
2015    15      6       0.1665008       46.56274
2015    15      7       0.1535746       43.53418
2015    16      0       0.1605641       45.08766
2015    16      1       0.1526663       43.22804
2015    16      2       0.138961        39.97635
2015    16      3       0.1244247       36.47756
2015    16      4       0.118216        35.00032
2015    16      5       0.1305383       37.97504
2015    16      6       0.1490445       42.38181
2015    16      7       0.1558809       43.98375
2015    17      0       0.1453669       41.49122
2015    17      1       0.140249        40.23935
2015    17      2       0.1502221       42.52569
2015    17      3       0.1699844       47.06674
2015    17      4       0.2091018       55.84208
2015    17      5       0.2384504       62.24154
2015    17      6       0.2569828       66.24281
2015    17      7       0.280982        71.24546
2015    18      0       0.3103227       77.19372
2015    18      1       0.3380166       82.54285
2015    18      2       0.3858721       91.19085
2015    18      3       0.5133775       112.4139
2015    18      4       0.4657892       104.725
2015    18      5       0.4053898       94.45211
2015    18      6       0.3413182       82.09253
2015    18      7       0.3022573       74.03858
2015    19      0       0.289029        71.2824
2015    19      1       0.2872118       70.97042
2015    19      2       0.2977416       73.20096
2015    19      3       0.3194508       77.5465
2015    19      4       0.3880593       90.49197
2015    19      5       0.4337887       98.60848
2015    19      6       0.4374459       99.25483
2015    19      7       0.4488922       101.403
2015    20      0       0.433977        98.91153
2015    20      1       0.4195351       96.19663
2015    20      2       0.4344202       98.60718
2015    20      3       0.4104771       94.26992
2015    20      4       0.3763904       88.03328
2015    20      5       0.3595547       84.89164
2015    20      6       0.3026306       74.05422
2015    20      7       0.2518986       63.79943
2015    21      0       0.2076172       54.25032
2015    21      1       0.1624789       44.12862
2015    21      2       0.1674597       45.35616
2015    21      3       0.1891975       50.47483
2015    21      4       0.2484259       63.52809
2015    21      5       0.3333752       80.74032
2015    21      6       0.3474154       83.52673
2015    21      7       0.3836661       90.00454
2015    22      0       0.4439616       100.6049
2015    22      1       0.4942787       108.9039
2015    22      2       0.5134595       111.8947
2015    22      3       0.4768334       106.1035
2015    22      4       0.4680593       104.8101
2015    22      5       0.4821801       107.2545
2015    22      6       0.4731865       105.989
2015    22      7       0.4508989       102.3421
2015    23      0       0.39291         92.11627
2015    23      1       0.3547826       85.17292
2015    23      2       0.3213686       78.8554
2015    23      3       0.2761706       69.83149
2015    23      4       0.2396728       62.31264
2015    23      5       0.2155426       57.10835
2015    23      6       0.2054655       54.62189
2015    23      7       0.2208721       57.30965
2015    24      0       0.2949611       71.57023
2015    24      1       0.4423604       97.70762
2015    24      2       0.537757        113.9662
2015    24      3       0.4898492       106.9964
2015    24      4       0.4324269       97.90939
2015    24      5       0.4275333       96.40373
2015    24      6       0.3783346       87.4261
2015    24      7       0.3489625       82.48359
2015    25      0       0.3303454       79.30735
2015    25      1       0.3367854       80.59005
2015    25      2       0.3133555       76.15235
2015    25      3       0.2979251       71.87428
2015    25      4       0.2751962       68.60805
2015    25      5       0.2405939       61.92815
2015    25      6       0.2205292       58.0337
2015    25      7       0.1844594       50.25452
2015    26      0       0.1834205       50.05611
2015    26      1       0.2625634       67.34104
2015    26      2       0.403799        94.27117
2015    26      3       0.5396069       116.1704
2015    26      4       0.5114768       111.5819
2015    26      5       0.4780317       106.2219
2015    26      6       0.4198267       96.5681
2015    26      7       0.3015281       74.59533
2015    27      0       0.1846343       49.66315
2015    27      1       0.1512361       42.01815
2015    27      2       0.17881         48.31266
2015    27      3       0.2496694       63.58288
2015    27      4       0.2590459       65.68254
2015    27      5       0.2367819       61.05373
2015    27      6       0.2426116       62.28935
2015    27      7       0.2744138       68.92507
2015    28      0       0.2849592       71.06534
2015    28      1       0.2609821       66.28676
2015    28      2       0.238936        61.7698
2015    28      3       0.2104976       55.67353
2015    28      4       0.1776799       48.3574
2015    28      5       0.1475852       41.3635
2015    28      6       0.1207021       35.08293
2015    28      7       0.1043159       31.25505
2015    29      0       0.1153649       34.05047
2015    29      1       0.1302768       37.70054
2015    29      2       0.1343428       38.70721
2015    29      3       0.1328146       38.38731
2015    29      4       0.1411088       40.29049
2015    29      5       0.1528367       42.97825
2015    29      6       0.159913        44.58225
2015    29      7       0.1596231       44.52843
2015    30      0       0.1845331       49.93077
2015    30      1       0.2248358       58.43544
2015    30      2       0.2545963       64.61186
2015    30      3       0.2744066       68.82126
2015    30      4       0.2964581       73.30542
2015    30      5       0.308403        75.70647
2015    30      6       0.3173275       77.34015
2015    30      7       0.3268918       79.00008
2016    1       0       0.1114225       33.16959
2016    1       1       0.1190875       34.99816
2016    1       2       0.1294935       37.4323
2016    1       3       0.1269683       36.77818
2016    1       4       0.1212306       35.34479
2016    1       5       0.1150325       33.89695
2016    1       6       0.1037292       31.23931
2016    1       7       0.09724866      29.69432
2016    2       0       0.1035267       31.25054
2016    2       1       0.1051044       31.63917
2016    2       2       0.1000946       30.38826
2016    2       3       0.09665028      29.51278
2016    2       4       0.09713437      29.56262
2016    2       5       0.09597554      29.28855
2016    2       6       0.09956919      30.23553
2016    2       7       0.1029984       31.08639
2016    3       0       0.1030072       31.02472
2016    3       1       0.1060027       31.6548
2016    3       2       0.1180597       34.35351
2016    3       3       0.1219327       35.16276
2016    3       4       0.1246973       35.90382
2016    3       5       0.1352682       38.53803
2016    3       6       0.142462        40.43474
2016    3       7       0.1374978       39.34729
2016    4       0       0.1233608       35.96752
2016    4       1       0.119189        34.89178
2016    4       2       0.1196192       35.03906
2016    4       3       0.1089407       32.55984
2016    4       4       0.1017397       30.80287
2016    4       5       0.09522135      29.07418
2016    4       6       0.09233524      28.29712
2016    4       7       0.09566259      29.0668
2016    5       0       0.09966389      30.02544
2016    5       1       0.1031926       30.88371
2016    5       2       0.1017436       30.48982
2016    5       3       0.1048917       31.11868
2016    5       4       0.1179293       34.23803
2016    5       5       0.1302338       37.16403
2016    5       6       0.1304902       37.38509
2016    5       7       0.1192882       34.85284
2016    6       0       0.1057537       31.54747
2016    6       1       0.09386191      28.55776
2016    6       2       0.07822244      24.61236
2016    6       3       0.07202575      23.07893
2016    6       4       0.07001171      22.6684
2016    6       5       0.08107398      25.67397
2016    6       6       0.09847761      30.19934
2016    6       7       0.1275829       37.4221
2016    7       0       0.1471327       42.09295
2016    7       1       0.1776813       49.28208
2016    7       2       0.162309        45.57855
2016    7       3       0.1952007       53.11023
2016    7       4       0.2915098       73.81531
2016    7       5       0.3698581       89.22365
2016    7       6       0.3861568       92.13503
2016    7       7       0.3421876       83.66485
2016    8       0       0.3122736       77.66672
2016    8       1       0.3758368       89.69796
2016    8       2       0.5014578       111.379
2016    8       3       0.5265372       115.1821
2016    8       4       0.4469602       101.6223
2016    8       5       0.3829614       89.82329
2016    8       6       0.3542072       84.45721
2016    8       7       0.3196638       77.78008
2016    9       0       0.3063339       75.0021
2016    9       1       0.312673        76.15146
2016    9       2       0.3327815       80.14437
2016    9       3       0.3656423       86.49006
2016    9       4       0.3702109       87.49605
2016    9       5       0.3364597       81.34956
2016    9       6       0.3142014       77.281
2016    9       7       0.3032497       75.0798
2016    10      0       0.2868862       71.49909
2016    10      1       0.2733072       69.03916
2016    10      2       0.1911978       51.51473
2016    10      3       0.1581391       44.08346
2016    10      4       0.1189671       34.88958
2016    10      5       0.1131199       33.37669
2016    10      6       0.1368449       38.90603
2016    10      7       0.1367322       39.03481
2016    11      0       0.1135936       33.7386
2016    11      1       0.1012402       30.77306
2016    11      2       0.1240498       36.12612
2016    11      3       0.1554157       43.35282
2016    11      4       0.1730929       47.38669
2016    11      5       0.1911828       51.44372
2016    11      6       0.2141068       56.43089
2016    11      7       0.2536452       64.85098
2016    12      0       0.3205591       78.4243
2016    12      1       0.3875509       91.19155
2016    12      2       0.3780551       89.47098
2016    12      3       0.3406208       82.41443
2016    12      4       0.3619          86.4495
2016    12      5       0.3798911       90.43916
2016    12      6       0.3088713       76.79211
2016    12      7       0.3108421       77.07277
2016    13      0       0.323016        79.34566
2016    13      1       0.3245651       79.73162
2016    13      2       0.3064733       76.30601
2016    13      3       0.2841487       71.91161
2016    13      4       0.2986895       74.74193
2016    13      5       0.3123854       77.33158
2016    13      6       0.3133323       77.49214
2016    13      7       0.3060602       76.0409
2016    14      0       0.283449        71.32728
2016    14      1       0.2559925       65.55441
2016    14      2       0.2286971       59.58291
2016    14      3       0.2322718       60.17858
2016    14      4       0.289672        72.04882
2016    14      5       0.3326166       80.53512
2016    14      6       0.3078737       75.67832
2016    14      7       0.2734792       68.65529
2016    15      0       0.2820959       70.50247
2016    15      1       0.3312121       80.51205
2016    15      2       0.3899689       91.65002
2016    15      3       0.4163452       96.46746
2016    15      4       0.4222473       97.56335
2016    15      5       0.4402337       100.9236
2016    15      6       0.3764398       89.33058
2016    15      7       0.3711039       88.18171
2016    16      0       0.3713103       87.98397
2016    16      1       0.3539673       84.53454
2016    16      2       0.3385142       81.45626
2016    16      3       0.3282384       79.39197
2016    16      4       0.3216105       78.13474
2016    16      5       0.3157098       76.99424
2016    16      6       0.3119168       76.05706
2016    16      7       0.2985923       73.49534
2016    17      0       0.2964818       73.09887
2016    17      1       0.2983857       73.35279
2016    17      2       0.2918088       71.73651
2016    17      3       0.2830653       69.77584
2016    17      4       0.2864245       70.49179
2016    17      5       0.2835973       70.31833
2016    17      6       0.2793096       69.7645
2016    17      7       0.2656889       67.05707
2016    18      0       0.2499061       63.64811
2016    18      1       0.2471562       63.0164
2016    18      2       0.2257747       58.68284
2016    18      3       0.1889987       50.96076
2016    18      4       0.2072564       55.25533
2016    18      5       0.2416682       62.85445
2016    18      6       0.2258648       59.5867
2016    18      7       0.1877413       51.3574
2016    19      0       0.1505854       42.81015
2016    19      1       0.1234241       36.30231
2016    19      2       0.09622529      29.49694
2016    19      3       0.0742886       23.83497
2016    19      4       0.07159655      23.12439
2016    19      5       0.07612503      24.13654
2016    19      6       0.07497627      23.82488
2016    19      7       0.06897429      22.40217
2016    20      0       0.07054417      22.71386
2016    20      1       0.07498817      23.76289
2016    20      2       0.08103146      25.25113
2016    20      3       0.08074015      25.23197
2016    20      4       0.09198492      27.96822
2016    20      5       0.1037373       30.67346
2016    20      6       0.1087974       31.79046
2016    20      7       0.1122338       32.82612
2016    21      0       0.1148388       33.54059
2016    21      1       0.1220151       35.10067
2016    21      2       0.1371683       38.65582
2016    21      3       0.149968        41.76797
2016    21      4       0.1432621       40.34826
2016    21      5       0.1351517       38.63345
2016    21      6       0.142002        40.36769
2016    21      7       0.1393871       39.76872
2016    22      0       0.126303        36.6482
2016    22      1       0.1101595       32.70999
2016    22      2       0.09655259      29.33759
2016    22      3       0.08512191      26.48166
2016    22      4       0.08022079      25.24239
2016    22      5       0.0775739       24.5766
2016    22      6       0.07733952      24.55521
2016    22      7       0.08276125      25.92185
2016    23      0       0.08791131      27.2686
2016    23      1       0.08997708      27.87437
2016    23      2       0.08923583      27.79267
2016    23      3       0.09438812      29.1474
2016    23      4       0.100633        30.73101
2016    23      5       0.09812092      30.13088
2016    23      6       0.08620944      27.14642
2016    23      7       0.07633187      24.61821
2016    24      0       0.07296061      23.71546
2016    24      1       0.07196766      23.38386
2016    24      2       0.07622607      24.34365
2016    24      3       0.08445568      26.27436
2016    24      4       0.09977041      30.23645
2016    24      5       0.1162224       34.36061
2016    24      6       0.1248765       36.34495
2016    24      7       0.1377772       39.32136
2016    25      0       0.1426784       40.58398
2016    25      1       0.1476337       41.83557
2016    25      2       0.1532034       43.09479
2016    25      3       0.1558551       43.73171
2016    25      4       0.1462691       41.50708
2016    25      5       0.1299972       37.69345
2016    25      6       0.117834        34.87375
2016    25      7       0.1150138       34.11665
2016    26      0       0.1072127       32.13911
2016    26      1       0.110488        32.82375
2016    26      2       0.1245501       36.08982
2016    26      3       0.1325404       37.83353
2016    26      4       0.1322662       37.74714
2016    26      5       0.1319746       37.7958
2016    26      6       0.1656892       45.28751
2016    26      7       0.1880044       50.21026
2016    27      0       0.2021318       53.25568
2016    27      1       0.2111162       55.24527
2016    27      2       0.2334928       59.92162
2016    27      3       0.260073        65.22101
2016    27      4       0.2800308       69.3244
2016    27      5       0.2772436       69.10259
2016    27      6       0.2679476       67.39262
2016    27      7       0.262064        66.36819
2016    28      0       0.269259        68.05949
2016    28      1       0.2749109       69.3728
2016    28      2       0.2648525       67.41762
2016    28      3       0.2669744       67.95618
2016    28      4       0.2914466       73.14537
2016    28      5       0.3016497       75.45567
2016    28      6       0.2810159       71.43944
2016    28      7       0.2557342       66.25167
2016    29      0       0.2441261       63.82333
2016    29      1       0.2460516       64.23374
2016    29      2       0.2363409       62.15042
2016    29      3       0.2180471       58.12162
2016    29      4       0.2102376       56.29704
2016    29      5       0.199361        53.85968
2016    29      6       0.1660516       46.24011
2016    29      7       0.1503831       42.50966
2016    30      0       0.1437848       40.95516
2016    30      1       0.130535        37.83301
2016    30      2       0.1198586       35.27476
2016    30      3       0.1086063       32.52547
2016    30      4       0.1079808       32.41249
2016    30      5       0.1107159       33.11636
2016    30      6       0.1053714       31.81777
2016    30      7       0.09908853      30.26
2017    1       0       0.2466765       62.48161
2017    1       1       0.2277308       58.86335
2017    1       2       0.2526001       63.61064
2017    1       3       0.2374745       60.49308
2017    1       4       0.2348071       59.63911
2017    1       5       0.340022        79.20592
2017    1       6       0.3559689       82.29208
2017    1       7       0.3001131       72.5792
2017    2       0       0.2631893       65.53515
2017    2       1       0.2561918       64.23409
2017    2       2       0.3074689       74.56041
2017    2       3       0.3508524       83.14839
2017    2       4       0.3019389       74.22227
2017    2       5       0.2492857       63.8807
2017    2       6       0.2688721       68.01364
2017    2       7       0.2693707       68.37986
2017    3       0       0.2505296       64.90034
2017    3       1       0.2385478       62.54445
2017    3       2       0.2060308       55.31198
2017    3       3       0.1806946       49.30667
2017    3       4       0.2023102       54.35631
2017    3       5       0.2106817       56.71454
2017    3       6       0.2170788       58.01167
2017    3       7       0.3134844       77.26875
2017    4       0       0.4354728       100.0184
2017    4       1       0.5431459       118.1372
2017    4       2       0.5480785       118.7508
2017    4       3       0.5182441       113.9833
2017    4       4       0.5767157       123.4957
2017    4       5       0.6241329       130.7423
2017    4       6       0.5930988       125.9973
2017    4       7       0.5423389       118.1037
2017    5       0       0.5388069       117.6466
2017    5       1       0.5705532       122.5259
2017    5       2       0.586368        124.9931
2017    5       3       0.6008535       127.2582
2017    5       4       0.6190033       130.2227
2017    5       5       0.6432144       133.9612
2017    5       6       0.6415712       133.8705
2017    5       7       0.6259635       131.8559
2017    6       0       0.5703543       123.8012
2017    6       1       0.5148311       115.1078
2017    6       2       0.5006829       112.7462
2017    6       3       0.4718295       107.9017
2017    6       4       0.3736172       90.40751
2017    6       5       0.2963796       75.23953
2017    6       6       0.2290346       60.9583
2017    6       7       0.1555292       44.21208
2017    7       0       0.128405        37.75338
2017    7       1       0.1402567       40.71929
2017    7       2       0.1518142       43.51057
2017    7       3       0.1315155       38.61168
2017    7       4       0.1069718       32.43586
2017    7       5       0.1133406       33.84311
2017    7       6       0.1565076       44.19627
2017    7       7       0.3174682       79.34235
2017    8       0       0.4245649       99.77589
2017    8       1       0.4302298       100.4215
2017    8       2       0.4556684       104.4007
2017    8       3       0.4373542       101.0014
2017    8       4       0.4490813       102.8481
2017    8       5       0.5189987       114.0362
2017    8       6       0.5568743       119.8174
2017    8       7       0.5259779       115.1754
2017    9       0       0.5091592       112.4359
2017    9       1       0.5388707       116.9325
2017    9       2       0.5511065       118.6095
2017    9       3       0.5560579       119.2909
2017    9       4       0.6052233       127.0809
2017    9       5       0.6553371       134.3918
2017    9       6       0.5865097       124.2472
2017    9       7       0.4332219       99.47416
2017    10      0       0.3960809       92.82448
2017    10      1       0.3791682       89.55835
2017    10      2       0.3461063       83.16731
2017    10      3       0.330586        80.16899
2017    10      4       0.3069275       75.71937
2017    10      5       0.261739        66.48616
2017    10      6       0.2171709       56.90205
2017    10      7       0.192987        51.74089
2017    11      0       0.1819104       49.33668
2017    11      1       0.1775629       48.29333
2017    11      2       0.1673634       45.86259
2017    11      3       0.1667431       45.73617
2017    11      4       0.2222931       58.4043
2017    11      5       0.3123366       77.39993
2017    11      6       0.360484        86.8439
2017    11      7       0.3838075       91.07201
2017    12      0       0.3412779       82.59996
2017    12      1       0.2729673       68.42702
2017    12      2       0.2509332       63.66444
2017    12      3       0.2489421       63.4658
2017    12      4       0.2808376       70.43751
2017    12      5       0.2891676       72.44617
2017    12      6       0.269805        68.80282
2017    12      7       0.2457633       63.86488
2017    13      0       0.2211259       58.44829
2017    13      1       0.2039105       54.32461
2017    13      2       0.1928271       51.69024
2017    13      3       0.1761598       48.01259
2017    13      4       0.1775118       48.25818
2017    13      5       0.1770713       48.13474
2017    13      6       0.1618201       44.75928
2017    13      7       0.1526026       42.71318
2017    14      0       0.1481901       41.8692
2017    14      1       0.1444861       40.99175
2017    14      2       0.1316193       37.72448
2017    14      3       0.1452362       40.21753
2017    14      4       0.1438447       39.79426
2017    14      5       0.1458629       40.2953
2017    14      6       0.1423453       39.66965
2017    14      7       0.1632968       44.12944
2017    15      0       0.1767045       46.80979
2017    15      1       0.1942029       50.78537
2017    15      2       0.216865        56.31638
2017    15      3       0.2447424       62.33863
2017    15      4       0.2964017       72.788
2017    15      5       0.3727565       87.45923
2017    15      6       0.4112354       94.64057
2017    15      7       0.3999696       92.65827
2017    16      0       0.3893771       90.58684
2017    16      1       0.3943554       91.34605
2017    16      2       0.4343942       98.73649
2017    16      3       0.4914939       108.8826
2017    16      4       0.4824146       107.6646
2017    16      5       0.4200154       97.07402
2017    16      6       0.3742257       88.99675
2017    16      7       0.3387299       82.59677
2017    17      0       0.3182774       78.77801
2017    17      1       0.2897535       73.04633
2017    17      2       0.3038768       75.70028
2017    17      3       0.3508235       84.68018
2017    17      4       0.4548802       103.2264
2017    17      5       0.5542742       118.9931
2017    17      6       0.5877666       123.5267
2017    17      7       0.5273677       114.1481
2017    18      0       0.4321754       98.10717
2017    18      1       0.4075975       93.61208
2017    18      2       0.3927149       91.0986
2017    18      3       0.4122061       94.99978
2017    18      4       0.4500377       101.8458
2017    18      5       0.4521761       102.0729
2017    18      6       0.4339756       99.03837
2017    18      7       0.4413317       100.4957
2017    19      0       0.4134634       95.59747
2017    19      1       0.3963596       92.35803
2017    19      2       0.4161682       95.88315
2017    19      3       0.4452131       101.0602
2017    19      4       0.5230211       114.0825
2017    19      5       0.5756006       122.2735
2017    19      6       0.5539291       119.1058
2017    19      7       0.5340216       115.9996
2017    20      0       0.501412        110.6966
2017    20      1       0.4898445       108.6241
2017    20      2       0.4334946       98.76699
2017    20      3       0.4045289       93.74829
2017    20      4       0.4079306       94.48488
2017    20      5       0.4228887       96.86701
2017    20      6       0.4283245       97.40765
2017    20      7       0.5049154       110.8045
2017    21      0       0.5634487       120.2461
2017    21      1       0.4759794       106.0168
2017    21      2       0.4254483       97.58054
2017    21      3       0.4593813       103.1984
2017    21      4       0.4141517       94.65863
2017    21      5       0.2874406       70.71698
2017    21      6       0.2745012       69.17934
2017    21      7       0.2420208       63.13867
2017    22      0       0.1114505       33.29289
2017    22      1       0.07279843      23.29595
2017    22      2       0.08933975      27.59794
2017    22      3       0.08022971      25.46489
2017    22      4       0.08199771      25.8536
2017    22      5       0.08183505      25.72926
2017    22      6       0.07924376      25.05954
2017    22      7       0.07778375      24.74021
2017    23      0       0.08371715      26.2724
2017    23      1       0.09679707      29.56446
2017    23      2       0.1342935       38.74583
2017    23      3       0.1846799       50.53747
2017    23      4       0.2175263       57.86173
2017    23      5       0.2616486       67.23162
2017    23      6       0.2849425       71.99505
2017    23      7       0.3090185       76.64271
2017    24      0       0.3226562       78.81513
2017    24      1       0.2896258       72.04568
2017    24      2       0.2832458       70.38633
2017    24      3       0.2697321       67.37546
2017    24      4       0.2676475       66.5323
2017    24      5       0.2909989       71.66591
2017    24      6       0.3116856       76.2447
2017    24      7       0.2754285       69.27348
2017    25      0       0.2550455       65.34279
2017    25      1       0.2294388       60.09409
2017    25      2       0.2313489       60.50187
2017    25      3       0.2696248       68.33335
2017    25      4       0.3183958       78.11617
2017    25      5       0.3600341       86.37837
2017    25      6       0.361246        86.52392
2017    25      7       0.383668        90.58758
2017    26      0       0.4243805       97.82755
2017    26      1       0.437228        99.77449
2017    26      2       0.4210603       96.78526
2017    26      3       0.3657459       86.80903
2017    26      4       0.3158226       77.43201
2017    26      5       0.3025089       74.80945
2017    26      6       0.2658838       67.42387
2017    26      7       0.2362982       61.21911
2017    27      0       0.2327196       60.34105
2017    27      1       0.2455036       62.99549
2017    27      2       0.2410847       62.08425
2017    27      3       0.2391018       61.71259
2017    27      4       0.2337195       60.62342
2017    27      5       0.2448711       63.02016
2017    27      6       0.2489276       63.84175
2017    27      7       0.2276222       59.19658
2017    28      0       0.2117821       55.64098
2017    28      1       0.20583         54.28596
2017    28      2       0.1919061       51.23495
2017    28      3       0.1769053       47.91966
2017    28      4       0.1840153       49.57713
2017    28      5       0.1856921       49.95756
2017    28      6       0.1714534       46.75026
2017    28      7       0.1640931       45.0335
2017    29      0       0.1736138       47.20763
2017    29      1       0.2071022       54.82748
2017    29      2       0.2652993       67.43582
2017    29      3       0.3044179       75.49219
2017    29      4       0.3632662       86.96866
2017    29      5       0.3920114       92.42494
2017    29      6       0.3426693       83.30617
2017    29      7       0.2834405       71.46789
2017    30      0       0.232429        60.60677
2017    30      1       0.2009805       53.69274
2017    30      2       0.1827163       49.64729
2017    30      3       0.1674349       46.23504
2017    30      4       0.1899132       51.45121
2017    30      5       0.2375476       62.03873
2017    30      6       0.2226475       58.93453
2017    30      7       0.1805832       49.58856
2018    1       0       0.07083492      23.19694
2018    1       1       0.07248262      23.60507
2018    1       2       0.0711324       23.25198
2018    1       3       0.07232513      23.5432
2018    1       4       0.07872784      25.16934
2018    1       5       0.08362178      26.42725
2018    1       6       0.08158865      25.96702
2018    1       7       0.07985198      25.58394
2018    2       0       0.08880375      27.86928
2018    2       1       0.09502712      29.42381
2018    2       2       0.0872343       27.44082
2018    2       3       0.08056257      25.73768
2018    2       4       0.07794721      25.06255
2018    2       5       0.07731526      24.87895
2018    2       6       0.07791457      25.01231
2018    2       7       0.07855561      25.11607
2018    3       0       0.08611709      27.00011
2018    3       1       0.1009759       30.7435
2018    3       2       0.124829        36.47075
2018    3       3       0.130549        37.82533
2018    3       4       0.1175706       34.6761
2018    3       5       0.09990583      30.31305
2018    3       6       0.09653883      29.27644
2018    3       7       0.09896218      29.68596
2018    4       0       0.1038377       30.81359
2018    4       1       0.1060697       31.45172
2018    4       2       0.1017186       30.2722
2018    4       3       0.08989549      27.46086
2018    4       4       0.1112226       32.558
2018    4       5       0.1134023       33.14518
2018    4       6       0.09719421      29.27353
2018    4       7       0.09079943      27.75011
2018    5       0       0.1031327       30.75559
2018    5       1       0.1162171       33.80463
2018    5       2       0.1228756       35.32888
2018    5       3       0.132309        37.67903
2018    5       4       0.1828941       49.19139
2018    5       5       0.2385941       61.09249
2018    5       6       0.2465015       62.69791
2018    5       7       0.2503178       63.49403
2018    6       0       0.2819422       69.99753
2018    6       1       0.2831706       70.53208
2018    6       2       0.2024999       54.03537
2018    6       3       0.1759006       48.05331
2018    6       4       0.1595934       44.22475
2018    6       5       0.1494999       41.79992
2018    6       6       0.1384508       39.3044
2018    6       7       0.1213379       35.31247
2018    7       0       0.1021741       30.53594
2018    7       1       0.0930779       28.15036
2018    7       2       0.0837263       25.76244
2018    7       3       0.07111004      22.54747
2018    7       4       0.07681983      24.0389
2018    7       5       0.1155806       33.51706
2018    7       6       0.1602245       43.98842
2018    7       7       0.1993661       52.86924
2018    8       0       0.189419        50.69306
2018    8       1       0.1628622       44.68822
2018    8       2       0.1652747       45.37943
2018    8       3       0.168454        46.31513
2018    8       4       0.1863224       50.3749
2018    8       5       0.2091701       55.41654
2018    8       6       0.2224864       58.16637
2018    8       7       0.2169758       56.78664
2018    9       0       0.2099064       54.99803
2018    9       1       0.2069704       54.37161
2018    9       2       0.1906003       50.88819
2018    9       3       0.1469416       41.12475
2018    9       4       0.1104144       32.61063
2018    9       5       0.0844948       26.31402
2018    9       6       0.06261782      20.9418
2018    9       7       0.05676794      19.45371
2018    10      0       0.07325134      23.43276
2018    10      1       0.09214152      28.08812
2018    10      2       0.1074998       31.73553
2018    10      3       0.1214109       34.94247
2018    10      4       0.1129855       33.1166
2018    10      5       0.1316467       37.85103
2018    10      6       0.1805197       49.48594
2018    10      7       0.2121477       56.71252
2018    11      0       0.1949246       52.85667
2018    11      1       0.1656977       46.14096
2018    11      2       0.1306515       37.9633
2018    11      3       0.1100295       33.03357
2018    11      4       0.1124796       33.65427
2018    11      5       0.1169106       34.77849
2018    11      6       0.1068105       32.36177
2018    11      7       0.09846105      30.29042
2018    12      0       0.09997092      30.623
2018    12      1       0.1041079       31.5993
2018    12      2       0.0935516       28.86635
2018    12      3       0.09077566      28.08737
2018    12      4       0.08919433      27.69204
2018    12      5       0.08371404      26.35652
2018    12      6       0.08643079      27.0136
2018    12      7       0.08575851      26.78808
2018    13      0       0.1379981       39.51457
2018    13      1       0.3298986       81.27322
2018    13      2       0.4311347       100.0068
2018    13      3       0.4254409       98.82104
2018    13      4       0.507368        112.8251
2018    13      5       0.5205812       115.1167
2018    13      6       0.5162312       114.5387
2018    13      7       0.5196096       114.9715
2018    14      0       0.528601        116.1097
2018    14      1       0.522478        114.4507
2018    14      2       0.521898        114.9281
2018    14      3       0.5502057       119.211
2018    14      4       0.5412335       118.0908
2018    14      5       0.5319887       116.7869
2018    14      6       0.481565        108.5492
2018    14      7       0.4401995       101.4438
2018    15      0       0.3611183       87.07153
2018    15      1       0.2903314       73.07958
2018    15      2       0.2586849       66.48001
2018    15      3       0.2352438       61.68923
2018    15      4       0.2290155       60.1581
2018    15      5       0.2312883       60.53692
2018    15      6       0.2194742       57.93115
2018    15      7       0.2236179       58.84305
2018    16      0       0.2270363       59.62306
2018    16      1       0.2226481       58.53409
2018    16      2       0.1912846       51.48647
2018    16      3       0.1703644       46.74484
2018    16      4       0.1740387       47.64224
2018    16      5       0.1890757       50.99868
2018    16      6       0.1904419       51.36461
2018    16      7       0.1799382       49.08068
2018    17      0       0.173254        47.66335
2018    17      1       0.1843257       50.11301
2018    17      2       0.2136653       56.28413
2018    17      3       0.2307861       59.94574
2018    17      4       0.2242658       58.6765
2018    17      5       0.2108613       55.88545
2018    17      6       0.2024613       54.15266
2018    17      7       0.2033545       54.4212
2018    18      0       0.2067621       55.14949
2018    18      1       0.204088        54.6098
2018    18      2       0.1982719       53.24135
2018    18      3       0.1906277       51.52887
2018    18      4       0.1850761       50.27187
2018    18      5       0.1846444       50.09096
2018    18      6       0.1873369       50.72171
2018    18      7       0.1903013       51.42185
2018    19      0       0.1980496       53.08044
2018    19      1       0.2105749       55.79576
2018    19      2       0.2176142       57.3327
2018    19      3       0.2082242       55.26582
2018    19      4       0.1887301       50.96891
2018    19      5       0.1741306       47.68159
2018    19      6       0.1748724       47.88822
2018    19      7       0.1722522       47.33968
2018    20      0       0.1658644       45.86195
2018    20      1       0.168613        46.41837
2018    20      2       0.1731567       47.36671
2018    20      3       0.1784641       48.4861
2018    20      4       0.1866122       50.29502
2018    20      5       0.1963981       52.40627
2018    20      6       0.205401        54.17542
2018    20      7       0.2120019       55.35632
2018    21      0       0.2019022       53.18088
2018    21      1       0.1896333       50.53633
2018    21      2       0.1921313       51.0156
2018    21      3       0.1902164       50.64923
2018    21      4       0.1846446       49.45744
2018    21      5       0.1730543       46.94202
2018    21      6       0.1650776       45.19716
2018    21      7       0.1555193       43.13626
2018    22      0       0.1514047       42.27632
2018    22      1       0.1517597       42.40317
2018    22      2       0.1496403       41.98812
2018    22      3       0.1459434       41.22315
2018    22      4       0.1494872       42.11249
2018    22      5       0.1578058       44.06618
2018    22      6       0.1610466       44.89277
2018    22      7       0.1779814       48.99521
2018    23      0       0.1882675       51.35996
2018    23      1       0.2379945       62.356
2018    23      2       0.2407011       62.866
2018    23      3       0.2195094       58.26543
2018    23      4       0.2803688       71.23358
2018    23      5       0.3892829       92.4146
2018    23      6       0.4170366       97.37526
2018    23      7       0.4315891       99.81754
2018    24      0       0.4980823       110.8654
2018    24      1       0.4728808       106.5315
2018    24      2       0.4431407       101.3761
2018    24      3       0.4429113       101.2136
2018    24      4       0.4537666       103.0739
2018    24      5       0.4859597       108.4437
2018    24      6       0.5063649       111.7992
2018    24      7       0.488803        108.9664
2018    25      0       0.4895546       109.0023
2018    25      1       0.5135206       112.7841
2018    25      2       0.4557216       103.0916
2018    25      3       0.4303279       98.63637
2018    25      4       0.4087525       94.85646
2018    25      5       0.4088476       94.93252
2018    25      6       0.4450061       101.314
2018    25      7       0.4265755       98.21669
2018    26      0       0.3745143       88.81334
2018    26      1       0.316244        77.65338
2018    26      2       0.2655393       67.27064
2018    26      3       0.2562314       65.17228
2018    26      4       0.2576302       65.48574
2018    26      5       0.2621292       66.40763
2018    26      6       0.347082        83.53451
2018    26      7       0.452711        102.6635
2018    27      0       0.4397036       100.35
2018    27      1       0.4325382       98.81424
2018    27      2       0.427309        97.95414
2018    27      3       0.4045254       94.03659
2018    27      4       0.3977232       92.7734
2018    27      5       0.4522339       102.1376
2018    27      6       0.5022417       110.4123
2018    27      7       0.4914722       108.4832
2018    28      0       0.5417373       115.9158
2018    28      1       0.5546472       117.9786
2018    28      2       0.473166        104.7074
2018    28      3       0.3553707       83.3898
2018    28      4       0.3291844       78.12049
2018    28      5       0.3625305       84.48603
2018    28      6       0.3807232       87.8774
2018    28      7       0.3746178       86.93281
2018    29      0       0.3805236       88.27488
2018    29      1       0.3125726       76.06028
2018    29      2       0.2821448       70.10841
2018    29      3       0.2804722       69.37344
2018    29      4       0.269614        67.10761
2018    29      5       0.3078934       74.59987
2018    29      6       0.2803439       69.50246
2018    29      7       0.2545742       64.47909
2018    30      0       0.2472123       63.00611
2018    30      1       0.2483722       63.23937
2018    30      2       0.2406422       61.673
2018    30      3       0.2150914       56.2299
2018    30      4       0.2127892       55.78607
2018    30      5       0.2473797       63.18965
2018    30      6       0.3036379       74.5282
2018    30      7       0.3373501       80.94466
