####################################################################################################
# Month: 02Feb                                                                                     #
# Station: SMT                                                                                     #
# Frequency: 345 GHz                                                                               #
# Columns are: year    day     tau     Tb (K)                                                      #
####################################################################################################
2009    1       0.16265406      44.67145
2009    2       0.20634786      53.9668525
2009    3       0.17248195      47.48033375
2009    4       0.13435139      37.515125
2009    5       0.27863655      68.72621375
2009    6       0.28347469      67.829085
2009    7       0.41484824      91.91766125
2009    8       0.6202977       122.671175
2009    9       0.30730519      68.73442375
2009    10      0.46803431      97.63389375
2009    11      0.20487308      52.9815425
2009    12      0.58755044      116.5661
2009    13      0.12726731      36.66881
2009    14      0.20193636      52.71932625
2009    15      0.29080409      67.9050775
2009    16      0.5485068       106.3825825
2009    17      0.27489205      67.143255
2009    18      0.15195145      42.0854625
2009    19      0.13017342      37.34818875
2009    20      0.13713742      39.30162125
2009    21      0.21743571      55.68106375
2009    22      0.68234809      119.49592375
2009    23      1.36978975      199.2137
2009    24      0.60608368      120.57857375
2009    25      0.56428854      115.15376
2009    26      0.32084328      76.3661425
2009    27      0.68052561      131.286425
2009    28      0.62948934      126.1931125
2010    1       0.36039982      81.9921875
2010    2       0.5006029       105.0201225
2010    3       1.13747242      175.8222125
2010    4       0.62574231      115.5147875
2010    5       0.61372061      120.17842375
2010    6       0.45493675      98.4882375
2010    7       0.61106689      121.5696575
2010    8       0.31675703      73.9949075
2010    9       0.30470136      72.1491
2010    10      0.56002956      110.6596425
2010    11      0.5480431       107.97282875
2010    12      0.51547216      109.319915
2010    13      0.19681949      51.93267875
2010    14      0.33365636      78.7516775
2010    15      0.41149164      92.33480375
2010    16      0.28826445      69.7285625
2010    17      0.19217948      51.0516725
2010    18      0.35915391      82.6055075
2010    19      0.26600839      65.27718375
2010    20      0.32896885      74.8406975
2010    21      0.37607626      83.491395
2010    22      0.76050789      135.56230125
2010    23      0.24813874      56.7413975
2010    24      0.42178631      84.04803875
2010    25      0.66708619      122.98605875
2010    26      0.22144965      54.98267375
2010    27      0.47259879      101.018495
2010    28      0.70350321      130.4347025
2011    1       0.36364178      80.78695375
2011    2       0.11596196      33.27839625
2011    3       0.12565174      35.41583125
2011    4       0.3166524       73.7409425
2011    5       0.48097602      102.28535875
2011    6       0.41006751      91.49072
2011    7       0.45763191      100.701955
2011    8       0.2539724       64.07815
2011    9       0.1877638       49.4008125
2011    10      0.11560269      34.20020875
2011    11      0.11392478      33.54007125
2011    12      0.14576864      40.10057625
2011    13      0.36770615      86.48093625
2011    14      0.65081484      124.2525
2011    15      0.41199499      92.11246125
2011    16      0.82387219      148.95395
2011    17      0.72829022      125.1829925
2011    18      0.44765761      93.9636525
2011    19      1.01032496      169.6131375
2011    20      0.39686145      85.4737175
2011    21      0.43109621      93.03858875
2011    22      0.33370644      78.4566825
2011    23      0.23617759      60.34789875
2011    24      0.27094245      65.82264875
2011    25      0.29406725      69.6435275
2011    26      0.26638399      63.25750125
2011    27      0.47231716      98.344665
2011    28      0.08844413      27.90523375
2012    1       0.2601404       63.27203125
2012    2       0.2449975       60.44755
2012    3       0.12594842      36.3513375
2012    4       0.22807431      56.51503375
2012    5       0.69067334      131.924275
2012    6       0.62441729      123.823325
2012    7       0.58037896      116.9544125
2012    8       1.16366641      181.383075
2012    9       0.84142535      145.90986375
2012    10      0.61347917      121.45101875
2012    11      0.2205522       55.67574375
2012    12      0.61796961      123.284
2012    13      0.50468609      105.68983625
2012    14      0.61779551      119.46325875
2012    15      0.28788229      67.74800625
2012    16      0.35982971      80.78424875
2012    17      0.77080094      139.3382075
2012    18      0.29214696      68.366305
2012    19      0.29418439      70.24617875
2012    20      0.24771931      60.05625125
2012    21      0.19190116      49.68570125
2012    22      0.26839855      66.99811125
2012    23      0.40467285      92.37203
2012    24      0.35872768      83.781125
2012    25      0.38526875      88.2741875
2012    26      0.35176058      82.1360425
2012    27      0.36134035      83.19078875
2012    28      0.24476183      59.34838375
2012    29      0.13035156      37.7154925
2013    1       0.23645648      60.0334125
2013    2       0.31966588      73.65551125
2013    3       1.06269011      165.279775
2013    4       0.59718353      116.26272375
2013    5       0.2468882       62.5871
2013    6       0.32261         75.16672
2013    7       0.16499715      43.68716625
2013    8       0.15632104      42.4534375
2013    9       0.21944065      55.29890125
2013    10      0.13536026      37.90265875
2013    11      0.29282335      66.2489625
2013    12      0.24320812      56.09074875
2013    13      0.2129918       54.19679
2013    14      0.14037968      39.678365
2013    15      0.12177859      35.50294125
2013    16      0.09113968      28.38678625
2013    17      0.17110816      45.76828875
2013    18      0.10694374      31.8592925
2013    19      0.28254464      67.210375
2013    20      0.54990792      110.005815
2013    21      0.32274789      73.71660125
2013    22      0.353233        79.29729625
2013    23      0.28004411      68.8774625
2013    24      0.36428666      82.325885
2013    25      0.14514291      39.8813175
2013    26      0.16205599      43.4699625
2013    27      0.12784926      36.590395
2013    28      0.14661318      40.8270025
2014    1       0.69182548      132.5177875
2014    2       0.26760536      64.25976875
2014    3       0.53732413      109.845135
2014    4       0.32781454      72.76310875
2014    5       0.85310032      145.43475125
2014    6       0.63012394      118.78961625
2014    7       0.59947996      118.24637375
2014    8       0.63153084      126.8042375
2014    9       0.81921072      150.28185
2014    10      0.80370654      150.1469625
2014    11      0.3617108       83.388645
2014    12      0.50181191      107.53658
2014    13      0.70615451      136.45285
2014    14      0.47849775      106.25464375
2014    15      0.37412938      87.92758
2014    16      0.36820411      84.96245875
2014    17      0.54000299      112.77066
2014    18      0.38343794      88.54003
2014    19      0.7934057       143.1312525
2014    20      0.24164709      60.30051375
2014    21      0.53927989      108.9327125
2014    22      0.50093129      105.87705625
2014    23      0.66596956      128.9228125
2014    24      1.03293988      170.3569625
2014    25      1.19148188      184.1801375
2014    26      1.0747015       173.4809125
2014    27      0.65178683      128.5406
2014    28      0.6219161       123.33866625
2015    1       0.7578339       133.2915025
2015    2       0.41660016      93.38037375
2015    3       0.3510742       82.85525875
2015    4       0.40995432      92.47861875
2015    5       0.24443338      62.73943875
2015    6       0.17550522      48.40546375
2015    7       0.20839014      54.95756875
2015    8       0.23896815      62.723835
2015    9       0.15119918      43.03473875
2015    10      0.16373491      45.3011175
2015    11      0.24935011      62.2394575
2015    12      0.31579375      73.85101
2015    13      0.25787189      64.5720275
2015    14      0.45682254      99.911215
2015    15      1.15822696      182.5592375
2015    16      0.56436236      110.72693625
2015    17      0.30814769      73.9384225
2015    18      0.38119116      89.29400625
2015    19      0.38872949      88.66908625
2015    20      0.47178432      100.5467025
2015    21      0.4807853       100.30386375
2015    22      0.75249609      137.76665875
2015    23      0.49079878      102.043325
2015    24      0.32874184      76.04726375
2015    25      0.25333546      61.75544
2015    26      0.33251476      75.5651775
2015    27      0.59964211      119.6117125
2015    28      0.87202969      153.2589
2016    1       0.67239935      128.0607625
2016    2       0.22360299      54.74993875
2016    3       0.15885852      42.8010525
2016    4       0.20025889      51.25419375
2016    5       0.2115411       54.58235375
2016    6       0.19111885      51.38136
2016    7       0.26558025      66.66560125
2016    8       0.20827071      54.63560375
2016    9       0.23910909      61.83433625
2016    10      0.22613518      59.1018525
2016    11      0.16951371      46.645685
2016    12      0.16001484      45.00856125
2016    13      0.22495005      58.32488375
2016    14      0.2207849       57.54989375
2016    15      0.35357714      83.51445
2016    16      0.28515854      70.61212375
2016    17      0.17177798      47.55492375
2016    18      0.4465912       91.72788
2016    19      0.96428701      164.3561375
2016    20      0.82211808      151.3522375
2016    21      0.40888288      92.326645
2016    22      0.17349805      47.35224625
2016    23      0.22651451      58.48036875
2016    24      0.1460665       40.83549625
2016    25      0.26015448      65.74964625
2016    26      0.33434885      79.86439625
2016    27      0.38842999      88.9662875
2016    28      0.33827002      80.23867625
2016    29      0.46711129      102.4021525
2017    1       0.15141709      42.24191625
2017    2       0.150381        41.5652575
2017    3       0.315594        74.6648625
2017    4       0.20850646      53.60031
2017    5       0.29749822      70.9405825
2017    6       0.68763688      129.048975
2017    7       1.18707033      184.561025
2017    8       0.85409005      155.427425
2017    9       0.69259858      135.4625275
2017    10      0.47464798      103.37484125
2017    11      0.605368        124.221275
2017    12      1.01308623      164.98585
2017    13      1.19496367      183.789825
2017    14      0.80932252      145.863275
2017    15      0.5488352       111.88132125
2017    16      0.18295604      49.18919125
2017    17      0.83958265      135.02149375
2017    18      1.09693436      176.13685
2017    19      0.86536626      150.6661
2017    20      0.51494188      107.79039875
2017    21      0.49920098      108.16283875
2017    22      0.68727486      135.4848125
2017    23      0.40717497      83.5533925
2017    24      0.128922        36.9350775
2017    25      0.19878304      51.5150575
2017    26      0.73863476      135.39525875
2017    27      0.34343296      74.18705875
2017    28      1.00889228      164.9363
2018    1       0.31365574      75.9964
2018    2       0.40718796      91.50059125
2018    3       0.61300346      119.882785
2018    4       0.31089479      74.86559375
2018    5       0.24003294      61.68044625
2018    6       0.27953751      69.2513525
2018    7       0.25811762      63.65718125
2018    8       0.26171411      66.16285375
2018    9       0.29650775      73.01006125
2018    10      0.34466935      80.62265
2018    11      0.68450208      131.4224075
2018    12      0.45152282      97.5048375
2018    13      0.33746809      78.8176525
2018    14      1.0631689       163.10868
2018    15      1.77206962      220.181175
2018    16      1.53800525      206.8591
2018    17      0.56236478      96.4186675
2018    18      0.59954668      119.64126625
2018    19      0.47148265      100.9064575
2018    20      0.14067901      39.51929375
2018    21      0.15392981      42.10016375
2018    22      0.2777262       65.21271125
2018    23      0.17804003      47.51969875
2018    24      0.0937565       29.02228625
2018    25      0.12815671      36.6864875
2018    26      0.11042168      32.61675375
2018    27      0.2154526       55.1005375
2018    28      0.38704059      86.4575725
