####################################################################################################
# Month: 05May                                                                                     #
# Station: BMAC                                                                                    #
# Frequency: 345 GHz                                                                               #
# Columns are: year    day     tau     Tb (K)                                                      #
####################################################################################################
2009    1       0.26394121      65.5597975
2009    2       0.64246115      130.2638875
2009    3       1.06987242      169.6667375
2009    4       1.48710488      205.8076625
2009    5       1.43914306      198.2835375
2009    6       1.60837562      214.3809
2009    7       1.21708865      187.400875
2009    8       0.62653554      122.8098275
2009    9       0.67947241      130.7619225
2009    10      0.45121898      97.97810375
2009    11      0.56545982      117.09029625
2009    12      0.82430998      147.0779725
2009    13      0.92930131      163.4384
2009    14      1.18689105      184.3809625
2009    15      0.97279436      166.5582
2009    16      0.61977391      121.54493125
2009    17      0.66692532      126.31561875
2009    18      0.7677817       135.4274875
2009    19      0.30705851      74.81315625
2009    20      0.27702399      69.2734125
2009    21      0.34340285      80.83761375
2009    22      0.59632251      122.23379125
2009    23      0.63123242      125.181295
2009    24      0.92664128      162.1520875
2009    25      0.95639         166.4755
2009    26      0.4386221       98.04061375
2009    27      0.41090114      94.54683625
2009    28      0.50547648      108.14764125
2009    29      0.64933803      129.41276375
2009    30      0.2931313       67.7180525
2009    31      0.54914996      109.580735
2010    1       0.50141139      106.96530375
2010    2       0.9275503       153.3616375
2010    3       2.02441363      233.41425
2010    4       1.18755726      187.8579
2010    5       0.5696255       119.50321875
2010    6       0.31151259      75.833435
2010    7       0.67043138      133.806825
2010    8       0.85883296      158.3073
2010    9       0.92215435      160.47875
2010    10      0.44678972      94.70844625
2010    11      0.7812287       145.53865
2010    12      0.66992262      130.52534125
2010    13      0.4950075       100.43225
2010    14      1.15919505      173.51288875
2010    15      1.19399708      183.1408125
2010    16      1.72921396      217.910375
2010    17      0.74757836      142.26355
2010    18      0.65947421      127.937835
2010    19      0.83773416      154.21655
2010    20      0.81527365      149.1627625
2010    21      0.46613785      102.59863625
2010    22      0.47285615      103.18183875
2010    23      0.33746575      80.628755
2010    24      0.37314092      87.94823
2010    25      0.61934484      122.43662
2010    26      0.84472836      154.5357875
2010    27      0.60329759      123.17435
2010    28      0.3961377       84.97793125
2010    29      0.12355058      36.10145125
2010    30      0.22583598      58.1378675
2010    31      0.32865311      78.22433625
2011    1       0.13421735      39.45232875
2011    2       0.5690462       103.19408375
2011    3       1.20356129      188.9147
2011    4       0.82308232      147.65690375
2011    5       0.96503705      158.292735
2011    6       1.44134275      204.6510125
2011    7       1.03987592      173.113825
2011    8       0.76386915      144.8213125
2011    9       0.88641644      155.2780875
2011    10      1.40645269      198.0278
2011    11      1.41718525      203.0747875
2011    12      1.2985469       192.2831125
2011    13      1.06441678      171.6213
2011    14      0.79949744      145.70928625
2011    15      0.71758759      138.20336375
2011    16      0.75097851      134.229795
2011    17      0.37477389      86.43663375
2011    18      0.27719218      67.42666375
2011    19      0.55808878      115.44535375
2011    20      0.86650344      157.2612875
2011    21      1.04535221      174.3013375
2011    22      1.42274488      203.137025
2011    23      1.05998005      175.3069375
2011    24      1.17526014      175.61195
2011    25      0.84153401      144.7301
2011    26      0.61840351      118.2871075
2011    27      0.18171087      48.59309
2011    28      0.21482953      55.62044625
2011    29      0.34312092      79.06610375
2011    30      0.34774185      79.72040125
2011    31      0.29365664      67.65828625
2012    1       1.33924895      195.5914375
2012    2       0.59097898      117.80659
2012    3       0.93336905      165.404375
2012    4       0.57768951      121.74715
2012    5       0.67965936      134.758025
2012    6       0.51051772      111.4815725
2012    7       0.49817515      108.02735125
2012    8       1.15229516      184.2273
2012    9       1.3317105       199.2197625
2012    10      1.2349258       190.902825
2012    11      1.17602342      186.1541625
2012    12      1.03884728      174.8828
2012    13      1.24974138      190.0059125
2012    14      1.38916049      200.124225
2012    15      0.58056049      114.58656625
2012    16      0.28293805      70.5907525
2012    17      0.10410894      32.0157575
2012    18      0.52681239      100.51057
2012    19      0.49193537      101.8124475
2012    20      0.09979854      30.47419625
2012    21      0.17901219      48.63579875
2012    22      0.27134291      65.63276625
2012    23      0.25129482      64.215075
2012    24      0.3463424       81.3859225
2012    25      0.57769038      120.7789
2012    26      0.5669469       116.6336025
2012    27      0.3267534       77.352825
2012    28      0.32664991      78.5314
2012    29      0.67969296      133.203525
2012    30      0.66640318      129.4489025
2012    31      0.2155405       56.555005
2013    1       0.2147429       56.822885
2013    2       0.19381039      52.6166475
2013    3       0.57251008      109.39024
2013    4       0.68276414      120.71019625
2013    5       0.24600094      59.7288825
2013    6       0.29082588      70.1716
2013    7       0.1773412       48.2545775
2013    8       0.83191889      146.83177625
2013    9       1.05329805      170.072325
2013    10      0.65806041      129.018075
2013    11      0.65616492      125.46410625
2013    12      0.24317159      61.6322025
2013    13      0.37307726      87.74612875
2013    14      0.34942488      83.24830875
2013    15      0.54223609      112.0530725
2013    16      1.26692481      188.4081125
2013    17      0.6409488       121.242545
2013    18      0.22410814      58.2349325
2013    19      0.44695678      96.32691
2013    20      0.92070779      157.2708675
2013    21      0.76558501      143.961275
2013    22      1.02508538      172.2182375
2013    23      1.25859642      189.160325
2013    24      1.04646042      171.5454375
2013    25      0.37391175      83.8039325
2013    26      1.3511575       198.9401375
2013    27      0.80679192      139.12665125
2013    28      0.17391188      46.99935125
2013    29      0.18537584      48.90707625
2013    30      0.30779699      73.18497125
2013    31      0.27817607      65.22707875
2014    1       0.61054508      125.68239
2014    2       0.4357084       98.7618125
2014    3       0.45038279      101.37041625
2014    4       0.73745626      139.2350675
2014    5       0.80730218      144.91225875
2014    6       0.47903118      103.9717125
2014    7       0.88323759      153.6737375
2014    8       1.01893593      171.676325
2014    9       0.66165865      124.38078625
2014    10      0.81917486      138.89361375
2014    11      0.77639141      141.7066125
2014    12      0.90068424      159.8527
2014    13      0.46238284      102.2852375
2014    14      0.74364849      139.4378
2014    15      0.45350629      99.98203875
2014    16      0.38269229      87.30510375
2014    17      0.13831325      39.40481625
2014    18      0.30559504      71.09448625
2014    19      1.0864908       176.7782875
2014    20      1.24445301      183.5162625
2014    21      0.34857748      80.43633375
2014    22      0.38528944      87.45312625
2014    23      0.56981562      116.939915
2014    24      0.39655671      89.35683
2014    25      0.30728132      75.00203625
2014    26      0.86093251      153.43415
2014    27      0.74065396      140.79494125
2014    28      0.64585131      129.45779125
2014    29      0.96970008      168.401875
2014    30      0.71774009      138.0118
2014    31      0.45456362      100.48069
2015    1       0.29350351      69.01127
2015    2       1.01811118      167.6904125
2015    3       0.54479166      115.02351875
2015    4       0.85758585      156.412325
2015    5       0.34595624      81.9085925
2015    6       0.36708         87.126405
2015    7       0.36445234      87.19530875
2015    8       0.36325155      84.69195625
2015    9       1.29329009      192.260925
2015    10      1.56546188      211.02895
2015    11      1.2737645       192.9943875
2015    12      0.57581458      118.30419875
2015    13      0.28228765      67.21967625
2015    14      0.5176728       109.9474325
2015    15      0.81294898      147.425
2015    16      0.51418356      107.06885875
2015    17      0.76211901      142.1677575
2015    18      0.5397482       114.5493225
2015    19      0.71362928      134.58362625
2015    20      0.4829179       104.4217775
2015    21      0.33589139      79.95138875
2015    22      0.42876878      95.8492525
2015    23      0.28579659      70.18757875
2015    24      0.7638576       141.266305
2015    25      0.91317834      162.0036875
2015    26      0.32424419      77.766165
2015    27      0.46722066      101.0539575
2015    28      0.55837383      118.1675525
2015    29      0.38946305      90.9721725
2015    30      0.27009829      68.8689075
2015    31      0.48256229      100.3894725
2016    1       0.50653194      107.99883125
2016    2       0.67581056      133.651875
2016    3       0.80004473      138.93593875
2016    4       0.4124696       92.38074875
2016    5       0.44751021      100.3025675
2016    6       0.46272984      99.53378875
2016    7       1.33863225      196.7466
2016    8       1.82038562      224.278425
2016    9       1.54355588      211.3777
2016    10      1.55189238      209.96395
2016    11      0.52359521      111.10708875
2016    12      0.55853599      109.53366625
2016    13      1.3635055       198.0714
2016    14      1.0924577       177.2839
2016    15      0.47238552      103.26391
2016    16      0.634808        126.54184
2016    17      0.4721954       103.40689875
2016    18      0.25902736      66.60490125
2016    19      0.63019785      119.5779475
2016    20      0.25464842      61.953355
2016    21      0.42323542      95.50591875
2016    22      0.41224571      94.61477875
2016    23      0.3832767       89.25282875
2016    24      0.72023739      138.14975125
2016    25      0.66756995      131.4672725
2016    26      0.36233391      85.14624125
2016    27      0.25129724      63.17251875
2016    28      0.40912009      93.9579225
2016    29      0.22308844      58.2669275
2016    30      0.2387493       61.80052
2016    31      0.17967925      48.95076625
2017    1       1.00415901      166.2390375
2017    2       1.69025588      219.426875
2017    3       1.69887412      219.0106625
2017    4       1.50361025      208.9223125
2017    5       0.89028314      160.227525
2017    6       1.05800038      172.3486625
2017    7       0.96162781      165.1529375
2017    8       1.1882223       183.3566625
2017    9       1.05909525      175.60925
2017    10      1.18358943      186.6617125
2017    11      1.55603825      209.6589625
2017    12      1.27314359      186.1289
2017    13      1.05674214      170.68105
2017    14      0.51790365      105.85922625
2017    15      0.99346316      169.8399
2017    16      1.2033002       187.164975
2017    17      0.38150001      89.1193675
2017    18      0.36689396      84.9772575
2017    19      0.52342772      113.52019
2017    20      0.32460284      79.45146125
2017    21      0.22985459      60.36783375
2017    22      0.32950255      76.0751025
2017    23      0.28945999      71.4022125
2017    24      0.23920974      62.34505625
2017    25      0.65131675      130.61913625
2017    26      0.85428844      157.2273625
2017    27      0.72013534      135.404915
2017    28      0.45994873      100.587705
2017    29      0.62186835      123.7397875
2017    30      0.43892138      99.665925
2017    31      0.24229971      62.911845
2018    1       0.37151074      82.026615
2018    2       0.80789574      148.6606875
2018    3       0.44821986      87.555525
2018    4       0.41938739      93.37977875
2018    5       0.26944112      67.321885
2018    6       0.16973095      47.35094625
2018    7       0.19217538      52.31420125
2018    8       0.4177245       94.561725
2018    9       0.46857931      102.55292125
2018    10      0.34319051      81.30966375
2018    11      0.53952913      109.8106275
2018    12      1.44115986      201.4236875
2018    13      0.88610058      159.185375
2018    14      1.11482959      178.8356375
2018    15      0.70386845      135.11187625
2018    16      0.15467871      43.75962125
2018    17      0.16859761      47.14371125
2018    18      0.20445921      54.61355375
2018    19      0.63906054      121.3073225
2018    20      1.25375135      180.046895
2018    21      0.62288569      121.1981125
2018    22      1.31402594      198.3411
2018    23      0.4728871       103.72331875
2018    24      0.5019176       110.1604
2018    25      0.43120611      96.90207875
2018    26      0.34938428      81.672875
2018    27      0.2126921       55.56313625
2018    28      0.60225664      115.19103
2018    29      0.73664285      126.0093725
2018    30      0.20457445      53.61327875
2018    31      0.65630719      113.40067375
