####################################################################################################
# Month: 11Nov                                                                                     #
# Station: ERB                                                                                     #
# Frequency: 230 GHz                                                                               #
# Columns are: year    day     tau     Tb (K)                                                      #
####################################################################################################
2009    1       1.02002471      173.2157875
2009    2       0.74356109      142.1547625
2009    3       0.72960844      139.9921375
2009    4       0.4478091       99.6296925
2009    5       0.29140425      71.1547675
2009    6       0.26714206      67.27952375
2009    7       0.25611618      65.1279725
2009    8       0.28156674      70.27074
2009    9       0.47838682      105.20260125
2009    10      0.53814189      115.35851375
2009    11      0.35068998      84.52577375
2009    12      0.36809201      87.01111
2009    13      0.40947015      93.07386375
2009    14      0.77544595      147.3315125
2009    15      0.38449554      89.01132875
2009    16      0.27854111      68.27175625
2009    17      0.59649236      120.33722125
2009    18      0.62936175      125.1909625
2009    19      0.50161464      107.11247625
2009    20      0.46177596      100.5755
2009    21      0.47234882      98.26094375
2009    22      0.21953355      55.26101
2009    23      0.29173361      70.3577475
2009    24      0.30552802      74.15859125
2009    25      0.35105976      81.296995
2009    26      0.39034496      88.07788625
2009    27      0.16613895      44.782265
2009    28      0.0793256       24.70451125
2009    29      0.11598564      33.56086625
2009    30      0.24603739      60.47587125
2010    1       0.1412078       39.62574
2010    2       0.13155209      37.61185125
2010    3       0.15011476      42.1121775
2010    4       0.1277962       36.71462375
2010    5       0.09918486      30.06974
2010    6       0.10871594      32.55930125
2010    7       0.11412969      33.642885
2010    8       0.17663789      47.95204625
2010    9       0.23968606      61.0237075
2010    10      0.27630506      68.6772575
2010    11      0.19406489      51.34427125
2010    12      0.206214        54.28767625
2010    13      0.20422596      54.03664625
2010    14      0.18727422      50.31250125
2010    15      0.1776266       48.1448
2010    16      0.15427242      42.916715
2010    17      0.23444982      59.280785
2010    18      0.20846088      54.3082225
2010    19      0.19040635      50.61664
2010    20      0.17636876      47.4085425
2010    21      0.15974369      43.80494125
2010    22      0.17770333      47.57728125
2010    23      0.19038898      49.97078875
2010    24      0.20833852      53.38003375
2010    25      0.31911248      76.04734
2010    26      0.23025266      58.234845
2010    27      0.21063421      54.86629125
2010    28      0.21574584      56.05250375
2010    29      0.22984352      59.34494375
2010    30      0.19472462      51.45136
2011    1       0.43153236      95.38337375
2011    2       0.31751424      75.86271375
2011    3       0.4754503       101.2608075
2011    4       0.63584249      127.9486625
2011    5       0.64030403      127.31565875
2011    6       0.46575199      99.69303375
2011    7       0.44188524      96.92784875
2011    8       0.24683426      59.76628625
2011    9       0.16893169      44.6888825
2011    10      0.22037312      56.09028625
2011    11      0.31914838      75.0142
2011    12      0.41369324      90.15877125
2011    13      0.14702221      39.3969225
2011    14      0.45343402      97.71447875
2011    15      0.4884684       105.64243
2011    16      0.45089074      98.13213625
2011    17      0.43179539      94.98815625
2011    18      0.73642077      139.03585
2011    19      0.4032243       90.783285
2011    20      0.51919974      108.75793375
2011    21      0.44133861      96.40587375
2011    22      0.23323462      58.97641625
2011    23      0.15557515      42.046345
2011    24      0.26568568      64.07892375
2011    25      0.21032776      52.6191875
2011    26      0.12212001      34.23155875
2011    27      0.18387286      47.52103875
2011    28      0.1573874       41.76968375
2011    29      0.16432531      43.9233125
2011    30      0.1422892       38.7344125
2012    1       0.50143604      108.8086175
2012    2       0.50289086      109.22813125
2012    3       0.90607344      162.1536125
2012    4       0.76477661      146.2211
2012    5       0.47041099      105.1712
2012    6       0.2838056       70.39649875
2012    7       0.27441009      68.0717775
2012    8       0.52255825      113.4833875
2012    9       0.60221611      125.1259125
2012    10      0.90441158      161.6859625
2012    11      0.66467389      133.1082
2012    12      0.77964411      144.97277875
2012    13      0.68439411      133.2223875
2012    14      0.60010682      121.9533125
2012    15      0.3750772       86.7187575
2012    16      0.1955204       51.93536375
2012    17      0.1730495       46.0489625
2012    18      0.27508306      66.86246
2012    19      0.58808561      120.932225
2012    20      0.70455158      136.7864125
2012    21      0.6874789       134.2717
2012    22      0.53603924      112.79377125
2012    23      0.52862521      111.5656375
2012    24      0.60451194      122.54295
2012    25      0.73015654      139.0729375
2012    26      0.61060479      122.8209625
2012    27      0.39080776      88.55617375
2012    28      0.22149922      57.00693
2012    29      0.15069806      41.54662375
2012    30      0.14169156      38.5361
2013    1       0.39234478      89.966505
2013    2       0.50727702      109.07802125
2013    3       0.33521475      79.72483375
2013    4       0.18547802      49.6346425
2013    5       0.17859         47.4274325
2013    6       0.25228458      63.58511625
2013    7       0.37958231      82.61136375
2013    8       0.83460676      153.69045
2013    9       1.13637687      185.0621
2013    10      0.95043791      166.1699
2013    11      0.77587095      145.50865
2013    12      0.46705885      102.90461875
2013    13      0.49962466      107.18153125
2013    14      0.35617071      84.2305775
2013    15      0.35674946      83.73419375
2013    16      0.55302747      114.605605
2013    17      0.47190616      102.22602375
2013    18      0.37984955      87.33219625
2013    19      0.62598356      125.7865575
2013    20      0.7588664       143.9135125
2013    21      0.57523581      117.85862875
2013    22      0.44117881      98.91248125
2013    23      0.31356136      75.93384
2013    24      0.34632598      81.38493875
2013    25      0.55276816      115.4990375
2013    26      0.4986082       107.93012875
2013    27      0.69682996      136.615625
2013    28      0.78418569      145.55150125
2013    29      0.87461131      154.8404725
2013    30      0.35200129      76.03873375
2014    1       0.75661286      142.959875
2014    2       0.64401119      127.9447
2014    3       0.32276538      75.71926875
2014    4       0.29128515      69.7321375
2014    5       0.13957782      38.52482125
2014    6       0.13004084      36.76246875
2014    7       0.13093581      37.34534375
2014    8       0.12662251      36.33922625
2014    9       0.11159352      32.505525
2014    10      0.18379556      48.5356725
2014    11      0.31920474      76.35496375
2014    12      0.27389695      67.6117325
2014    13      0.27315059      66.79641125
2014    14      0.6184413       124.1605875
2014    15      0.54862174      114.331575
2014    16      0.56386195      117.056425
2014    17      0.845145        153.7621875
2014    18      0.51003525      108.348905
2014    19      0.30024119      73.04394875
2014    20      0.3219173       76.580775
2014    21      0.56664368      110.70536625
2014    22      0.8254204       149.1827375
2014    23      0.40187512      90.36119125
2014    24      0.42526075      94.13452875
2014    25      0.43875474      96.64275625
2014    26      0.51049709      107.02977125
2014    27      0.61919053      124.20265
2014    28      0.36024311      82.36530875
2014    29      0.24314585      60.683635
2014    30      0.25349255      62.345805
2015    1       0.4555476       100.22008
2015    2       0.2800705       68.18110625
2015    3       0.15529802      42.4984725
2015    4       0.19779865      52.39915125
2015    5       0.68573758      132.59334125
2015    6       0.63959707      128.8288625
2015    7       0.60311216      123.750825
2015    8       0.78521935      145.5468
2015    9       0.90759291      158.93315
2015    10      0.65416174      127.7881875
2015    11      0.37432019      85.8269075
2015    12      0.38278651      88.24636875
2015    13      0.30782192      74.5612875
2015    14      0.18489502      49.2010625
2015    15      0.18356831      48.58243625
2015    16      0.65625359      128.8983025
2015    17      1.17105837      187.6451125
2015    18      0.78129316      143.164735
2015    19      0.46496881      101.28438
2015    20      0.29351369      70.63521125
2015    21      0.13994436      39.15299125
2015    22      0.08678422      26.76472875
2015    23      0.06597355      21.61299875
2015    24      0.09859353      29.4392825
2015    25      0.09505777      28.33459625
2015    26      0.2837185       67.37507125
2015    27      0.4420652       98.6228325
2015    28      0.3313249       79.08707375
2015    29      0.44681119      97.10239
2015    30      0.54991185      113.32877
2016    1       0.711175        137.9481625
2016    2       0.33442198      77.96871125
2016    3       0.16518688      45.24193875
2016    4       0.15015318      41.77901875
2016    5       0.16194781      44.6031475
2016    6       0.23134824      59.13768375
2016    7       0.25450314      64.321115
2016    8       0.29426055      71.289005
2016    9       0.38141951      88.41631
2016    10      0.45424578      101.1719625
2016    11      0.20598934      55.21255625
2016    12      0.2141458       56.01563
2016    13      0.31227702      76.0105775
2016    14      0.4106845       94.7758325
2016    15      0.45782169      101.32272375
2016    16      0.44456882      98.77295625
2016    17      0.53642403      107.23208875
2016    18      0.1358537       38.14241125
2016    19      0.12180379      34.95136375
2016    20      0.09330032      28.38007875
2016    21      0.08896307      27.2369725
2016    22      0.04849552      16.93216625
2016    23      0.06920343      22.08076625
2016    24      0.08488739      25.609645
2016    25      0.11140994      32.29994625
2016    26      0.08983065      27.10467125
2016    27      0.08955403      26.9026375
2016    28      0.08206671      25.36020625
2016    29      0.09850233      28.8118975
2016    30      0.50653212      103.148
2017    1       0.97433915      168.8339875
2017    2       0.68550629      133.98005125
2017    3       0.38416869      89.45166
2017    4       0.41320776      93.770195
2017    5       0.26576351      66.3091325
2017    6       0.80683534      146.06137375
2017    7       0.68128449      136.7408125
2017    8       0.8160177       151.6422625
2017    9       0.78609448      146.3406375
2017    10      0.30339187      73.325985
2017    11      0.27390789      67.61068875
2017    12      0.17720038      47.3284325
2017    13      0.1776724       47.77519875
2017    14      0.16057679      43.6566725
2017    15      0.18620718      49.66522875
2017    16      0.2053229       54.024165
2017    17      0.18830661      50.17691375
2017    18      0.21486104      55.3748375
2017    19      0.57499511      112.032805
2017    20      0.83720689      154.022925
2017    21      0.90455226      161.2964875
2017    22      0.43406411      92.6828075
2017    23      0.22039271      54.99352625
2017    24      0.2905764       67.27417875
2017    25      0.18866624      48.89349875
2017    26      0.23131032      57.4425125
2017    27      0.15811441      43.0097425
2017    28      0.28300318      68.72766125
2017    29      0.36140114      84.13664625
2017    30      0.24733969      62.15436875
2018    1       0.25703047      64.50674875
2018    2       0.4154602       92.6506625
2018    3       0.51815998      110.3594125
2018    4       0.86569099      155.1576
2018    5       0.9228135       163.0797625
2018    6       0.66135764      130.8982125
2018    7       0.67374775      132.90115
2018    8       0.66020415      130.873925
2018    9       0.40906841      93.19376875
2018    10      0.40391724      92.547515
2018    11      0.37268361      86.3633475
2018    12      0.47029119      101.0740675
2018    13      0.33284108      78.9695275
2018    14      0.52048751      109.61087875
2018    15      0.7140551       138.08305
2018    16      0.87280608      158.1035875
2018    17      0.52497926      109.679345
2018    18      0.32674918      77.28727375
2018    19      0.33272964      78.83707125
2018    20      0.30354328      72.82383125
2018    21      0.57189462      114.84331875
2018    22      0.94395885      164.70875
2018    23      0.65808216      129.70444125
2018    24      0.45963564      99.77502375
2018    25      0.60091049      121.762625
2018    26      0.36416068      82.8636675
2018    27      0.37832679      86.39191625
2018    28      0.38869984      89.50784125
2018    29      0.47637189      103.6323675
2018    30      1.14196913      186.6658625
