####################################################################################################
# Month: 11Nov                                                                                     #
# Station: ERB                                                                                     #
# Frequency: 230 GHz                                                                               #
# Columns are: year    day     segment         tau     Tb (K)                                      #
####################################################################################################
2009    1       0       1.070692        177.7659
2009    1       1       0.9833996       169.6915
2009    1       2       0.920613        164.1054
2009    1       3       0.8430985       154.4221
2009    1       4       0.8471386       154.3988
2009    1       5       1.172219        187.7597
2009    1       6       1.11298         184.6664
2009    1       7       1.210057        192.9165
2009    2       0       1.028172        176.6579
2009    2       1       0.728866        142.836
2009    2       2       0.5426093       115.7374
2009    2       3       0.600762        123.9289
2009    2       4       0.63739         128.7505
2009    2       5       0.658778        132.0108
2009    2       6       0.8825206       159.7396
2009    2       7       0.8693908       157.577
2009    3       0       0.6432766       128.1561
2009    3       1       0.6569793       130.4828
2009    3       2       0.6589562       131.0693
2009    3       3       0.8222297       150.8157
2009    3       4       0.7874255       147.3709
2009    3       5       0.8118011       150.4823
2009    3       6       0.7414516       142.3092
2009    3       7       0.7147475       139.2508
2009    4       0       0.4791268       105.0755
2009    4       1       0.5366963       114.8642
2009    4       2       0.5003085       109.3727
2009    4       3       0.5162719       111.9838
2009    4       4       0.541057        115.8292
2009    4       5       0.3930931       90.67819
2009    4       6       0.3502597       82.83539
2009    4       7       0.2656595       66.39856
2009    5       0       0.2669631       66.69702
2009    5       1       0.2264424       58.39021
2009    5       2       0.1883701       49.72857
2009    5       3       0.2349086       59.91667
2009    5       4       0.3297916       78.89153
2009    5       5       0.3544484       83.63412
2009    5       6       0.3725072       87.18912
2009    5       7       0.3578026       84.7909
2009    6       0       0.3370036       80.98349
2009    6       1       0.324045        78.48197
2009    6       2       0.2556749       64.93386
2009    6       3       0.2611202       66.21452
2009    6       4       0.2603757       66.19442
2009    6       5       0.2427489       62.60339
2009    6       6       0.224563        58.70259
2009    6       7       0.2316052       60.12195
2009    7       0       0.235454        60.87046
2009    7       1       0.2365891       61.02616
2009    7       2       0.2266468       58.90478
2009    7       3       0.2441552       62.59494
2009    7       4       0.300416        74.23674
2009    7       5       0.2955628       73.35461
2009    7       6       0.2574206       65.48974
2009    7       7       0.2526849       64.54635
2009    8       0       0.2731543       68.74117
2009    8       1       0.275803        69.18418
2009    8       2       0.2783906       69.43694
2009    8       3       0.3038093       74.56892
2009    8       4       0.300946        74.39101
2009    8       5       0.2917918       72.5323
2009    8       6       0.2752317       68.98069
2009    8       7       0.2534072       64.33071
2009    9       0       0.2552524       64.28649
2009    9       1       0.3692715       85.67856
2009    9       2       0.4286155       97.74236
2009    9       3       0.5607732       119.5731
2009    9       4       0.5900282       124.1194
2009    9       5       0.5453331       117.5724
2009    9       6       0.5507959       118.2567
2009    9       7       0.5270248       114.3918
2009    10      0       0.5235259       113.3795
2009    10      1       0.5243962       113.4082
2009    10      2       0.5401837       115.9362
2009    10      3       0.6317896       129.5492
2009    10      4       0.6807344       136.2358
2009    10      5       0.5496183       117.8593
2009    10      6       0.4476407       101.703
2009    10      7       0.4072463       94.79691
2009    11      0       0.4032566       94.15157
2009    11      1       0.3981151       93.16388
2009    11      2       0.3690628       87.81866
2009    11      3       0.3651079       87.27391
2009    11      4       0.3421442       83.15473
2009    11      5       0.3221083       79.4687
2009    11      6       0.3111816       77.29895
2009    11      7       0.2945433       73.87579
2009    12      0       0.3494146       83.78466
2009    12      1       0.4271595       97.42529
2009    12      2       0.4161978       95.76901
2009    12      3       0.4171665       96.06338
2009    12      4       0.401482        93.55537
2009    12      5       0.3599457       85.96006
2009    12      6       0.2787216       70.16914
2009    12      7       0.2946484       73.36197
2009    13      0       0.2996285       74.23965
2009    13      1       0.2949637       73.3235
2009    13      2       0.3116089       76.54076
2009    13      3       0.3584907       85.45048
2009    13      4       0.3798954       89.50265
2009    13      5       0.4105005       94.72807
2009    13      6       0.5420619       115.873
2009    13      7       0.6786116       134.9328
2009    14      0       0.7440677       143.053
2009    14      1       0.8886538       159.8116
2009    14      2       0.8049809       151.1043
2009    14      3       0.7156058       140.1729
2009    14      4       0.7698759       146.9366
2009    14      5       0.8941886       162.2536
2009    14      6       0.7514317       145.5532
2009    14      7       0.6347632       129.7669
2009    15      0       0.5005937       109.2731
2009    15      1       0.4349393       98.32186
2009    15      2       0.3819873       89.13238
2009    15      3       0.3866225       89.82822
2009    15      4       0.3340685       80.24999
2009    15      5       0.3353122       80.14699
2009    15      6       0.3298446       78.57841
2009    15      7       0.3725962       86.55968
2009    16      0       0.3991299       91.23326
2009    16      1       0.3054442       73.80218
2009    16      2       0.2733275       67.4635
2009    16      3       0.2788161       68.9344
2009    16      4       0.2852261       70.29038
2009    16      5       0.2227495       57.19443
2009    16      6       0.2079192       53.88845
2009    16      7       0.2557164       63.36745
2009    17      0       0.3949386       88.90887
2009    17      1       0.5572259       114.5778
2009    17      2       0.5189557       109.281
2009    17      3       0.5249851       110.7445
2009    17      4       0.6796292       132.9732
2009    17      5       0.7387838       140.8594
2009    17      6       0.7750268       145.3943
2009    17      7       0.5823938       119.9587
2009    18      0       0.4920464       106.3886
2009    18      1       0.5535389       115.5777
2009    18      2       0.7758537       144.7351
2009    18      3       0.7460609       140.2297
2009    18      4       0.6729887       131.2305
2009    18      5       0.6421505       126.9575
2009    18      6       0.6044986       122.2456
2009    18      7       0.5477563       114.163
2009    19      0       0.5850319       119.6899
2009    19      1       0.5388935       113.1107
2009    19      2       0.5203423       110.62
2009    19      3       0.5590705       116.5407
2009    19      4       0.5890221       121.0623
2009    19      5       0.4591975       101.1418
2009    19      6       0.3817773       87.6781
2009    19      7       0.379582        87.05631
2009    20      0       0.3956013       89.70321
2009    20      1       0.4094491       92.05384
2009    20      2       0.3830582       87.75775
2009    20      3       0.4908481       106.4454
2009    20      4       0.469269        102.8196
2009    20      5       0.4271574       95.2823
2009    20      6       0.513778        108.7678
2009    20      7       0.6050466       121.7741
2009    21      0       0.6293508       125.3807
2009    21      1       0.637075        126.2317
2009    21      2       0.5499739       113.8514
2009    21      3       0.6845234       131.7815
2009    21      4       0.6220543       123.3924
2009    21      5       0.2887944       69.43757
2009    21      6       0.201416        51.87734
2009    21      7       0.1656028       44.13494
2009    22      0       0.1544725       41.62817
2009    22      1       0.1619046       43.1054
2009    22      2       0.1816876       47.17673
2009    22      3       0.2299598       57.54397
2009    22      4       0.2350349       58.98171
2009    22      5       0.2377394       59.53567
2009    22      6       0.2639204       64.49166
2009    22      7       0.2915492       69.62477
2009    23      0       0.2788894       67.49897
2009    23      1       0.249087        62.01648
2009    23      2       0.2164397       55.07797
2009    23      3       0.2586112       63.68581
2009    23      4       0.3262474       77.16411
2009    23      5       0.3431898       80.65955
2009    23      6       0.334223        79.08109
2009    23      7       0.3271814       77.678
2009    24      0       0.3054046       73.87609
2009    24      1       0.29302         71.70732
2009    24      2       0.2768085       68.50354
2009    24      3       0.2886521       70.91495
2009    24      4       0.3308136       79.23408
2009    24      5       0.3215154       77.52772
2009    24      6       0.3113307       75.37268
2009    24      7       0.3166793       76.13235
2009    25      0       0.2896522       70.97341
2009    25      1       0.2653825       66.00035
2009    25      2       0.2998693       72.14258
2009    25      3       0.3229937       75.92374
2009    25      4       0.4229501       93.68613
2009    25      5       0.3608903       83.45133
2009    25      6       0.4337097       95.90655
2009    25      7       0.4130303       92.29187
2009    26      0       0.3532295       81.79878
2009    26      1       0.4230388       93.61973
2009    26      2       0.3978421       89.45273
2009    26      3       0.5354687       112.8563
2009    26      4       0.4986762       107.3084
2009    26      5       0.3771434       86.89405
2009    26      6       0.2954351       71.7368
2009    26      7       0.2419259       60.9563
2009    27      0       0.2173037       55.82186
2009    27      1       0.2154912       55.55305
2009    27      2       0.1906282       50.33327
2009    27      3       0.1881192       50.10294
2009    27      4       0.1772177       47.627
2009    27      5       0.1509867       41.76425
2009    27      6       0.1043784       30.89261
2009    27      7       0.08498652      26.16314
2009    28      0       0.0821393       25.45317
2009    28      1       0.07300289      23.18458
2009    28      2       0.06226307      20.43977
2009    28      3       0.06850432      22.02782
2009    28      4       0.09447952      28.50118
2009    28      5       0.08205899      25.437
2009    28      6       0.0748934       23.57451
2009    28      7       0.09726332      29.01806
2009    29      0       0.1066678       31.31928
2009    29      1       0.11403         33.10452
2009    29      2       0.1034368       30.53208
2009    29      3       0.103836        30.62602
2009    29      4       0.1294544       36.76515
2009    29      5       0.1266104       36.14876
2009    29      6       0.1184943       34.20806
2009    29      7       0.1253554       35.78306
2009    30      0       0.1374184       38.52111
2009    30      1       0.149152        41.04042
2009    30      2       0.1513265       41.47308
2009    30      3       0.1905536       50.11001
2009    30      4       0.2771798       67.80158
2009    30      5       0.3258378       76.78366
2009    30      6       0.3865327       87.2329
2009    30      7       0.3502983       80.84421
2010    1       0       0.154538        42.46729
2010    1       1       0.1490205       41.14935
2010    1       2       0.1517631       41.84456
2010    1       3       0.1367445       38.70815
2010    1       4       0.1302349       37.28148
2010    1       5       0.1277303       36.71919
2010    1       6       0.1367667       38.75228
2010    1       7       0.1428644       40.08362
2010    2       0       0.1501055       41.69093
2010    2       1       0.1293326       37.01676
2010    2       2       0.1083971       32.11232
2010    2       3       0.124202        35.9115
2010    2       4       0.132426        37.92701
2010    2       5       0.1100533       32.57882
2010    2       6       0.1364621       38.90263
2010    2       7       0.1614381       44.75484
2010    3       0       0.1450381       40.93047
2010    3       1       0.1477213       41.51821
2010    3       2       0.166771        46.04247
2010    3       3       0.1992287       53.36281
2010    3       4       0.1733981       47.6818
2010    3       5       0.1432935       40.71492
2010    3       6       0.1190007       34.88836
2010    3       7       0.1064667       31.75838
2010    4       0       0.1081275       32.06648
2010    4       1       0.1130966       33.17939
2010    4       2       0.1171419       34.08293
2010    4       3       0.1303716       37.21136
2010    4       4       0.1378254       39.08535
2010    4       5       0.1415378       40.04807
2010    4       6       0.1388361       39.41787
2010    4       7       0.1354327       38.62554
2010    5       0       0.1297592       37.27923
2010    5       1       0.1085251       32.29252
2010    5       2       0.08437644      26.51387
2010    5       3       0.08365282      26.41103
2010    5       4       0.07977375      25.46268
2010    5       5       0.086872        27.12125
2010    5       6       0.1101862       32.65725
2010    5       7       0.1103334       32.82009
2010    6       0       0.1106322       32.94485
2010    6       1       0.1079788       32.34185
2010    6       2       0.1017356       30.83347
2010    6       3       0.1072652       32.21549
2010    6       4       0.1115139       33.27427
2010    6       5       0.1083036       32.51596
2010    6       6       0.1083616       32.50993
2010    6       7       0.1139366       33.83859
2010    7       0       0.1205165       35.33241
2010    7       1       0.122148        35.66966
2010    7       2       0.1099853       32.70032
2010    7       3       0.1040747       31.23456
2010    7       4       0.1025514       30.84592
2010    7       5       0.1030679       30.91642
2010    7       6       0.117749        34.43447
2010    7       7       0.1329447       38.00932
2010    8       0       0.1302883       37.3331
2010    8       1       0.1403349       39.66376
2010    8       2       0.1570349       43.56329
2010    8       3       0.1788912       48.56866
2010    8       4       0.1979011       52.82304
2010    8       5       0.205971        54.59912
2010    8       6       0.2053693       54.44082
2010    8       7       0.1973124       52.62458
2010    9       0       0.1844629       49.73032
2010    9       1       0.1661503       45.53804
2010    9       2       0.1707637       46.60548
2010    9       3       0.1936885       51.7379
2010    9       4       0.2296622       59.44599
2010    9       5       0.271034        68.05484
2010    9       6       0.3292935       79.56786
2010    9       7       0.3724334       87.50923
2010    10      0       0.3963146       91.9118
2010    10      1       0.3839081       89.93728
2010    10      2       0.3285033       79.88889
2010    10      3       0.2779446       69.96951
2010    10      4       0.2565666       65.47827
2010    10      5       0.2253261       58.84278
2010    10      6       0.1836659       49.63705
2010    10      7       0.1582113       43.75248
2010    11      0       0.1436803       40.24543
2010    11      1       0.1373007       38.55866
2010    11      2       0.154398        42.28468
2010    11      3       0.211883        55.29046
2010    11      4       0.2206865       57.3944
2010    11      5       0.2282473       59.05596
2010    11      6       0.2307619       59.54614
2010    11      7       0.2255614       58.37844
2010    12      0       0.2213594       57.43385
2010    12      1       0.2125973       55.55272
2010    12      2       0.2013677       53.1674
2010    12      3       0.2037032       53.73089
2010    12      4       0.2052397       54.09775
2010    12      5       0.2070591       54.4793
2010    12      6       0.20119         53.30525
2010    12      7       0.1971956       52.53425
2010    13      0       0.1973208       52.52706
2010    13      1       0.1952923       52.041
2010    13      2       0.1976678       52.53863
2010    13      3       0.2095397       55.08245
2010    13      4       0.2171228       56.76937
2010    13      5       0.2097323       55.31552
2010    13      6       0.2009222       53.47085
2010    13      7       0.2062098       54.54829
2010    14      0       0.2022233       53.56141
2010    14      1       0.1894104       50.69754
2010    14      2       0.1802821       48.70809
2010    14      3       0.1820802       49.16254
2010    14      4       0.1876142       50.41096
2010    14      5       0.1891729       50.79047
2010    14      6       0.184862        49.85815
2010    14      7       0.1825487       49.31085
2010    15      0       0.1843981       49.65143
2010    15      1       0.1871686       50.18513
2010    15      2       0.1784499       48.27587
2010    15      3       0.1788358       48.46258
2010    15      4       0.1894891       50.84672
2010    15      5       0.1858147       50.04824
2010    15      6       0.164216        45.16614
2010    15      7       0.1526406       42.52229
2010    16      0       0.1448645       40.7502
2010    16      1       0.1376237       39.09273
2010    16      2       0.133473        38.12451
2010    16      3       0.1553879       43.25
2010    16      4       0.1665493       45.7921
2010    16      5       0.1671788       45.9792
2010    16      6       0.1625826       44.83577
2010    16      7       0.1665196       45.50921
2010    17      0       0.1870182       49.45247
2010    17      1       0.199584        52.03447
2010    17      2       0.1982998       51.97808
2010    17      3       0.2099691       54.45218
2010    17      4       0.2381221       60.15861
2010    17      5       0.2635428       65.1282
2010    17      6       0.2916691       70.8122
2010    17      7       0.2873935       70.23007
2010    18      0       0.2461492       62.15893
2010    18      1       0.2261178       57.9501
2010    18      2       0.2143942       55.48458
2010    18      3       0.2131956       55.32968
2010    18      4       0.2070352       54.18879
2010    18      5       0.1935696       51.31076
2010    18      6       0.1861631       49.6074
2010    18      7       0.1810623       48.43554
2010    19      0       0.1779749       47.73198
2010    19      1       0.1773729       47.62584
2010    19      2       0.1805552       48.40303
2010    19      3       0.1874533       50.0896
2010    19      4       0.2010031       53.03171
2010    19      5       0.2041766       53.67088
2010    19      6       0.1965818       52.03954
2010    19      7       0.198133        52.34054
2010    20      0       0.1857646       49.6617
2010    20      1       0.1566332       43.04785
2010    20      2       0.1435728       39.93171
2010    20      3       0.1723062       46.45984
2010    20      4       0.1912866       50.62369
2010    20      5       0.1935965       51.20013
2010    20      6       0.1874044       49.93789
2010    20      7       0.1803858       48.40553
2010    21      0       0.1786785       47.9771
2010    21      1       0.1708184       46.21941
2010    21      2       0.1566748       43.12384
2010    21      3       0.1506617       41.86559
2010    21      4       0.1501567       41.74351
2010    21      5       0.1506912       41.82933
2010    21      6       0.1568075       43.14163
2010    21      7       0.1634607       44.53912
2010    22      0       0.1674147       45.33439
2010    22      1       0.17455         46.82758
2010    22      2       0.1804208       48.07744
2010    22      3       0.1938144       51.00597
2010    22      4       0.2226249       56.80209
2010    22      5       0.1733257       46.90272
2010    22      6       0.1570253       43.34257
2010    22      7       0.1524508       42.32549
2010    23      0       0.1463742       40.84784
2010    23      1       0.146345        40.63025
2010    23      2       0.1610231       43.66603
2010    23      3       0.1945398       50.72428
2010    23      4       0.2227663       56.63867
2010    23      5       0.2163616       55.49439
2010    23      6       0.2137137       55.00546
2010    23      7       0.2219881       56.75939
2010    24      0       0.2161176       55.23075
2010    24      1       0.2091463       53.48591
2010    24      2       0.2184481       55.3423
2010    24      3       0.2203626       55.86882
2010    24      4       0.2243189       56.86487
2010    24      5       0.2036354       52.45163
2010    24      6       0.1882461       49.00416
2010    24      7       0.1864332       48.79183
2010    25      0       0.18785         49.60241
2010    25      1       0.2379925       60.58883
2010    25      2       0.3206377       77.04762
2010    25      3       0.3739991       86.97909
2010    25      4       0.4920929       107.5899
2010    25      5       0.3669777       85.85606
2010    25      6       0.3059503       74.36003
2010    25      7       0.2673996       66.35478
2010    26      0       0.2452291       61.57184
2010    26      1       0.2036503       52.83735
2010    26      2       0.1953373       50.86938
2010    26      3       0.195465        50.9819
2010    26      4       0.1937093       50.8485
2010    26      5       0.2294345       58.37882
2010    26      6       0.2947948       71.03766
2010    26      7       0.284401        69.35331
2010    27      0       0.2330349       59.66901
2010    27      1       0.2192074       56.64649
2010    27      2       0.2224491       57.21414
2010    27      3       0.2383849       60.58539
2010    27      4       0.2023233       53.17144
2010    27      5       0.1832913       49.13296
2010    27      6       0.1812779       48.72331
2010    27      7       0.2051049       53.78759
2010    28      0       0.1907942       50.7545
2010    28      1       0.1845193       49.40224
2010    28      2       0.1900062       50.51977
2010    28      3       0.2048918       53.91704
2010    28      4       0.2471301       62.66051
2010    28      5       0.2896752       70.99319
2010    28      6       0.2178492       56.80151
2010    28      7       0.2011007       53.37127
2010    29      0       0.2253266       58.39346
2010    29      1       0.2203842       57.48859
2010    29      2       0.203667        53.88827
2010    29      3       0.2228054       57.90853
2010    29      4       0.2494237       63.36351
2010    29      5       0.2555986       64.65399
2010    29      6       0.2418214       61.86374
2010    29      7       0.2197213       57.19946
2010    30      0       0.2028373       53.42826
2010    30      1       0.1872411       50.1207
2010    30      2       0.19287         51.23166
2010    30      3       0.2078109       54.41309
2010    30      4       0.2132816       55.56907
2010    30      5       0.1930371       50.9788
2010    30      6       0.1701012       45.80209
2010    30      7       0.1906178       50.06721
2011    1       0       0.4222212       94.30579
2011    1       1       0.4047202       91.31228
2011    1       2       0.4328058       95.81695
2011    1       3       0.5028596       106.4833
2011    1       4       0.5208645       109.3925
2011    1       5       0.4320673       95.71129
2011    1       6       0.3732835       85.9209
2011    1       7       0.3634368       84.12398
2011    2       0       0.3432922       80.54627
2011    2       1       0.3154116       75.47915
2011    2       2       0.2864425       69.99991
2011    2       3       0.2860531       69.94858
2011    2       4       0.3272498       77.71689
2011    2       5       0.3303526       78.31064
2011    2       6       0.3262843       77.61006
2011    2       7       0.3250278       77.29021
2011    3       0       0.3363713       79.21905
2011    3       1       0.3208255       76.31941
2011    3       2       0.3290833       77.78936
2011    3       3       0.4078094       91.42744
2011    3       4       0.5244395       110.2731
2011    3       5       0.5142041       109.1661
2011    3       6       0.599926        121.422
2011    3       7       0.7709433       144.47
2011    4       0       0.6211779       125.4112
2011    4       1       0.5597108       116.7112
2011    4       2       0.575365        119.2107
2011    4       3       0.674915        133.6494
2011    4       4       0.7170158       140.2988
2011    4       5       0.5524772       116.7882
2011    4       6       0.6828291       134.5081
2011    4       7       0.7032491       137.0117
2011    5       0       0.6676506       132.507
2011    5       1       0.6359461       128.5217
2011    5       2       0.7279818       141.3484
2011    5       3       0.8721692       158.9277
2011    5       4       0.856396        157.4705
2011    5       5       0.6195194       127.3825
2011    5       6       0.4498411       100.751
2011    5       7       0.292928        71.61647
2011    6       0       0.2726741       67.07221
2011    6       1       0.3198869       75.85231
2011    6       2       0.4851128       104.4739
2011    6       3       0.6479552       127.5045
2011    6       4       0.6798918       131.3628
2011    6       5       0.4711933       101.8476
2011    6       6       0.4652804       101.4979
2011    6       7       0.3840214       87.93305
2011    7       0       0.378527        87.01273
2011    7       1       0.3807929       87.34385
2011    7       2       0.3725277       85.73109
2011    7       3       0.5245269       110.004
2011    7       4       0.5791375       118.0262
2011    7       5       0.4420385       97.16924
2011    7       6       0.4031691       90.72081
2011    7       7       0.4543623       99.41487
2011    8       0       0.4761044       102.6167
2011    8       1       0.3501968       80.7267
2011    8       2       0.2543379       62.38208
2011    8       3       0.2787448       67.30963
2011    8       4       0.1961121       50.69458
2011    8       5       0.1513132       41.05941
2011    8       6       0.1290178       35.65385
2011    8       7       0.1388471       37.68734
2011    9       0       0.12542         34.81153
2011    9       1       0.1048785       30.38182
2011    9       2       0.1068591       30.83802
2011    9       3       0.1640795       43.51989
2011    9       4       0.2252175       56.62058
2011    9       5       0.2368982       59.56913
2011    9       6       0.2181768       55.8426
2011    9       7       0.1699239       45.92749
2011    10      0       0.1688752       45.51256
2011    10      1       0.1941217       50.80752
2011    10      2       0.2071353       53.38866
2011    10      3       0.244116        60.8325
2011    10      4       0.2606447       64.27038
2011    10      5       0.2436138       60.91241
2011    10      6       0.2219428       56.50669
2011    10      7       0.2225355       56.49157
2011    11      0       0.2379496       59.48824
2011    11      1       0.2867388       69.09095
2011    11      2       0.3017235       71.8983
2011    11      3       0.3435039       79.47831
2011    11      4       0.3645173       83.4654
2011    11      5       0.3270748       76.64969
2011    11      6       0.3281184       76.87209
2011    11      7       0.3635607       83.17062
2011    12      0       0.4405966       96.05424
2011    12      1       0.5125334       107.4261
2011    12      2       0.5075321       107.1726
2011    12      3       0.5112908       107.834
2011    12      4       0.5730164       117.5956
2011    12      5       0.4378556       97.21372
2011    12      6       0.1942313       50.93356
2011    12      7       0.1324897       37.04035
2011    13      0       0.1043708       30.35639
2011    13      1       0.08720871      26.16491
2011    13      2       0.08639454      25.88442
2011    13      3       0.1211815       34.11011
2011    13      4       0.1414774       38.71696
2011    13      5       0.1665793       44.10459
2011    13      6       0.2134709       53.63409
2011    13      7       0.2554945       62.20391
2011    14      0       0.2618545       63.5656
2011    14      1       0.3639936       82.84928
2011    14      2       0.5063439       107.2312
2011    14      3       0.6577386       129.0994
2011    14      4       0.6040734       121.9656
2011    14      5       0.4470886       98.53749
2011    14      6       0.4193468       93.70174
2011    14      7       0.3670328       84.76552
2011    15      0       0.4644334       101.6604
2011    15      1       0.5060494       108.5854
2011    15      2       0.4422998       98.26892
2011    15      3       0.5008451       107.5785
2011    15      4       0.6127105       124.4622
2011    15      5       0.5210638       111.3211
2011    15      6       0.4466036       99.41421
2011    15      7       0.4137416       93.84871
2011    16      0       0.3300792       78.8124
2011    16      1       0.2991124       72.81171
2011    16      2       0.3128824       75.35368
2011    16      3       0.560314        115.6534
2011    16      4       0.615335        123.4432
2011    16      5       0.4919083       105.8141
2011    16      6       0.4724647       102.7875
2011    16      7       0.5250299       110.3811
2011    17      0       0.398324        90.14767
2011    17      1       0.313603        74.9713
2011    17      2       0.2949693       71.25449
2011    17      3       0.3478745       81.18701
2011    17      4       0.4370075       96.51158
2011    17      5       0.4941021       106.163
2011    17      6       0.543166        114.0744
2011    17      7       0.6253167       125.5958
2011    18      0       0.6142166       124.5991
2011    18      1       0.5491391       114.6953
2011    18      2       0.8055642       148.943
2011    18      3       0.8905978       156.2693
2011    18      4       0.9752855       166.0719
2011    18      5       0.6939197       135.11
2011    18      6       0.7935741       148.3161
2011    18      7       0.5690692       118.2821
2011    19      0       0.5130895       109.2742
2011    19      1       0.4023319       90.63005
2011    19      2       0.3453785       80.53119
2011    19      3       0.4012795       90.64082
2011    19      4       0.4501429       98.81923
2011    19      5       0.3803579       87.20348
2011    19      6       0.3734954       85.83646
2011    19      7       0.3597188       83.33085
2011    20      0       0.3887422       88.41773
2011    20      1       0.4450553       97.85944
2011    20      2       0.478189        102.7613
2011    20      3       0.6189671       123.5552
2011    20      4       0.6551494       128.2598
2011    20      5       0.5665417       115.9459
2011    20      6       0.4921342       105.2257
2011    20      7       0.508819        108.0384
2011    21      0       0.4527662       99.02315
2011    21      1       0.3964131       89.51878
2011    21      2       0.385681        87.64754
2011    21      3       0.5955184       120.5153
2011    21      4       0.5878738       119.438
2011    21      5       0.4191096       93.48915
2011    21      6       0.3631058       83.83497
2011    21      7       0.330241        77.7801
2011    22      0       0.2923632       70.64337
2011    22      1       0.2549016       63.34304
2011    22      2       0.2260257       57.51559
2011    22      3       0.2441306       61.34498
2011    22      4       0.2261525       57.71646
2011    22      5       0.2212026       56.6774
2011    22      6       0.2067557       53.62624
2011    22      7       0.1943451       50.94425
2011    23      0       0.1628703       44.03952
2011    23      1       0.1245798       35.3148
2011    23      2       0.1170679       33.47675
2011    23      3       0.1439352       39.72676
2011    23      4       0.1579364       42.77204
2011    23      5       0.1628981       43.62134
2011    23      6       0.1823039       47.5795
2011    23      7       0.1930096       49.84005
2011    24      0       0.1904378       49.4252
2011    24      1       0.1791087       47.0621
2011    24      2       0.1855194       48.28366
2011    24      3       0.2322348       57.8537
2011    24      4       0.3096761       72.90752
2011    24      5       0.309729        72.9676
2011    24      6       0.3342333       77.5882
2011    24      7       0.3845463       86.54341
2011    25      0       0.3473998       79.77324
2011    25      1       0.2918316       69.31353
2011    25      2       0.2786182       66.728
2011    25      3       0.2135893       53.87692
2011    25      4       0.1703342       44.93812
2011    25      5       0.132941        36.81576
2011    25      6       0.1250657       35.02011
2011    25      7       0.1228423       34.48782
2011    26      0       0.1250048       34.96234
2011    26      1       0.1080221       31.0601
2011    26      2       0.101819        29.59301
2011    26      3       0.117204        33.23774
2011    26      4       0.1221203       34.39289
2011    26      5       0.1213478       34.131
2011    26      6       0.1313163       36.21114
2011    26      7       0.1501258       40.26425
2011    27      0       0.1672987       44.02181
2011    27      1       0.1829088       47.30855
2011    27      2       0.1988601       50.66798
2011    27      3       0.2171531       54.61283
2011    27      4       0.2066459       52.522
2011    27      5       0.1815975       47.08487
2011    27      6       0.1658014       43.64212
2011    27      7       0.1507174       40.30815
2011    28      0       0.1445105       38.90826
2011    28      1       0.1362625       37.07295
2011    28      2       0.1329476       36.32197
2011    28      3       0.1882178       48.06457
2011    28      4       0.1898715       48.70986
2011    28      5       0.1741219       45.51686
2011    28      6       0.1541105       41.39985
2011    28      7       0.1390569       38.16315
2011    29      0       0.1363278       37.58
2011    29      1       0.1603264       42.86903
2011    29      2       0.163696        43.64055
2011    29      3       0.1921898       49.88452
2011    29      4       0.2195872       55.83651
2011    29      5       0.1665509       44.67851
2011    29      6       0.1419802       39.38661
2011    29      7       0.1339442       37.51077
2011    30      0       0.1404998       38.83692
2011    30      1       0.1334608       37.13151
2011    30      2       0.1201164       33.99562
2011    30      3       0.1219786       34.31786
2011    30      4       0.1282526       35.67072
2011    30      5       0.1447061       39.1697
2011    30      6       0.1721718       44.88725
2011    30      7       0.1771275       45.86572
2012    1       0       0.4008955       92.26965
2012    1       1       0.4036668       92.80983
2012    1       2       0.4683671       103.5937
2012    1       3       0.5715506       119.2844
2012    1       4       0.6035754       124.2999
2012    1       5       0.5971942       124.2944
2012    1       6       0.5343816       115.2524
2012    1       7       0.4318571       98.66466
2012    2       0       0.3851007       90.42389
2012    2       1       0.3591653       85.64524
2012    2       2       0.3938605       91.90252
2012    2       3       0.4944445       108.8985
2012    2       4       0.5456576       117.026
2012    2       5       0.5113817       111.579
2012    2       6       0.6116524       126.7239
2012    2       7       0.7218642       141.626
2012    3       0       0.8677525       158.0478
2012    3       1       0.9231756       163.9871
2012    3       2       0.9277594       165.101
2012    3       3       1.038963        176.6068
2012    3       4       1.061738        178.2032
2012    3       5       0.9035317       162.5895
2012    3       6       0.7447382       144.1556
2012    3       7       0.7809291       148.5379
2012    4       0       0.8597217       157.8009
2012    4       1       0.8649706       158.4737
2012    4       2       0.7874415       149.7043
2012    4       3       0.8522721       157.0615
2012    4       4       0.8635547       158.4988
2012    4       5       0.7259175       142.6538
2012    4       6       0.6153645       127.7001
2012    4       7       0.5489703       117.8757
2012    5       0       0.5214289       113.5551
2012    5       1       0.508358        111.4958
2012    5       2       0.5096176       111.719
2012    5       3       0.5095029       111.9276
2012    5       4       0.4577557       103.601
2012    5       5       0.4370872       99.8717
2012    5       6       0.4251173       97.49278
2012    5       7       0.3944203       91.70662
2012    6       0       0.3675137       86.86365
2012    6       1       0.301282        74.16965
2012    6       2       0.2330354       60.01946
2012    6       3       0.2984171       73.55469
2012    6       4       0.3319155       79.80595
2012    6       5       0.2894381       72.05937
2012    6       6       0.2237119       58.25702
2012    6       7       0.2251311       58.4422
2012    7       0       0.2174626       56.68097
2012    7       1       0.1780361       48.02982
2012    7       2       0.1745162       47.1872
2012    7       3       0.2535533       64.28609
2012    7       4       0.3262592       79.06411
2012    7       5       0.3479123       83.30316
2012    7       6       0.3323355       80.07293
2012    7       7       0.3652055       85.94994
2012    8       0       0.5155658       112.0414
2012    8       1       0.5490714       117.5234
2012    8       2       0.5183006       112.6681
2012    8       3       0.5192447       112.9968
2012    8       4       0.5289301       114.714
2012    8       5       0.5259588       114.2453
2012    8       6       0.5099056       111.58
2012    8       7       0.513489        112.0981
2012    9       0       0.5469091       117.5308
2012    9       1       0.5723266       121.3874
2012    9       2       0.5850966       122.986
2012    9       3       0.5918743       123.8102
2012    9       4       0.6407077       130.7825
2012    9       5       0.5803624       121.8878
2012    9       6       0.6575318       132.4372
2012    9       7       0.6429204       130.1854
2012    10      0       0.7801455       147.8284
2012    10      1       0.7049893       138.7204
2012    10      2       0.6772895       135.1159
2012    10      3       0.957614        167.2945
2012    10      4       0.9994134       173.5031
2012    10      5       1.081759        181.6574
2012    10      6       1.120826        185.0723
2012    10      7       0.9132559       164.2957
2012    11      0       0.6960784       138.0901
2012    11      1       0.5473347       117.0612
2012    11      2       0.4908664       108.5501
2012    11      3       0.5730061       121.0922
2012    11      4       0.6103292       126.2291
2012    11      5       0.7331413       143.0807
2012    11      6       0.8003615       151.495
2012    11      7       0.8662735       159.2672
2012    12      0       1.054696        178.6073
2012    12      1       1.039191        177.6092
2012    12      2       0.898564        162.1279
2012    12      3       0.7952209       149.2489
2012    12      4       0.7957776       149.6007
2012    12      5       0.855699        158.2746
2012    12      6       0.4130393       94.9227
2012    12      7       0.3849651       89.39093
2012    13      0       0.454434        100.9259
2012    13      1       0.5633391       117.0323
2012    13      2       0.5477849       115.5556
2012    13      3       0.8285086       152.0362
2012    13      4       0.7804663       146.8016
2012    13      5       0.7654824       144.4259
2012    13      6       0.7317289       140.3387
2012    13      7       0.8034087       148.6629
2012    14      0       0.6952064       134.6195
2012    14      1       0.5765983       118.3445
2012    14      2       0.556512        115.4979
2012    14      3       0.6141333       124.2506
2012    14      4       0.7725584       145.3032
2012    14      5       0.5756172       119.6725
2012    14      6       0.52387         111.945
2012    14      7       0.486359        105.9933
2012    15      0       0.4230303       95.39004
2012    15      1       0.3584402       83.78056
2012    15      2       0.3230862       76.98736
2012    15      3       0.3679779       85.22583
2012    15      4       0.4319089       96.53028
2012    15      5       0.4260004       95.86532
2012    15      6       0.3639275       85.27906
2012    15      7       0.3062462       74.69161
2012    16      0       0.2655463       66.68504
2012    16      1       0.2163831       56.53757
2012    16      2       0.1814498       48.96997
2012    16      3       0.2019069       53.50463
2012    16      4       0.2000406       53.17281
2012    16      5       0.1876466       50.4115
2012    16      6       0.1663322       45.58004
2012    16      7       0.1448577       40.62135
2012    17      0       0.1462784       40.79663
2012    17      1       0.1279655       36.40531
2012    17      2       0.121225        34.728
2012    17      3       0.1587176       43.37073
2012    17      4       0.187642        49.76319
2012    17      5       0.1858197       49.10223
2012    17      6       0.1992086       51.25716
2012    17      7       0.2575392       62.96845
2012    18      0       0.2738777       66.58676
2012    18      1       0.224842        56.88949
2012    18      2       0.2265131       57.04005
2012    18      3       0.2850643       69.2259
2012    18      4       0.2742055       66.97386
2012    18      5       0.2445935       60.6851
2012    18      6       0.2854012       69.28316
2012    18      7       0.3861672       88.21536
2012    19      0       0.5783949       118.4022
2012    19      1       0.766876        144.5053
2012    19      2       0.7127106       138.8953
2012    19      3       0.5911399       122.4902
2012    19      4       0.4827088       106.0161
2012    19      5       0.4882301       106.9366
2012    19      6       0.5007271       108.9303
2012    19      7       0.5838975       121.2818
2012    20      0       0.6730339       133.4887
2012    20      1       0.7252874       139.7156
2012    20      2       0.7434394       141.4813
2012    20      3       0.7562788       143.0255
2012    20      4       0.7587034       143.3526
2012    20      5       0.7155025       138.209
2012    20      6       0.6420707       128.7904
2012    20      7       0.6220965       126.2282
2012    21      0       0.6923291       135.9848
2012    21      1       0.7786379       147.0878
2012    21      2       0.8036044       150.0382
2012    21      3       0.7875575       148.0029
2012    21      4       0.8001477       148.9693
2012    21      5       0.6230123       125.9645
2012    21      6       0.5317913       112.792
2012    21      7       0.482751        105.3341
2012    22      0       0.4523484       100.3927
2012    22      1       0.4390518       97.95197
2012    22      2       0.4536217       100.0768
2012    22      3       0.6196575       125.1659
2012    22      4       0.5920235       121.2474
2012    22      5       0.5715058       118.3184
2012    22      6       0.6106992       123.9242
2012    22      7       0.549406        115.2728
2012    23      0       0.5246066       111.5794
2012    23      1       0.5064563       108.5169
2012    23      2       0.503099        107.5726
2012    23      3       0.5649281       116.626
2012    23      4       0.5316176       111.8053
2012    23      5       0.4670213       101.9806
2012    23      6       0.5292927       111.8387
2012    23      7       0.6019801       122.6056
2012    24      0       0.672205        132.2018
2012    24      1       0.6716841       132.2942
2012    24      2       0.6352417       127.1531
2012    24      3       0.5367761       112.7944
2012    24      4       0.5332175       112.3263
2012    24      5       0.5441152       113.839
2012    24      6       0.6077253       122.8043
2012    24      7       0.6351306       126.9305
2012    25      0       0.6120259       123.8154
2012    25      1       0.6683011       131.201
2012    25      2       0.7265436       138.3846
2012    25      3       0.7795438       145.0307
2012    25      4       0.8168824       149.7412
2012    25      5       0.8035768       148.6205
2012    25      6       0.7345993       140.1396
2012    25      7       0.6997794       135.6505
2012    26      0       0.6463375       128.6581
2012    26      1       0.5790826       118.8913
2012    26      2       0.5540096       114.8904
2012    26      3       0.7487          141.0602
2012    26      4       0.7474007       141.2346
2012    26      5       0.5737083       118.0953
2012    26      6       0.5360498       112.7216
2012    26      7       0.4995498       107.0162
2012    27      0       0.4472617       98.66834
2012    27      1       0.4006564       90.85579
2012    27      2       0.3758811       86.50911
2012    27      3       0.4730101       102.8156
2012    27      4       0.5414173       113.4708
2012    27      5       0.3474669       81.60437
2012    27      6       0.2868692       70.5261
2012    27      7       0.2538994       63.99928
2012    28      0       0.2214812       57.23895
2012    28      1       0.2088734       54.3555
2012    28      2       0.2005581       52.43506
2012    28      3       0.233808        59.59122
2012    28      4       0.2573755       64.4947
2012    28      5       0.2332282       59.49083
2012    28      6       0.2165759       56.00953
2012    28      7       0.2000935       52.43965
2012    29      0       0.1841042       49.02713
2012    29      1       0.1621214       44.15263
2012    29      2       0.154366        42.36056
2012    29      3       0.1521507       41.87629
2012    29      4       0.1573284       43.16572
2012    29      5       0.1420513       39.67506
2012    29      6       0.1267044       36.08924
2012    29      7       0.1267581       36.02636
2012    30      0       0.1201077       34.3311
2012    30      1       0.1052284       30.78212
2012    30      2       0.09800932      28.99635
2012    30      3       0.1123769       32.19043
2012    30      4       0.1366345       37.34246
2012    30      5       0.134984        36.80126
2012    30      6       0.1697411       44.73032
2012    30      7       0.2564506       63.11476
2013    1       0       0.3500886       82.79436
2013    1       1       0.3442383       81.62029
2013    1       2       0.3950909       90.58977
2013    1       3       0.3980912       90.84452
2013    1       4       0.3795219       87.81183
2013    1       5       0.3673351       85.81604
2013    1       6       0.4205611       94.75453
2013    1       7       0.4838311       105.5007
2013    2       0       0.4392905       98.22787
2013    2       1       0.4824038       105.2791
2013    2       2       0.4508326       100.3473
2013    2       3       0.544709        115.2997
2013    2       4       0.6068121       123.9871
2013    2       5       0.5445222       114.9175
2013    2       6       0.5133834       110.223
2013    2       7       0.4762626       104.3426
2013    3       0       0.4314259       96.90599
2013    3       1       0.3722233       86.66392
2013    3       2       0.3255821       78.12381
2013    3       3       0.322769        77.59769
2013    3       4       0.356526        83.99421
2013    3       5       0.3520912       83.40127
2013    3       6       0.2858398       70.7344
2013    3       7       0.2352607       60.37738
2013    4       0       0.2177935       56.59129
2013    4       1       0.1984252       52.32798
2013    4       2       0.1819763       48.70476
2013    4       3       0.1900275       50.57062
2013    4       4       0.1999639       52.85717
2013    4       5       0.1860216       49.92971
2013    4       6       0.1655778       45.49814
2013    4       7       0.1440384       40.59747
2013    5       0       0.1347085       38.45208
2013    5       1       0.1365716       38.8191
2013    5       2       0.144993        40.41515
2013    5       3       0.1679743       45.36217
2013    5       4       0.1876914       49.47002
2013    5       5       0.1891642       49.73285
2013    5       6       0.2530521       62.20929
2013    5       7       0.2145649       54.9588
2013    6       0       0.2260369       57.38224
2013    6       1       0.2455687       61.85201
2013    6       2       0.2503845       63.29937
2013    6       3       0.2299479       59.23549
2013    6       4       0.2534858       64.12651
2013    6       5       0.2859445       70.45107
2013    6       6       0.2845934       70.31085
2013    6       7       0.2423149       62.02339
2013    7       0       0.1908038       51.24967
2013    7       1       0.1508194       42.12608
2013    7       2       0.1583554       43.60577
2013    7       3       0.2176052       56.82305
2013    7       4       0.2672715       67.26993
2013    7       5       0.3942062       91.15041
2013    7       6       0.8742881       159.4657
2013    7       7       0.7833089       149.2003
2013    8       0       0.5974565       124.1144
2013    8       1       0.6904347       137.6345
2013    8       2       0.8983076       162.3946
2013    8       3       0.7104066       139.4287
2013    8       4       0.8507622       155.2538
2013    8       5       0.9354241       165.1845
2013    8       6       1.021814        175.1087
2013    8       7       0.9722484       170.4044
2013    9       0       1.188571        190.2248
2013    9       1       1.235416        192.8714
2013    9       2       1.059834        176.8978
2013    9       3       1.214609        192.3123
2013    9       4       1.100952        182.7395
2013    9       5       1.125033        184.0292
2013    9       6       1.059128        178.1516
2013    9       7       1.107472        183.2702
2013    10      0       0.9845206       170.5242
2013    10      1       0.863054        157.0773
2013    10      2       0.8425104       156.3268
2013    10      3       0.7803148       147.5496
2013    10      4       1.022355        173.7823
2013    10      5       0.7913235       149.149
2013    10      6       1.154476        186.9264
2013    10      7       1.164949        188.0236
2013    11      0       0.94006         166.399
2013    11      1       0.8733127       158.8301
2013    11      2       0.8411334       155.0187
2013    11      3       0.9005407       160.9907
2013    11      4       0.8700312       156.6759
2013    11      5       0.6853768       135.0212
2013    11      6       0.582991        120.8487
2013    11      7       0.5135218       110.2849
2013    12      0       0.4639953       102.3432
2013    12      1       0.4189398       94.7717
2013    12      2       0.4048872       92.30095
2013    12      3       0.4618191       102.1276
2013    12      4       0.55318         116.7779
2013    12      5       0.4927805       107.4656
2013    12      6       0.4816031       105.543
2013    12      7       0.4592658       101.907
2013    13      0       0.4509611       100.5204
2013    13      1       0.4414793       98.77116
2013    13      2       0.4587823       101.3798
2013    13      3       0.6370226       127.7953
2013    13      4       0.6802769       133.6606
2013    13      5       0.5268664       112.1025
2013    13      6       0.4223061       95.34572
2013    13      7       0.3793026       87.87677
2013    14      0       0.3608001       84.62354
2013    14      1       0.3479222       82.28393
2013    14      2       0.3382842       80.65313
2013    14      3       0.353499        83.65371
2013    14      4       0.3795136       88.77133
2013    14      5       0.3736462       87.97309
2013    14      6       0.3517056       83.74494
2013    14      7       0.3439948       82.14095
2013    15      0       0.3188096       77.4175
2013    15      1       0.2880618       71.43557
2013    15      2       0.2908805       71.84158
2013    15      3       0.3360996       80.39203
2013    15      4       0.3813898       88.60392
2013    15      5       0.3820104       88.47402
2013    15      6       0.4156258       93.9316
2013    15      7       0.4411182       97.77733
2013    16      0       0.4406267       97.65356
2013    16      1       0.5304715       112.1649
2013    16      2       0.5708658       118.1735
2013    16      3       0.7285155       139.2857
2013    16      4       0.7487639       141.9579
2013    16      5       0.5400522       113.8144
2013    16      6       0.4502367       99.85435
2013    16      7       0.4146875       93.94053
2013    17      0       0.3909346       89.79599
2013    17      1       0.388377        89.30795
2013    17      2       0.4264221       95.83712
2013    17      3       0.6502398       129.6039
2013    17      4       0.662466        130.8992
2013    17      5       0.4764501       103.8422
2013    17      6       0.397769        90.64388
2013    17      7       0.3825907       87.87795
2013    18      0       0.4085579       92.26618
2013    18      1       0.3998639       90.76098
2013    18      2       0.3624065       84.1606
2013    18      3       0.3869619       88.67958
2013    18      4       0.3867527       88.68696
2013    18      5       0.3813533       87.6867
2013    18      6       0.3624401       84.31089
2013    18      7       0.3504601       82.10568
2013    19      0       0.4341011       96.84456
2013    19      1       0.6338596       126.9352
2013    19      2       0.7465979       141.793
2013    19      3       0.6282858       126.6935
2013    19      4       0.6479205       129.0179
2013    19      5       0.5817879       120.4625
2013    19      6       0.6536898       130.6691
2013    19      7       0.6816259       133.8767
2013    20      0       0.7345251       140.492
2013    20      1       0.6581077       131.2065
2013    20      2       0.7740485       145.7311
2013    20      3       0.7976501       148.1706
2013    20      4       0.7797042       145.7604
2013    20      5       0.7220557       139.5166
2013    20      6       0.8473186       155.5656
2013    20      7       0.7575213       144.8653
2013    21      0       0.9414304       166.3449
2013    21      1       0.8136007       152.1502
2013    21      2       0.5234956       112.2978
2013    21      3       0.4361692       97.75893
2013    21      4       0.4546226       100.8256
2013    21      5       0.4683206       103.046
2013    21      6       0.4835697       105.4362
2013    21      7       0.4806777       105.0094
2013    22      0       0.4795853       105.0765
2013    22      1       0.4797014       105.2105
2013    22      2       0.4332853       97.64043
2013    22      3       0.4006225       92.10837
2013    22      4       0.4707549       103.9782
2013    22      5       0.4477133       100.1634
2013    22      6       0.4146674       94.61467
2013    22      7       0.4031004       92.50778
2013    23      0       0.3743911       87.41738
2013    23      1       0.3268305       78.70942
2013    23      2       0.3033272       74.04639
2013    23      3       0.3027322       73.80754
2013    23      4       0.3298467       79.0668
2013    23      5       0.3136852       76.15797
2013    23      6       0.2881373       71.06151
2013    23      7       0.2695407       67.20371
2013    24      0       0.2331657       59.78266
2013    24      1       0.2514787       63.45538
2013    24      2       0.3218906       77.15877
2013    24      3       0.3998639       91.20866
2013    24      4       0.427146        96.07278
2013    24      5       0.3792442       88.00309
2013    24      6       0.3638547       85.14354
2013    24      7       0.393964        90.25463
2013    25      0       0.4429957       98.6852
2013    25      1       0.4810314       104.9547
2013    25      2       0.5187788       110.766
2013    25      3       0.656676        130.5249
2013    25      4       0.6615779       131.2072
2013    25      5       0.5754066       119.2389
2013    25      6       0.5543901       116.0118
2013    25      7       0.5312888       112.6036
2013    26      0       0.5271117       112.4032
2013    26      1       0.4903324       106.9811
2013    26      2       0.4729782       103.9717
2013    26      3       0.5130386       110.0273
2013    26      4       0.5578685       116.8282
2013    26      5       0.4906532       106.878
2013    26      6       0.4179238       94.83093
2013    26      7       0.5189592       111.5206
2013    27      0       0.5964754       123.4544
2013    27      1       0.6146401       126.0942
2013    27      2       0.5861777       121.8177
2013    27      3       0.717101        140.3292
2013    27      4       0.7489562       142.706
2013    27      5       0.6469154       131.2428
2013    27      6       0.7738169       147.4343
2013    27      7       0.890557        159.8464
2013    28      0       1.088191        180.7874
2013    28      1       0.9476898       167.2445
2013    28      2       0.9717507       168.4969
2013    28      3       0.919903        163.7555
2013    28      4       0.7218421       139.8674
2013    28      5       0.6411786       130.0953
2013    28      6       0.5481153       116.4169
2013    28      7       0.434815        97.74811
2013    29      0       0.3438238       81.22978
2013    29      1       0.549071        115.3646
2013    29      2       0.9755761       169.0657
2013    29      3       1.049332        176.7686
2013    29      4       1.016586        174.0728
2013    29      5       1.054575        177.6017
2013    29      6       0.9765696       169.6045
2013    29      7       1.031357        175.0161
2013    30      0       0.848704        155.3801
2013    30      1       0.6635888       132.2089
2013    30      2       0.4700262       103.0621
2013    30      3       0.3759899       86.72951
2013    30      4       0.2222251       57.13645
2013    30      5       0.1056431       31.19224
2013    30      6       0.07189283      23.18071
2013    30      7       0.05794038      19.41986
2014    1       0       0.6192282       126.0628
2014    1       1       0.6139649       125.4214
2014    1       2       0.8285898       153.3847
2014    1       3       0.8949109       159.0342
2014    1       4       0.8675623       155.4363
2014    1       5       0.8055457       149.2582
2014    1       6       0.7777143       146.0903
2014    1       7       0.6453868       128.9911
2014    2       0       0.6910176       134.2965
2014    2       1       0.5864754       119.7344
2014    2       2       0.6544281       129.7405
2014    2       3       0.7766553       145.6709
2014    2       4       0.8140928       150.3354
2014    2       5       0.5545052       116.5691
2014    2       6       0.5457267       114.8927
2014    2       7       0.5291884       112.3181
2014    3       0       0.584794        120.8879
2014    3       1       0.3925464       89.80612
2014    3       2       0.2897205       70.39599
2014    3       3       0.2409032       60.59758
2014    3       4       0.2578258       63.94295
2014    3       5       0.2558018       63.44546
2014    3       6       0.2796853       68.20724
2014    3       7       0.280846        68.47091
2014    4       0       0.2458474       61.61577
2014    4       1       0.2223251       56.98782
2014    4       2       0.1906453       50.38283
2014    4       3       0.2228673       56.95756
2014    4       4       0.325155        76.8304
2014    4       5       0.3864768       87.59054
2014    4       6       0.3716757       84.69345
2014    4       7       0.3652886       82.79873
2014    5       0       0.2255961       56.57568
2014    5       1       0.1339207       37.15604
2014    5       2       0.1226896       34.76898
2014    5       3       0.12184         34.65659
2014    5       4       0.1269598       36.00866
2014    5       5       0.1275004       36.14435
2014    5       6       0.1276013       36.15651
2014    5       7       0.1305147       36.73176
2014    6       0       0.1385441       38.45299
2014    6       1       0.1365524       37.91686
2014    6       2       0.1262443       35.54406
2014    6       3       0.1289323       36.50603
2014    6       4       0.1434551       40.05109
2014    6       5       0.1354641       38.3145
2014    6       6       0.1152723       33.5847
2014    6       7       0.1158621       33.72952
2014    7       0       0.1152068       33.59461
2014    7       1       0.1148483       33.50779
2014    7       2       0.1149621       33.52944
2014    7       3       0.1317447       37.50161
2014    7       4       0.1536957       42.68498
2014    7       5       0.154598        42.91506
2014    7       6       0.138249        39.15205
2014    7       7       0.1241819       35.87721
2014    8       0       0.114524        33.65732
2014    8       1       0.1073601       31.9296
2014    8       2       0.11007         32.42248
2014    8       3       0.1357732       38.34922
2014    8       4       0.1457277       40.83539
2014    8       5       0.1411191       39.84562
2014    8       6       0.1317824       37.51754
2014    8       7       0.1266236       36.15664
2014    9       0       0.112781        32.77676
2014    9       1       0.0959514       28.72153
2014    9       2       0.08808352      26.77414
2014    9       3       0.1178757       33.938
2014    9       4       0.1368166       38.44581
2014    9       5       0.1219892       35.04879
2014    9       6       0.1145492       33.34411
2014    9       7       0.1047015       30.99506
2014    10      0       0.1031985       30.57132
2014    10      1       0.1092674       31.91215
2014    10      2       0.1181143       33.91221
2014    10      3       0.1674703       45.35051
2014    10      4       0.2175833       56.43251
2014    10      5       0.2352796       60.15532
2014    10      6       0.2497071       62.99152
2014    10      7       0.269744        66.95984
2014    11      0       0.2910381       71.03717
2014    11      1       0.3171362       75.8686
2014    11      2       0.3294437       78.12264
2014    11      3       0.3299268       78.24442
2014    11      4       0.3266981       77.87381
2014    11      5       0.3244258       77.52726
2014    11      6       0.3248291       77.49065
2014    11      7       0.3101401       74.67516
2014    12      0       0.2960443       71.9269
2014    12      1       0.281294        69.02711
2014    12      2       0.2657821       65.93097
2014    12      3       0.2726558       67.33186
2014    12      4       0.2907724       71.01618
2014    12      5       0.2790275       68.80514
2014    12      6       0.2607664       65.09194
2014    12      7       0.2448331       61.76376
2014    13      0       0.3671259       85.64056
2014    13      1       0.2326414       58.83111
2014    13      2       0.219348        56.04756
2014    13      3       0.2288313       58.1048
2014    13      4       0.2462831       61.738
2014    13      5       0.2539263       63.15819
2014    13      6       0.2785044       67.88735
2014    13      7       0.3585443       82.96372
2014    14      0       0.5759294       118.3898
2014    14      1       0.5482637       114.8598
2014    14      2       0.5439672       113.5345
2014    14      3       0.5872193       120.104
2014    14      4       0.5680385       117.759
2014    14      5       0.6424058       127.979
2014    14      6       0.7731948       144.5477
2014    14      7       0.7085117       136.1109
2014    15      0       0.6437799       127.495
2014    15      1       0.6232333       125.7678
2014    15      2       0.5999222       122.1076
2014    15      3       0.5230961       110.7213
2014    15      4       0.4953733       106.5412
2014    15      5       0.5217579       110.7972
2014    15      6       0.5101249       108.8362
2014    15      7       0.4716863       102.3863
2014    16      0       0.4573037       100.1145
2014    16      1       0.5222104       110.6699
2014    16      2       0.5803567       119.9338
2014    16      3       0.5374295       114.0686
2014    16      4       0.7196323       138.5944
2014    16      5       0.5452642       115.3033
2014    16      6       0.5078112       109.6368
2014    16      7       0.6408876       128.1301
2014    17      0       0.6408372       128.2691
2014    17      1       0.7027382       137.8319
2014    17      2       0.8011995       150.0229
2014    17      3       0.7547634       144.2308
2014    17      4       0.9133572       162.1704
2014    17      5       0.9333541       164.2855
2014    17      6       1.080662        178.8646
2014    17      7       0.9342484       164.4223
2014    18      0       0.7658931       145.3471
2014    18      1       0.4986852       107.8324
2014    18      2       0.4430505       98.67395
2014    18      3       0.5670531       118.2752
2014    18      4       0.6294888       127.0759
2014    18      5       0.450448        99.97468
2014    18      6       0.3812459       88.164
2014    18      7       0.3444174       81.44801
2014    19      0       0.3106188       75.11005
2014    19      1       0.27927         68.95808
2014    19      2       0.259847        64.97978
2014    19      3       0.281307        69.33574
2014    19      4       0.3167546       76.42481
2014    19      5       0.3151455       76.22599
2014    19      6       0.3200117       76.92653
2014    19      7       0.3189749       76.39061
2014    20      0       0.3168805       75.90033
2014    20      1       0.3175348       76.01244
2014    20      2       0.3130298       74.98609
2014    20      3       0.345785        81.04557
2014    20      4       0.3493487       81.93501
2014    20      5       0.3185922       76.10588
2014    20      6       0.301442        72.4253
2014    20      7       0.3127254       74.23558
2014    21      0       0.2183977       56.08672
2014    21      1       0.1864367       49.16402
2014    21      2       0.2434486       61.20538
2014    21      3       0.4146415       93.45631
2014    21      4       0.727872        140.0218
2014    21      5       0.8918229       160.5204
2014    21      6       1.087619        180.3843
2014    21      7       0.762911        144.804
2014    22      0       1.083046        179.6054
2014    22      1       1.069546        178.943
2014    22      2       1.02276         174.0842
2014    22      3       0.8546581       154.9952
2014    22      4       0.7701564       141.86
2014    22      5       0.6192465       123.1228
2014    22      6       0.6088773       122.8612
2014    22      7       0.5750729       117.9901
2014    23      0       0.5883323       119.9328
2014    23      1       0.3935548       89.48213
2014    23      2       0.255377        63.78607
2014    23      3       0.33934         80.11487
2014    23      4       0.4004175       91.18554
2014    23      5       0.3751126       86.5997
2014    23      6       0.3808191       87.34302
2014    23      7       0.4820477       104.4454
2014    24      0       0.3823961       87.30481
2014    24      1       0.4088056       91.77629
2014    24      2       0.3883129       88.12622
2014    24      3       0.4670121       101.025
2014    24      4       0.5395239       112.2483
2014    24      5       0.4213498       93.66728
2014    24      6       0.406121        91.08505
2014    24      7       0.3885646       87.84328
2014    25      0       0.3583305       82.47592
2014    25      1       0.4483354       97.45889
2014    25      2       0.4970643       105.7452
2014    25      3       0.4513037       98.98103
2014    25      4       0.4964612       106.468
2014    25      5       0.4396311       97.24178
2014    25      6       0.4391326       97.3903
2014    25      7       0.3797791       87.38093
2014    26      0       0.3442293       80.83895
2014    26      1       0.3235943       76.82711
2014    26      2       0.3653753       84.31941
2014    26      3       0.5317009       111.4763
2014    26      4       0.6726739       131.4895
2014    26      5       0.5734581       118.0508
2014    26      6       0.6312165       125.9598
2014    26      7       0.6417284       127.2763
2014    27      0       0.6200809       124.2821
2014    27      1       0.6806579       132.2443
2014    27      2       0.6454581       127.6403
2014    27      3       0.5857871       119.5809
2014    27      4       0.591863        120.4993
2014    27      5       0.57445         118.0875
2014    27      6       0.6119755       123.4061
2014    27      7       0.6432517       127.8807
2014    28      0       0.6340479       126.8738
2014    28      1       0.3933647       89.29047
2014    28      2       0.3053641       73.22259
2014    28      3       0.3325832       78.42666
2014    28      4       0.3376005       79.38892
2014    28      5       0.2967202       71.50665
2014    28      6       0.2888074       69.75151
2014    28      7       0.2934569       70.46187
2014    29      0       0.2963052       71.02589
2014    29      1       0.2793253       67.82968
2014    29      2       0.2546593       63.12625
2014    29      3       0.2561014       63.53085
2014    29      4       0.237112        59.78078
2014    29      5       0.2153958       55.29885
2014    29      6       0.2018816       52.28605
2014    29      7       0.2043862       52.59073
2014    30      0       0.2052809       52.70291
2014    30      1       0.2107541       53.83797
2014    30      2       0.2130215       54.26913
2014    30      3       0.2171543       55.15604
2014    30      4       0.2348981       59.11567
2014    30      5       0.2656836       65.33924
2014    30      6       0.3196281       75.38383
2014    30      7       0.3615198       82.96165
2015    1       0       0.5699253       119.352
2015    1       1       0.5469983       115.5508
2015    1       2       0.4630892       102.0211
2015    1       3       0.4421661       98.35101
2015    1       4       0.4820032       104.4438
2015    1       5       0.4129258       92.86471
2015    1       6       0.3333119       78.89735
2015    1       7       0.393961        90.27987
2015    2       0       0.302019        72.84646
2015    2       1       0.2736541       67.31242
2015    2       2       0.2471937       61.9435
2015    2       3       0.2586813       64.09408
2015    2       4       0.3179249       75.29707
2015    2       5       0.3300328       77.42546
2015    2       6       0.2827395       68.58469
2015    2       7       0.2283187       57.94517
2015    3       0       0.1633853       44.20395
2015    3       1       0.1249441       35.32048
2015    3       2       0.1169294       33.52457
2015    3       3       0.1392798       38.87397
2015    3       4       0.164841        44.75204
2015    3       5       0.1716951       46.45042
2015    3       6       0.1742006       47.02424
2015    3       7       0.1871089       49.83811
2015    4       0       0.1968594       51.9903
2015    4       1       0.1928409       51.22437
2015    4       2       0.1896964       50.64443
2015    4       3       0.20761         54.62072
2015    4       4       0.2145955       56.26132
2015    4       5       0.1780625       48.40898
2015    4       6       0.1670017       45.68158
2015    4       7       0.2357228       60.36151
2015    5       0       0.3092569       75.30043
2015    5       1       0.4591491       102.0762
2015    5       2       0.7822128       149.2716
2015    5       3       0.8965274       161.8045
2015    5       4       1.062791        177.9188
2015    5       5       0.5845831       123.1545
2015    5       6       0.4806888       107.2461
2015    5       7       0.9106915       163.9746
2015    6       0       0.8856737       160.8006
2015    6       1       0.8923547       162.4506
2015    6       2       0.6166435       127.7281
2015    6       3       0.611424        126.4354
2015    6       4       0.6150134       126.4143
2015    6       5       0.5299064       113.9008
2015    6       6       0.4967001       108.6885
2015    6       7       0.4690608       104.2126
2015    7       0       0.4758767       105.2896
2015    7       1       0.4849381       106.7479
2015    7       2       0.5172625       111.8413
2015    7       3       0.7693609       146.5969
2015    7       4       0.8019792       150.4767
2015    7       5       0.6677654       133.8817
2015    7       6       0.5800702       121.6254
2015    7       7       0.5276443       113.5471
2015    8       0       0.531727        113.9952
2015    8       1       0.5569749       117.5772
2015    8       2       0.6083282       124.7026
2015    8       3       0.8820595       158.0372
2015    8       4       1.108525        180.3383
2015    8       5       0.8586279       155.609
2015    8       6       0.7674871       145.7583
2015    8       7       0.9680252       168.3566
2015    9       0       0.8118492       151.0454
2015    9       1       0.5666839       117.5522
2015    9       2       0.8101379       148.5268
2015    9       3       0.9926336       167.468
2015    9       4       1.082924        176.998
2015    9       5       1.04036         173.3233
2015    9       6       1.005754        170.4818
2015    9       7       0.9504007       166.0697
2015    10      0       0.8609175       156.4353
2015    10      1       0.7271248       139.1551
2015    10      2       0.7704976       144.0293
2015    10      3       0.6824636       132.4547
2015    10      4       0.6984321       134.3539
2015    10      5       0.6388559       126.401
2015    10      6       0.4493321       98.2266
2015    10      7       0.4056703       91.2496
2015    11      0       0.3970857       89.69841
2015    11      1       0.3323559       78.30468
2015    11      2       0.2806661       68.71244
2015    11      3       0.3438648       80.81244
2015    11      4       0.4821124       104.2244
2015    11      5       0.4067871       91.86165
2015    11      6       0.4132939       93.03416
2015    11      7       0.3383956       79.96708
2015    12      0       0.3465691       81.50091
2015    12      1       0.3152455       75.91318
2015    12      2       0.3339591       79.33354
2015    12      3       0.4189857       94.78869
2015    12      4       0.4642904       102.6153
2015    12      5       0.4345637       97.74065
2015    12      6       0.3863768       89.35699
2015    12      7       0.3623018       84.72169
2015    13      0       0.3394084       80.31924
2015    13      1       0.3203329       76.70039
2015    13      2       0.2964793       72.13826
2015    13      3       0.2992512       72.86231
2015    13      4       0.3288682       78.60456
2015    13      5       0.2911607       71.49671
2015    13      6       0.3001899       73.42385
2015    13      7       0.2868848       70.94498
2015    14      0       0.2544327       64.48157
2015    14      1       0.2110122       55.24284
2015    14      2       0.1238239       35.41874
2015    14      3       0.1444715       40.1507
2015    14      4       0.173806        46.77111
2015    14      5       0.1900615       50.41034
2015    14      6       0.1902097       50.43549
2015    14      7       0.1913427       50.69771
2015    15      0       0.1870161       49.76329
2015    15      1       0.1798973       48.23398
2015    15      2       0.1785314       47.84216
2015    15      3       0.1788556       47.88669
2015    15      4       0.1761086       47.3641
2015    15      5       0.1445878       39.85742
2015    15      6       0.1742267       45.90054
2015    15      7       0.249323        61.81131
2015    16      0       0.3374583       79.11272
2015    16      1       0.5253174       111.8523
2015    16      2       0.5703846       119.0057
2015    16      3       0.6212898       126.3551
2015    16      4       0.6298549       127.6266
2015    16      5       0.7806295       146.6949
2015    16      6       0.8658598       157.5548
2015    16      7       0.9192344       162.9843
2015    17      0       1.017           172.9918
2015    17      1       1.097592        181.5832
2015    17      2       1.192954        190.1211
2015    17      3       1.236645        194.1065
2015    17      4       1.299084        198.917
2015    17      5       1.287048        197.6775
2015    17      6       1.117976        182.9389
2015    17      7       1.120168        182.8249
2015    18      0       1.164148        185.9422
2015    18      1       1.141458        183.7514
2015    18      2       1.019701        172.8791
2015    18      3       0.7428123       142.7958
2015    18      4       0.6731089       133.8544
2015    18      5       0.5655576       118.7725
2015    18      6       0.4454447       99.47738
2015    18      7       0.4981148       107.8451
2015    19      0       0.5073106       109.1227
2015    19      1       0.4460903       98.89182
2015    19      2       0.4063326       91.75758
2015    19      3       0.4915343       106.0429
2015    19      4       0.5521043       115.0647
2015    19      5       0.4812681       103.7392
2015    19      6       0.430975        95.10628
2015    19      7       0.4041353       90.54986
2015    20      0       0.354183        81.79897
2015    20      1       0.3204521       75.69097
2015    20      2       0.2975928       71.45057
2015    20      3       0.3180896       75.50316
2015    20      4       0.3585964       83.12499
2015    20      5       0.2496389       62.73869
2015    20      6       0.233001        59.12921
2015    20      7       0.2165557       55.64513
2015    21      0       0.1767242       47.40343
2015    21      1       0.1555947       42.79542
2015    21      2       0.1426835       39.86731
2015    21      3       0.1512361       41.76446
2015    21      4       0.1544382       42.52264
2015    21      5       0.1295882       36.89112
2015    21      6       0.1097494       32.21246
2015    21      7       0.09954057      29.76709
2015    22      0       0.09586636      28.90389
2015    22      1       0.09436072      28.54472
2015    22      2       0.08814633      27.02319
2015    22      3       0.09097931      27.76546
2015    22      4       0.09986288      30.05416
2015    22      5       0.0874897       27.06975
2015    22      6       0.07835479      24.81188
2015    22      7       0.05921369      19.94478
2015    23      0       0.06247715      20.77007
2015    23      1       0.06160999      20.53737
2015    23      2       0.06060383      20.22041
2015    23      3       0.06627623      21.69786
2015    23      4       0.08386695      26.18155
2015    23      5       0.07261934      23.28828
2015    23      6       0.05976856      19.99068
2015    23      7       0.06056634      20.21777
2015    24      0       0.06987674      22.55196
2015    24      1       0.07812753      24.47755
2015    24      2       0.08488439      26.01388
2015    24      3       0.09620319      28.73974
2015    24      4       0.1224788       35.20261
2015    24      5       0.1180914       34.16014
2015    24      6       0.1136168       33.12723
2015    24      7       0.1054694       31.24115
2015    25      0       0.1005776       30.02477
2015    25      1       0.08491921      26.09778
2015    25      2       0.08189707      25.29798
2015    25      3       0.09435344      28.26089
2015    25      4       0.09016216      27.2306
2015    25      5       0.09195488      27.45302
2015    25      6       0.1096208       31.40155
2015    25      7       0.106977        30.91018
2015    26      0       0.1591928       41.9889
2015    26      1       0.194233        49.27719
2015    26      2       0.2981194       70.32372
2015    26      3       0.2246383       56.1217
2015    26      4       0.2692155       65.30732
2015    26      5       0.2807696       67.64182
2015    26      6       0.2621055       66.18052
2015    26      7       0.5814739       122.1594
2015    27      0       0.7074994       139.4986
2015    27      1       0.4496523       100.5821
2015    27      2       0.3981724       91.67225
2015    27      3       0.3798949       88.89128
2015    27      4       0.4108011       94.03212
2015    27      5       0.42884         97.29735
2015    27      6       0.3868196       89.72991
2015    27      7       0.3748419       87.27905
2015    28      0       0.3965519       91.03398
2015    28      1       0.3927564       90.4077
2015    28      2       0.3544114       83.60838
2015    28      3       0.3548008       83.7281
2015    28      4       0.3504917       83.16692
2015    28      5       0.3053992       74.67025
2015    28      6       0.2466531       62.8109
2015    28      7       0.2495347       63.27036
2015    29      0       0.2503977       63.47829
2015    29      1       0.2536181       64.00987
2015    29      2       0.2995404       72.75766
2015    29      3       0.50841         108.0238
2015    29      4       0.6327595       125.9727
2015    29      5       0.6311458       126.6073
2015    29      6       0.521972        111.3524
2015    29      7       0.476646        104.6171
2015    30      0       0.4915703       107.1826
2015    30      1       0.3912435       90.04688
2015    30      2       0.3269533       78.22408
2015    30      3       0.4656572       102.5453
2015    30      4       0.4925158       106.8734
2015    30      5       0.4798365       104.7303
2015    30      6       0.8015891       150.2393
2015    30      7       0.9499291       166.7883
2016    1       0       0.5723636       119.9989
2016    1       1       0.5642869       118.9289
2016    1       2       0.6407324       130.291
2016    1       3       0.9385827       166.0869
2016    1       4       0.6465552       130.8116
2016    1       5       0.5411171       114.7685
2016    1       6       0.8312505       154.0949
2016    1       7       0.9545116       168.6046
2016    2       0       0.5585128       118.4912
2016    2       1       0.2710087       67.4835
2016    2       2       0.3399998       80.24795
2016    2       3       0.4606381       100.4823
2016    2       4       0.4003285       89.98748
2016    2       5       0.2566558       64.08659
2016    2       6       0.2041843       53.56061
2016    2       7       0.1840478       49.41006
2016    3       0       0.1735269       47.3403
2016    3       1       0.1680628       45.82011
2016    3       2       0.1594433       43.90866
2016    3       3       0.1726112       46.83663
2016    3       4       0.1863484       49.93908
2016    3       5       0.1723689       46.91622
2016    3       6       0.1534595       42.64702
2016    3       7       0.135674        38.52749
2016    4       0       0.127759        36.57826
2016    4       1       0.1261211       36.11379
2016    4       2       0.13274         37.61177
2016    4       3       0.1507721       41.77335
2016    4       4       0.1594564       43.87309
2016    4       5       0.1614343       44.49699
2016    4       6       0.169393        46.41861
2016    4       7       0.1735495       47.36629
2016    5       0       0.1582352       43.87882
2016    5       1       0.1510209       42.16346
2016    5       2       0.1595152       44.01669
2016    5       3       0.1607282       44.2894
2016    5       4       0.1660245       45.55087
2016    5       5       0.1652086       45.369
2016    5       6       0.1662791       45.56457
2016    5       7       0.1685708       45.99237
2016    6       0       0.1758451       47.48397
2016    6       1       0.1844509       49.1992
2016    6       2       0.1955161       51.60771
2016    6       3       0.2177813       56.45065
2016    6       4       0.2463917       62.45002
2016    6       5       0.2567546       64.65443
2016    6       6       0.2752048       68.27496
2016    6       7       0.2988414       72.98053
2016    7       0       0.3064027       74.45547
2016    7       1       0.2910808       71.55383
2016    7       2       0.2761888       68.79659
2016    7       3       0.260542        65.77979
2016    7       4       0.2624347       66.17628
2016    7       5       0.2231421       58.26491
2016    7       6       0.2105111       55.50607
2016    7       7       0.2057229       54.03598
2016    8       0       0.2121985       55.09466
2016    8       1       0.2585453       64.1338
2016    8       2       0.2973128       71.03076
2016    8       3       0.3651882       83.86785
2016    8       4       0.3546649       82.76718
2016    8       5       0.3089253       74.83306
2016    8       6       0.2908746       71.59557
2016    8       7       0.2663748       66.98916
2016    9       0       0.2433624       62.44979
2016    9       1       0.2530148       64.04281
2016    9       2       0.3928418       89.69689
2016    9       3       0.4763124       104.9279
2016    9       4       0.461306        103.1414
2016    9       5       0.4297369       98.05137
2016    9       6       0.4110248       94.90677
2016    9       7       0.383757        90.11355
2016    10      0       0.3458782       83.20798
2016    10      1       0.3406479       82.17731
2016    10      2       0.5041095       110.8066
2016    10      3       0.6057652       125.8758
2016    10      4       0.4504491       100.9005
2016    10      5       0.5167692       111.883
2016    10      6       0.5773222       121.5441
2016    10      7       0.2930249       72.98041
2016    11      0       0.2213322       58.50295
2016    11      1       0.1994824       54.12792
2016    11      2       0.193568        52.76424
2016    11      3       0.1915939       52.18341
2016    11      4       0.1884123       51.33382
2016    11      5       0.203847        54.74877
2016    11      6       0.2260014       59.22228
2016    11      7       0.2236775       58.81706
2016    12      0       0.1911493       51.65381
2016    12      1       0.1817645       49.50264
2016    12      2       0.1841466       49.85358
2016    12      3       0.190297        51.25488
2016    12      4       0.2151621       56.59143
2016    12      5       0.2380102       60.82589
2016    12      6       0.2387963       60.88521
2016    12      7       0.2738404       67.5576
2016    13      0       0.2478622       62.63551
2016    13      1       0.2244121       57.80545
2016    13      2       0.2201312       57.16811
2016    13      3       0.2940716       73.2278
2016    13      4       0.3313185       81.02177
2016    13      5       0.3675743       87.62472
2016    13      6       0.3902751       91.51173
2016    13      7       0.4225712       97.08953
2016    14      0       0.400839        93.23561
2016    14      1       0.4019298       93.65434
2016    14      2       0.3661688       86.7935
2016    14      3       0.3616343       85.55196
2016    14      4       0.4139724       95.18816
2016    14      5       0.4155301       95.91419
2016    14      6       0.4571835       103.0999
2016    14      7       0.4682181       104.769
2016    15      0       0.3766272       88.5934
2016    15      1       0.3466648       82.7775
2016    15      2       0.5248343       112.1717
2016    15      3       0.6253349       126.1311
2016    15      4       0.4741672       104.8373
2016    15      5       0.4549123       101.9941
2016    15      6       0.4300589       97.21422
2016    15      7       0.4299739       96.86247
2016    16      0       0.3560335       83.82092
2016    16      1       0.3463299       81.9926
2016    16      2       0.3630478       85.01359
2016    16      3       0.4343291       97.39684
2016    16      4       0.5135002       110.5804
2016    16      5       0.5512611       116.2996
2016    16      6       0.5046428       108.7046
2016    16      7       0.4874062       106.3751
2016    17      0       0.8678145       158.9314
2016    17      1       1.046973        176.9884
2016    17      2       0.8568102       157.307
2016    17      3       0.4810075       105.7241
2016    17      4       0.328558        78.83661
2016    17      5       0.2719036       67.70312
2016    17      6       0.2271838       58.13502
2016    17      7       0.2111416       54.23106
2016    18      0       0.1815637       48.08327
2016    18      1       0.1299726       36.81977
2016    18      2       0.09211554      27.89854
2016    18      3       0.1325003       37.44823
2016    18      4       0.1490319       41.36223
2016    18      5       0.1377415       38.85184
2016    18      6       0.1305541       37.07521
2016    18      7       0.13335         37.6002
2016    19      0       0.1269301       36.04344
2016    19      1       0.1215477       34.8313
2016    19      2       0.1124796       32.68992
2016    19      3       0.1235412       35.33193
2016    19      4       0.1371477       38.54749
2016    19      5       0.1259744       36.00447
2016    19      6       0.1146602       33.37601
2016    19      7       0.1121494       32.78635
2016    20      0       0.1077539       31.75019
2016    20      1       0.10022         30.01686
2016    20      2       0.08643676      26.7216
2016    20      3       0.0787589       24.83915
2016    20      4       0.1075176       31.85458
2016    20      5       0.09091326      27.85068
2016    20      6       0.09023464      27.70721
2016    20      7       0.08456746      26.30036
2016    21      0       0.08785892      27.06535
2016    21      1       0.08550033      26.4795
2016    21      2       0.08350686      25.96185
2016    21      3       0.0881283       26.99357
2016    21      4       0.1072707       31.7252
2016    21      5       0.09741396      29.32056
2016    21      6       0.09155522      27.80892
2016    21      7       0.07047024      22.54083
2016    22      0       0.05576851      18.85036
2016    22      1       0.03805501      14.25104
2016    22      2       0.03483871      13.3794
2016    22      3       0.03327271      13.01154
2016    22      4       0.044385        15.93943
2016    22      5       0.05416075      18.40942
2016    22      6       0.06116976      20.20173
2016    22      7       0.06631369      21.41441
2016    23      0       0.075336        23.59147
2016    23      1       0.07959152      24.61752
2016    23      2       0.07409851      23.22995
2016    23      3       0.07677828      23.93141
2016    23      4       0.08088506      25.01031
2016    23      5       0.06043843      20.01362
2016    23      6       0.0563944       18.98893
2016    23      7       0.05010526      17.26292
2016    24      0       0.04896389      16.88933
2016    24      1       0.05401759      18.13919
2016    24      2       0.0619751       20.18621
2016    24      3       0.07079841      22.33229
2016    24      4       0.08776147      26.33228
2016    24      5       0.09916009      29.1097
2016    24      6       0.1220488       34.47716
2016    24      7       0.1343738       37.411
2016    25      0       0.1242835       35.24706
2016    25      1       0.1146227       33.04587
2016    25      2       0.109454        31.8466
2016    25      3       0.1116478       32.3268
2016    25      4       0.1168298       33.56972
2016    25      5       0.1129368       32.70381
2016    25      6       0.1041072       30.63748
2016    25      7       0.09739771      29.02223
2016    26      0       0.09359453      28.08
2016    26      1       0.08254047      25.39832
2016    26      2       0.07884793      24.49326
2016    26      3       0.08970111      27.08058
2016    26      4       0.09807996      29.07436
2016    26      5       0.09505408      28.33157
2016    26      6       0.08913125      26.89817
2016    26      7       0.09169585      27.48111
2016    27      0       0.09320813      27.80197
2016    27      1       0.09103007      27.29507
2016    27      2       0.08792219      26.51547
2016    27      3       0.09039479      27.04543
2016    27      4       0.09729295      28.62947
2016    27      5       0.09297957      27.66646
2016    27      6       0.08604566      26.14047
2016    27      7       0.07755886      24.12676
2016    28      0       0.0700643       22.36529
2016    28      1       0.07459818      23.49101
2016    28      2       0.08736495      26.53111
2016    28      3       0.1037557       30.4986
2016    28      4       0.1060387       31.14997
2016    28      5       0.08471563      26.21205
2016    28      6       0.07002819      22.61197
2016    28      7       0.059968        20.02165
2016    29      0       0.06396561      20.93224
2016    29      1       0.06607431      21.3689
2016    29      2       0.06720817      21.60738
2016    29      3       0.07106314      22.55129
2016    29      4       0.08419393      25.59833
2016    29      5       0.1141579       32.52915
2016    29      6       0.1515342       40.90278
2016    29      7       0.1698214       45.00511
2016    30      0       0.1897004       49.25811
2016    30      1       0.2604123       63.84289
2016    30      2       0.2920506       70.38465
2016    30      3       0.374532        86.62845
2016    30      4       0.4822296       105.328
2016    30      5       0.6331423       128.1692
2016    30      6       1.043897        176.0675
2016    30      7       0.7762928       145.5052
2017    1       0       1.061262        178.9637
2017    1       1       1.106524        183.1544
2017    1       2       1.033876        176.1006
2017    1       3       1.179525        188.7684
2017    1       4       1.082516        180.5591
2017    1       5       0.85316         156.9641
2017    1       6       0.7180218       140.4679
2017    1       7       0.7598284       145.6937
2017    2       0       0.7316482       141.3477
2017    2       1       0.6787615       134.2496
2017    2       2       0.7399594       142.2016
2017    2       3       0.8040817       149.8549
2017    2       4       0.8922422       159.7089
2017    2       5       0.681969        134.8306
2017    2       6       0.5110197       110.1722
2017    2       7       0.4443686       99.47491
2017    3       0       0.4239217       96.13327
2017    3       1       0.4235863       96.08681
2017    3       2       0.4032691       92.66072
2017    3       3       0.3802535       88.82575
2017    3       4       0.3389047       81.46505
2017    3       5       0.3640607       86.24061
2017    3       6       0.3726001       87.66181
2017    3       7       0.3667534       86.53926
2017    4       0       0.3338203       80.28056
2017    4       1       0.3448419       82.16578
2017    4       2       0.4066533       93.13012
2017    4       3       0.5431039       115.0772
2017    4       4       0.5330215       113.6359
2017    4       5       0.4234317       96.15108
2017    4       6       0.3648188       85.82102
2017    4       7       0.3559707       83.8999
2017    5       0       0.2894356       71.0984
2017    5       1       0.2169123       56.27537
2017    5       2       0.1980154       52.07854
2017    5       3       0.2324533       59.55755
2017    5       4       0.2292832       59.11019
2017    5       5       0.2530022       64.29937
2017    5       6       0.3785704       88.81042
2017    5       7       0.3284357       79.24322
2017    6       0       0.2568486       65.15104
2017    6       1       0.350148        83.76735
2017    6       2       0.6845737       136.9988
2017    6       3       1.022626        175.8748
2017    6       4       0.9830693       172.4589
2017    6       5       0.8057111       153.1666
2017    6       6       1.130323        187.0148
2017    6       7       1.221383        194.0587
2017    7       0       0.7361113       144.2636
2017    7       1       0.6448126       131.8766
2017    7       2       0.6549795       133.1648
2017    7       3       0.6372096       130.6714
2017    7       4       0.6751923       136.1102
2017    7       5       0.6702049       135.3465
2017    7       6       0.7010229       139.3204
2017    7       7       0.7307428       143.173
2017    8       0       0.6027943       125.8671
2017    8       1       0.704512        139.2559
2017    8       2       0.7589469       146.6223
2017    8       3       0.8418824       156.0028
2017    8       4       1.001909        172.1597
2017    8       5       0.8824022       159.2026
2017    8       6       1.018642        173.5153
2017    8       7       0.7170528       140.5124
2017    9       0       0.6825446       136.2689
2017    9       1       0.6767024       135.4165
2017    9       2       0.6941501       137.6622
2017    9       3       1.073329        178.7023
2017    9       4       1.139571        184.0959
2017    9       5       0.8700969       157.9289
2017    9       6       0.6290984       128.184
2017    9       7       0.5232634       112.4664
2017    10      0       0.448916        100.4453
2017    10      1       0.4148103       94.80298
2017    10      2       0.3685329       86.86447
2017    10      3       0.3474714       83.13783
2017    10      4       0.2950018       73.04278
2017    10      5       0.2316256       59.91448
2017    10      6       0.1599508       44.14451
2017    10      7       0.1608262       44.25553
2017    11      0       0.191242        51.03541
2017    11      1       0.1947192       51.65474
2017    11      2       0.2262145       58.33303
2017    11      3       0.3191438       77.0836
2017    11      4       0.3894644       89.62263
2017    11      5       0.3365668       80.12148
2017    11      6       0.2847252       70.07053
2017    11      7       0.2491872       62.96409
2017    12      0       0.1988452       52.35257
2017    12      1       0.1894126       49.87458
2017    12      2       0.1862577       48.96778
2017    12      3       0.2204248       56.57569
2017    12      4       0.2057618       53.73169
2017    12      5       0.1666029       45.42476
2017    12      6       0.1333967       37.9041
2017    12      7       0.1169013       33.79629
2017    13      0       0.1309595       36.84502
2017    13      1       0.1605832       43.57785
2017    13      2       0.2062016       54.08554
2017    13      3       0.1833242       49.2872
2017    13      4       0.1837847       49.48943
2017    13      5       0.1825949       49.2991
2017    13      6       0.1882741       50.23727
2017    13      7       0.185657        49.38018
2017    14      0       0.1980156       51.7204
2017    14      1       0.2035076       52.72127
2017    14      2       0.1815184       48.25696
2017    14      3       0.1679492       45.58418
2017    14      4       0.1593778       43.79487
2017    14      5       0.1338906       37.92625
2017    14      6       0.1193762       34.45674
2017    14      7       0.1209789       34.79271
2017    15      0       0.1495269       41.51206
2017    15      1       0.1555729       42.939
2017    15      2       0.15795         43.50662
2017    15      3       0.1788574       48.25198
2017    15      4       0.1942959       51.6005
2017    15      5       0.1983818       52.42744
2017    15      6       0.2158733       56.10794
2017    15      7       0.2391992       60.97629
2017    16      0       0.2517913       63.6471
2017    16      1       0.2280687       58.7594
2017    16      2       0.1933541       51.36798
2017    16      3       0.2013748       53.19795
2017    16      4       0.208271        54.80893
2017    16      5       0.1955447       52.12715
2017    16      6       0.1793684       48.55968
2017    16      7       0.1848102       49.72513
2017    17      0       0.1776609       48.18974
2017    17      1       0.1661413       45.57565
2017    17      2       0.1602427       44.15124
2017    17      3       0.1761676       47.6328
2017    17      4       0.1934753       51.44884
2017    17      5       0.1986428       52.5263
2017    17      6       0.2053235       53.64783
2017    17      7       0.2287988       58.24291
2017    18      0       0.2166377       55.92554
2017    18      1       0.1948626       51.28833
2017    18      2       0.1902163       49.98731
2017    18      3       0.2387731       59.91154
2017    18      4       0.2242198       57.64355
2017    18      5       0.2087485       54.25028
2017    18      6       0.2174626       56.02117
2017    18      7       0.2279677       57.97098
2017    19      0       0.2190911       55.69636
2017    19      1       0.1922754       49.78347
2017    19      2       0.2740268       66.36721
2017    19      3       0.5461881       113.3376
2017    19      4       0.6813505       133.8313
2017    19      5       0.7246723       139.4644
2017    19      6       0.8316947       153.1618
2017    19      7       1.130662        184.6203
2017    20      0       0.7399874       143.2049
2017    20      1       0.5894723       122.1161
2017    20      2       0.8368082       153.6995
2017    20      3       0.9088953       162.1971
2017    20      4       0.888546        161.1294
2017    20      5       0.9634439       169.2298
2017    20      6       0.766805        147.0736
2017    20      7       1.003697        173.533
2017    21      0       0.8956192       160.1869
2017    21      1       0.8734437       157.6899
2017    21      2       1.033223        175.4495
2017    21      3       0.8935391       160.8204
2017    21      4       0.8297344       152.5799
2017    21      5       0.7242825       141.3476
2017    21      6       1.044863        176.2495
2017    21      7       0.9417132       166.0482
2017    22      0       0.9486947       165.88
2017    22      1       0.6247393       126.2837
2017    22      2       0.3967994       90.11178
2017    22      3       0.351698        81.89263
2017    22      4       0.3169526       75.43846
2017    22      5       0.2804022       68.20288
2017    22      6       0.2561142       63.03909
2017    22      7       0.2971125       70.61392
2017    23      0       0.2373996       58.98346
2017    23      1       0.1659173       44.11704
2017    23      2       0.1561106       41.86418
2017    23      3       0.1936617       49.81502
2017    23      4       0.2222651       55.5697
2017    23      5       0.225999        56.25741
2017    23      6       0.2589677       62.63961
2017    23      7       0.3028207       70.70179
2017    24      0       0.3062994       71.61356
2017    24      1       0.368859        82.57175
2017    24      2       0.4212448       91.42079
2017    24      3       0.433864        94.01729
2017    24      4       0.3763206       84.43917
2017    24      5       0.1532996       41.2644
2017    24      6       0.1292362       35.76109
2017    24      7       0.1354876       37.10538
2017    25      0       0.1779686       46.6072
2017    25      1       0.2102783       53.48209
2017    25      2       0.2224387       56.00638
2017    25      3       0.2236775       56.34561
2017    25      4       0.2124033       54.20626
2017    25      5       0.1637582       43.91961
2017    25      6       0.1412482       38.60183
2017    25      7       0.1575571       41.97901
2017    26      0       0.1945839       49.60046
2017    26      1       0.2448397       59.73115
2017    26      2       0.2763958       65.97704
2017    26      3       0.2591047       63.07346
2017    26      4       0.2474138       61.01974
2017    26      5       0.2295892       57.45966
2017    26      6       0.20854         53.18302
2017    26      7       0.1900155       49.49557
2017    27      0       0.1627683       43.86009
2017    27      1       0.1398436       38.89955
2017    27      2       0.1522068       41.72782
2017    27      3       0.1578096       42.95864
2017    27      4       0.1692021       45.56216
2017    27      5       0.1673277       45.21965
2017    27      6       0.1574295       42.91435
2017    27      7       0.1583277       42.93568
2017    28      0       0.1877183       49.15223
2017    28      1       0.2342555       59.00516
2017    28      2       0.2496808       62.21649
2017    28      3       0.2686668       66.06861
2017    28      4       0.3072344       73.61317
2017    28      5       0.3123034       74.8014
2017    28      6       0.3372722       79.72691
2017    28      7       0.366894        85.23732
2017    29      0       0.3453069       81.40753
2017    29      1       0.3568771       83.48061
2017    29      2       0.4100625       92.21032
2017    29      3       0.3597593       83.90387
2017    29      4       0.3522934       82.64547
2017    29      5       0.3381794       80.01394
2017    29      6       0.359047        83.72006
2017    29      7       0.3696835       85.71137
2017    30      0       0.3475392       81.92491
2017    30      1       0.3140532       75.89237
2017    30      2       0.2737852       67.92522
2017    30      3       0.2317952       59.24476
2017    30      4       0.259298        64.99751
2017    30      5       0.2302333       59.04319
2017    30      6       0.1722567       46.60664
2017    30      7       0.1497567       41.60035
2018    1       0       0.2189674       56.7926
2018    1       1       0.2132612       55.49637
2018    1       2       0.2155065       55.99134
2018    1       3       0.2552839       64.24806
2018    1       4       0.2978093       72.84389
2018    1       5       0.2929681       71.84713
2018    1       6       0.2822243       69.67576
2018    1       7       0.2802231       69.15884
2018    2       0       0.2939496       71.49087
2018    2       1       0.3145367       75.13607
2018    2       2       0.3680343       84.58021
2018    2       3       0.3886862       88.47976
2018    2       4       0.4440117       97.82019
2018    2       5       0.4777687       103.3367
2018    2       6       0.5206881       110.2727
2018    2       7       0.5160063       110.0888
2018    3       0       0.48626         105.5512
2018    3       1       0.4686257       102.6706
2018    3       2       0.4910746       106.2831
2018    3       3       0.5814092       119.7581
2018    3       4       0.5407603       113.5716
2018    3       5       0.5267624       111.7532
2018    3       6       0.5344076       113.1627
2018    3       7       0.51598         110.1248
2018    4       0       0.4915674       106.2568
2018    4       1       0.556414        116.0635
2018    4       2       0.9401708       164.721
2018    4       3       1.013658        173.6009
2018    4       4       0.9651451       169.0309
2018    4       5       0.9521877       167.9285
2018    4       6       1.080994        180.223
2018    4       7       0.9253909       163.4362
2018    5       0       0.9932522       170.0955
2018    5       1       1.010309        171.6045
2018    5       2       1.12345         182.8243
2018    5       3       0.9384457       166.5392
2018    5       4       0.7909598       148.5858
2018    5       5       0.8370205       154.4226
2018    5       6       0.8795017       159.4634
2018    5       7       0.8095691       151.1028
2018    6       0       0.678535        134.0003
2018    6       1       0.5198398       111.0656
2018    6       2       0.6177894       125.139
2018    6       3       0.7391392       141.4142
2018    6       4       0.8260271       151.9642
2018    6       5       0.6953005       135.8234
2018    6       6       0.6143141       124.9489
2018    6       7       0.599916        122.8301
2018    7       0       0.5822891       120.3762
2018    7       1       0.6717976       132.9354
2018    7       2       0.6579505       131.0122
2018    7       3       0.6635465       131.4719
2018    7       4       0.7516782       142.7851
2018    7       5       0.6514531       129.8518
2018    7       6       0.6788784       133.8333
2018    7       7       0.7323886       140.9433
2018    8       0       0.7529112       143.4326
2018    8       1       0.71706         138.9048
2018    8       2       0.6009436       123.3458
2018    8       3       0.7733736       146.1401
2018    8       4       0.7737992       146.0262
2018    8       5       0.6528577       130.7336
2018    8       6       0.5261953       112.5221
2018    8       7       0.4844926       105.8862
2018    9       0       0.4669056       103.1163
2018    9       1       0.3863814       89.40529
2018    9       2       0.3365294       80.23631
2018    9       3       0.4281354       96.61661
2018    9       4       0.501069        108.7975
2018    9       5       0.3874491       89.73786
2018    9       6       0.3875954       89.65271
2018    9       7       0.378482        87.98757
2018    10      0       0.3966087       91.26963
2018    10      1       0.4147017       94.46892
2018    10      2       0.3929318       90.67256
2018    10      3       0.3987147       91.63935
2018    10      4       0.4422185       99.25075
2018    10      5       0.3903331       90.30124
2018    10      6       0.4014098       92.04092
2018    10      7       0.3944196       90.73675
2018    11      0       0.3710711       86.67174
2018    11      1       0.337459        80.34241
2018    11      2       0.3225993       77.33351
2018    11      3       0.4301689       96.56177
2018    11      4       0.4607982       101.7333
2018    11      5       0.3514812       82.71866
2018    11      6       0.3380814       80.00799
2018    11      7       0.3698098       85.5374
2018    12      0       0.3724545       85.86442
2018    12      1       0.3878689       88.24826
2018    12      2       0.4547558       99.24296
2018    12      3       0.7342145       139.2229
2018    12      4       0.5952998       121.15
2018    12      5       0.4508176       99.15229
2018    12      6       0.3935982       89.60823
2018    12      7       0.3733202       86.10348
2018    13      0       0.336809        79.57171
2018    13      1       0.306388        73.97963
2018    13      2       0.2937347       71.60524
2018    13      3       0.3849425       88.56358
2018    13      4       0.3827367       88.28603
2018    13      5       0.3161041       76.11306
2018    13      6       0.3091505       74.70608
2018    13      7       0.3328631       78.93089
2018    14      0       0.3727902       85.99485
2018    14      1       0.3905057       89.05219
2018    14      2       0.4204975       94.14239
2018    14      3       0.5908217       120.642
2018    14      4       0.5821216       119.6667
2018    14      5       0.5131672       109.0903
2018    14      6       0.6062555       123.3161
2018    14      7       0.6877407       134.9825
2018    15      0       0.7853591       147.3722
2018    15      1       0.6815659       134.2771
2018    15      2       0.610247        124.6644
2018    15      3       0.7689269       145.5901
2018    15      4       0.6872412       135.459
2018    15      5       0.5284153       112.6857
2018    15      6       0.7293806       141.2315
2018    15      7       0.9213048       163.3844
2018    16      0       0.8151683       150.4637
2018    16      1       0.9519572       166.5145
2018    16      2       0.92849         164.6387
2018    16      3       0.9527231       166.9869
2018    16      4       0.9226279       163.5416
2018    16      5       0.7912794       149.5214
2018    16      6       0.7983725       150.3431
2018    16      7       0.8218302       152.8188
2018    17      0       0.698266        136.9398
2018    17      1       0.8199745       152.6051
2018    17      2       0.6886689       136.698
2018    17      3       0.5469457       116.2653
2018    17      4       0.4920168       107.6345
2018    17      5       0.3582568       84.15562
2018    17      6       0.3112022       74.49581
2018    17      7       0.2845032       68.64063
2018    18      0       0.2596894       63.7195
2018    18      1       0.2790599       67.67955
2018    18      2       0.2968797       71.31851
2018    18      3       0.3347491       78.83485
2018    18      4       0.382865        87.95909
2018    18      5       0.361825        84.34835
2018    18      6       0.3576807       83.69714
2018    18      7       0.3412446       80.7412
2018    19      0       0.3150699       75.91633
2018    19      1       0.2929159       71.73899
2018    19      2       0.2871135       70.41535
2018    19      3       0.3170652       76.01948
2018    19      4       0.3717736       86.15897
2018    19      5       0.393249        89.87126
2018    19      6       0.3605775       83.74802
2018    19      7       0.3240725       76.82817
2018    20      0       0.3695588       84.95154
2018    20      1       0.3179642       75.46393
2018    20      2       0.2724706       66.666
2018    20      3       0.2773527       67.85985
2018    20      4       0.3010795       72.47463
2018    20      5       0.3248761       76.83978
2018    20      6       0.29936         72.48494
2018    20      7       0.2656843       65.84998
2018    21      0       0.3063994       73.98042
2018    21      1       0.3338057       79.22659
2018    21      2       0.3961488       90.24014
2018    21      3       0.494459        106.4745
2018    21      4       0.6111375       123.7726
2018    21      5       0.5676159       118.3025
2018    21      6       0.8452867       154.2316
2018    21      7       1.020304        172.5182
2018    22      0       0.8480768       155.1713
2018    22      1       1.012964        172.5062
2018    22      2       1.074097        177.2066
2018    22      3       1.096231        179.4493
2018    22      4       1.00633         171.6595
2018    22      5       0.8575601       156.2306
2018    22      6       0.8447327       154.6919
2018    22      7       0.8116792       150.7546
2018    23      0       0.8860855       159.6158
2018    23      1       0.6656631       132.9047
2018    23      2       0.6183512       126.3202
2018    23      3       0.9152051       163.0431
2018    23      4       0.7445424       142.787
2018    23      5       0.5775688       119.8999
2018    23      6       0.4303043       96.74227
2018    23      7       0.4269369       96.32256
2018    24      0       0.3216683       76.77005
2018    24      1       0.3111537       74.55902
2018    24      2       0.3315849       78.31192
2018    24      3       0.4864296       105.0371
2018    24      4       0.5107131       108.9454
2018    24      5       0.5247889       111.3035
2018    24      6       0.595058        121.2248
2018    24      7       0.5956886       122.0484
2018    25      0       0.7027475       136.728
2018    25      1       0.7026407       136.1629
2018    25      2       0.6138425       123.6831
2018    25      3       0.5591613       115.8109
2018    25      4       0.6571102       129.9275
2018    25      5       0.6060712       123.0938
2018    25      6       0.4738408       103.0168
2018    25      7       0.4918697       105.678
2018    26      0       0.4220531       94.18945
2018    26      1       0.3495102       81.46153
2018    26      2       0.3719003       85.70285
2018    26      3       0.5905467       120.4523
2018    26      4       0.5024197       107.613
2018    26      5       0.2767562       68.41423
2018    26      6       0.2208882       57.03456
2018    26      7       0.179211        48.04142
2018    27      0       0.1637975       44.44436
2018    27      1       0.2620299       65.38103
2018    27      2       0.3606869       83.89764
2018    27      3       0.4337071       96.83152
2018    27      4       0.4851846       105.6351
2018    27      5       0.4989208       107.6094
2018    27      6       0.4124428       93.99924
2018    27      7       0.4098447       93.33704
2018    28      0       0.412225        93.76679
2018    28      1       0.3922392       90.3698
2018    28      2       0.3704853       86.48594
2018    28      3       0.3632875       85.16199
2018    28      4       0.3407599       81.16902
2018    28      5       0.3302731       79.02266
2018    28      6       0.3882908       89.55523
2018    28      7       0.5120379       110.5313
2018    29      0       0.435723        97.9847
2018    29      1       0.3172537       76.36941
2018    29      2       0.3540412       83.12616
2018    29      3       0.4434784       99.05527
2018    29      4       0.469329        103.6656
2018    29      5       0.5747625       119.903
2018    29      6       0.5908069       121.8777
2018    29      7       0.6255804       127.0771
2018    30      0       1.102845        181.5645
2018    30      1       1.023172        175.8935
2018    30      2       1.091132        182.3811
2018    30      3       1.186942        190.9277
2018    30      4       1.26555         197.9288
2018    30      5       1.080581        182.6952
2018    30      6       1.174023        190.215
2018    30      7       1.211508        191.7211
