####################################################################################################
# Month: 10Oct                                                                                     #
# Station: KILI                                                                                    #
# Frequency: 345 GHz                                                                               #
# Columns are: year    day     segment         tau     Tb (K)                                      #
####################################################################################################
2009    1       0       0.136077        39.26131
2009    1       1       0.1291338       37.71751
2009    1       2       0.1267632       37.16623
2009    1       3       0.1024775       31.46313
2009    1       4       0.1099728       33.21079
2009    1       5       0.1254939       36.84302
2009    1       6       0.09801401      30.36987
2009    1       7       0.1070463       32.48934
2009    2       0       0.1148913       34.26754
2009    2       1       0.1053138       31.9597
2009    2       2       0.1201969       35.47925
2009    2       3       0.1565394       43.84502
2009    2       4       0.2956503       72.75878
2009    2       5       0.3569578       84.1675
2009    2       6       0.2147177       56.54514
2009    2       7       0.2051354       54.50189
2009    3       0       0.3152287       76.49242
2009    3       1       0.4092764       93.29257
2009    3       2       0.4376705       98.05301
2009    3       3       0.5716981       118.7859
2009    3       4       0.6367218       127.8895
2009    3       5       0.6385105       128.3964
2009    3       6       0.4186666       95.09257
2009    3       7       0.313809        76.22148
2009    4       0       0.3495966       82.73856
2009    4       1       0.3018927       73.8223
2009    4       2       0.2889079       71.29401
2009    4       3       0.3554846       83.64783
2009    4       4       0.3738575       86.96681
2009    4       5       0.2528502       64.42356
2009    4       6       0.1328296       38.57289
2009    4       7       0.1326787       38.42569
2009    5       0       0.131887        38.2139
2009    5       1       0.09341126      29.15616
2009    5       2       0.1044949       31.78287
2009    5       3       0.115511        34.40895
2009    5       4       0.128369        37.42035
2009    5       5       0.1400047       40.12042
2009    5       6       0.1051217       32.07962
2009    5       7       0.1064814       32.34952
2009    6       0       0.1006503       30.96837
2009    6       1       0.09206656      28.9063
2009    6       2       0.08575017      27.36689
2009    6       3       0.08150824      26.33047
2009    6       4       0.07883242      25.66216
2009    6       5       0.1153781       34.52327
2009    6       6       0.07328339      24.33104
2009    6       7       0.07244626      24.05431
2009    7       0       0.07113464      23.71889
2009    7       1       0.07067235      23.57354
2009    7       2       0.07376695      24.30876
2009    7       3       0.07914984      25.55094
2009    7       4       0.08013518      25.73994
2009    7       5       0.08026078      25.77158
2009    7       6       0.08059378      25.88663
2009    7       7       0.08410746      26.69904
2009    8       0       0.08528784      26.99153
2009    8       1       0.08414788      26.76877
2009    8       2       0.08530607      27.06282
2009    8       3       0.08703395      27.48223
2009    8       4       0.08806748      27.67879
2009    8       5       0.08925675      27.95613
2009    8       6       0.1000292       30.41588
2009    8       7       0.1144661       33.70129
2009    9       0       0.129622        37.08801
2009    9       1       0.1392422       39.26227
2009    9       2       0.1534666       42.4002
2009    9       3       0.1770219       47.53135
2009    9       4       0.256047        63.62083
2009    9       5       0.3744056       85.82786
2009    9       6       0.4946679       106.1698
2009    9       7       0.6430815       127.3579
2009    10      0       0.8073057       147.8091
2009    10      1       0.9282408       161.1527
2009    10      2       1.023012        170.3246
2009    10      3       1.152465        181.8022
2009    10      4       1.099447        177.8514
2009    10      5       1.017121        170.7422
2009    10      6       0.9015398       159.308
2009    10      7       0.88286         157.1858
2009    11      0       0.720789        138.0012
2009    11      1       0.5935374       120.5741
2009    11      2       0.6303237       125.6852
2009    11      3       0.6693244       131.0019
2009    11      4       0.6821611       132.8466
2009    11      5       0.6333468       126.3478
2009    11      6       0.5550281       114.9908
2009    11      7       0.5576094       115.1959
2009    12      0       0.5816412       118.7648
2009    12      1       0.6073936       122.6582
2009    12      2       0.6117333       123.3926
2009    12      3       0.5920301       120.5154
2009    12      4       0.5602376       115.8326
2009    12      5       0.529773        111.5575
2009    12      6       0.4836767       104.8626
2009    12      7       0.4947529       106.8152
2009    13      0       0.5187528       110.7565
2009    13      1       0.5328181       112.813
2009    13      2       0.5287945       112.2788
2009    13      3       0.5544329       116.1385
2009    13      4       0.6016992       122.8621
2009    13      5       0.6163285       125.1441
2009    13      6       0.5323413       113.1563
2009    13      7       0.5379557       113.714
2009    14      0       0.4732175       103.5194
2009    14      1       0.3788781       87.65197
2009    14      2       0.3233986       77.67146
2009    14      3       0.442616        98.31502
2009    14      4       0.662975        130.0003
2009    14      5       1.018073        170.3077
2009    14      6       1.202998        185.7602
2009    14      7       1.139027        179.857
2009    15      0       0.8993526       157.3969
2009    15      1       0.6657433       130.0973
2009    15      2       0.5239682       110.4656
2009    15      3       0.5592325       115.723
2009    15      4       0.8273523       150.1279
2009    15      5       0.9717778       165.0316
2009    15      6       0.8553937       153.3134
2009    15      7       0.7913218       146.3364
2009    16      0       0.8041829       147.8643
2009    16      1       0.8478645       152.8832
2009    16      2       0.8794735       156.2605
2009    16      3       0.9415566       162.6699
2009    16      4       1.005672        169.0092
2009    16      5       1.112949        178.488
2009    16      6       1.056493        173.5764
2009    16      7       1.054276        173.3691
2009    17      0       1.038377        171.79
2009    17      1       1.004221        168.4776
2009    17      2       0.9188596       159.6621
2009    17      3       0.8494833       152.3151
2009    17      4       0.8014567       147.2828
2009    17      5       0.8037194       147.7094
2009    17      6       0.7899468       146.4649
2009    17      7       0.8854604       157.4232
2009    18      0       0.8679879       155.3989
2009    18      1       0.7386876       139.9769
2009    18      2       0.8005536       146.8741
2009    18      3       0.9158981       159.2381
2009    18      4       1.100516        176.4757
2009    18      5       1.126303        179.0784
2009    18      6       1.145177        180.7401
2009    18      7       1.111515        177.8231
2009    19      0       0.9467887       162.0199
2009    19      1       0.7504368       140.7122
2009    19      2       0.7787255       144.0593
2009    19      3       0.8451981       151.7943
2009    19      4       0.8957481       157.7926
2009    19      5       1.024751        171.0747
2009    19      6       0.9532189       164.6112
2009    19      7       0.8391204       152.4593
2009    20      0       0.6991812       135.2724
2009    20      1       0.6292878       125.8583
2009    20      2       0.6552112       129.6099
2009    20      3       0.6821595       133.4965
2009    20      4       0.622271        125.8609
2009    20      5       0.5484263       115.5694
2009    20      6       0.5925352       122.3085
2009    20      7       0.6382716       128.728
2009    21      0       0.6150646       125.2422
2009    21      1       0.584215        120.8011
2009    21      2       0.538403        114.0752
2009    21      3       0.4821187       105.4169
2009    21      4       0.4980888       108.1295
2009    21      5       0.6011359       123.5783
2009    21      6       0.4289119       97.00609
2009    21      7       0.3318275       79.77954
2009    22      0       0.3125044       76.0855
2009    22      1       0.3378351       80.74209
2009    22      2       0.3904893       90.08271
2009    22      3       0.5882108       120.9269
2009    22      4       0.8814366       156.2399
2009    22      5       0.9739212       165.8427
2009    22      6       0.8723529       156.232
2009    22      7       0.8748933       156.4674
2009    23      0       0.8828061       156.768
2009    23      1       0.7418245       140.4492
2009    23      2       0.6275968       125.7876
2009    23      3       0.5874603       120.5362
2009    23      4       0.7453677       142.0292
2009    23      5       0.6981802       136.1583
2009    23      6       0.5514724       115.7343
2009    23      7       0.5314016       112.6457
2009    24      0       0.4614037       101.5904
2009    24      1       0.3717853       86.49944
2009    24      2       0.4310411       96.62068
2009    24      3       0.4900625       106.2492
2009    24      4       0.5647808       117.8521
2009    24      5       0.6395676       128.1886
2009    24      6       0.6243277       125.641
2009    24      7       0.4845752       105.4597
2009    25      0       0.394374        90.64907
2009    25      1       0.3621196       85.0406
2009    25      2       0.4650632       102.5911
2009    25      3       0.5553893       116.5043
2009    25      4       0.6552901       130.4137
2009    25      5       0.8086043       149.419
2009    25      6       0.7344488       140.7852
2009    25      7       0.6828806       134.1438
2009    26      0       0.5572797       116.8725
2009    26      1       0.4262668       96.25105
2009    26      2       0.4614648       102.0867
2009    26      3       0.6578253       130.5389
2009    26      4       0.9571637       164.0091
2009    26      5       0.7519792       142.5097
2009    26      6       0.6485284       129.477
2009    26      7       0.6369628       127.8322
2009    27      0       0.616555        124.9311
2009    27      1       0.6509958       129.1799
2009    27      2       0.6708616       131.5294
2009    27      3       0.7367886       140.1217
2009    27      4       0.8920432       158.4029
2009    27      5       1.136961        181.3122
2009    27      6       1.103145        177.8299
2009    27      7       1.104486        177.6755
2009    28      0       1.08699         175.8181
2009    28      1       0.9897958       166.8988
2009    28      2       0.9308057       161.5545
2009    28      3       1.033355        171.4708
2009    28      4       1.187063        184.8504
2009    28      5       1.205266        186.6001
2009    28      6       1.021729        170.9694
2009    28      7       0.9884594       167.8232
2009    29      0       0.9356554       162.6991
2009    29      1       0.839107        152.5405
2009    29      2       0.7683178       144.3784
2009    29      3       0.7271417       139.3578
2009    29      4       0.790856        147.2451
2009    29      5       0.7406085       141.2394
2009    29      6       0.690057        134.682
2009    29      7       0.6973058       135.23
2009    30      0       0.6693097       131.6905
2009    30      1       0.6642578       130.9708
2009    30      2       0.702595        135.7799
2009    30      3       0.7372573       140.3278
2009    30      4       1.056514        173.8423
2009    30      5       1.107258        177.9888
2009    30      6       1.175621        183.5396
2009    30      7       1.188336        184.4204
2009    31      0       1.100666        177.0856
2009    31      1       0.9868877       167.1236
2009    31      2       1.066791        174.8614
2009    31      3       1.369695        198.0954
2009    31      4       1.613798        212.3203
2009    31      5       1.555702        209.3791
2009    31      6       1.463642        204.4726
2009    31      7       1.007776        170.2547
2010    1       0       0.1784845       48.40522
2010    1       1       0.190544        51.02044
2010    1       2       0.2114026       55.5193
2010    1       3       0.2379257       61.04317
2010    1       4       0.2484516       63.2858
2010    1       5       0.2438288       62.42329
2010    1       6       0.224052        58.45974
2010    1       7       0.2213292       57.82794
2010    2       0       0.2367598       60.81756
2010    2       1       0.2445793       62.32946
2010    2       2       0.2467213       62.85053
2010    2       3       0.2472841       63.10126
2010    2       4       0.2810449       69.86549
2010    2       5       0.2700876       67.6839
2010    2       6       0.2078655       55.02663
2010    2       7       0.196235        52.48376
2010    3       0       0.2059927       54.34181
2010    3       1       0.192683        51.67731
2010    3       2       0.1904344       51.22587
2010    3       3       0.2636001       66.49784
2010    3       4       0.4135123       94.20548
2010    3       5       0.4012917       92.14609
2010    3       6       0.1709022       47.24236
2010    3       7       0.1231536       36.34172
2010    4       0       0.11958         35.51444
2010    4       1       0.1205156       35.74607
2010    4       2       0.1445831       41.26946
2010    4       3       0.2745621       68.69155
2010    4       4       0.4424082       99.12123
2010    4       5       0.3042025       74.69299
2010    4       6       0.115649        34.71111
2010    4       7       0.08741984      27.9195
2010    5       0       0.08866914      28.14244
2010    5       1       0.09969955      30.79737
2010    5       2       0.1918555       51.64981
2010    5       3       0.4947067       107.4632
2010    5       4       0.8645816       156.0985
2010    5       5       0.8331188       152.6388
2010    5       6       0.7132011       138.5619
2010    5       7       0.6354923       128.3897
2010    6       0       0.5881662       121.6621
2010    6       1       0.5559761       116.9008
2010    6       2       0.4678787       103.3984
2010    6       3       0.3563296       84.49118
2010    6       4       0.3230697       78.37612
2010    6       5       0.2587959       65.93582
2010    6       6       0.1642922       45.97128
2010    6       7       0.1500067       42.65927
2010    7       0       0.1455932       41.65437
2010    7       1       0.1393712       40.21423
2010    7       2       0.1386492       40.04383
2010    7       3       0.1460901       41.76523
2010    7       4       0.1391956       40.20206
2010    7       5       0.13024         38.1516
2010    7       6       0.09578116      30.01789
2010    7       7       0.0794997       25.974
2010    8       0       0.07184232      24.00114
2010    8       1       0.06814423      23.05134
2010    8       2       0.07294103      24.25903
2010    8       3       0.07900201      25.77724
2010    8       4       0.08687256      27.69638
2010    8       5       0.09893769      30.62191
2010    8       6       0.07283439      24.21788
2010    8       7       0.06928153      23.28739
2010    9       0       0.09050276      28.51414
2010    9       1       0.09475132      29.54488
2010    9       2       0.1006565       30.9268
2010    9       3       0.1147055       34.21033
2010    9       4       0.1884866       50.8507
2010    9       5       0.2221333       57.82366
2010    9       6       0.1151967       34.29421
2010    9       7       0.09805427      30.24425
2010    10      0       0.1078939       32.58202
2010    10      1       0.1121412       33.51744
2010    10      2       0.1217756       35.75398
2010    10      3       0.221193        57.62218
2010    10      4       0.4605686       101.344
2010    10      5       0.4997008       107.4162
2010    10      6       0.3705141       86.40117
2010    10      7       0.2953611       72.57117
2010    11      0       0.2488018       63.47502
2010    11      1       0.2098345       55.46076
2010    11      2       0.2351951       60.69034
2010    11      3       0.4349473       97.44415
2010    11      4       0.7205639       138.32
2010    11      5       0.6341868       127.1895
2010    11      6       0.4831812       105.6958
2010    11      7       0.4189659       95.13494
2010    12      0       0.2951854       72.71264
2010    12      1       0.1917346       51.55497
2010    12      2       0.1794562       48.7891
2010    12      3       0.2013779       53.48124
2010    12      4       0.2609962       65.77097
2010    12      5       0.2651307       66.6586
2010    12      6       0.1937574       51.96313
2010    12      7       0.2140731       56.29039
2010    13      0       0.1740613       47.75557
2010    13      1       0.1293173       37.67314
2010    13      2       0.1363571       39.18744
2010    13      3       0.1712792       46.93802
2010    13      4       0.2281042       59.07678
2010    13      5       0.2715198       68.0283
2010    13      6       0.2283882       59.14668
2010    13      7       0.2243525       58.05972
2010    14      0       0.2173544       56.62411
2010    14      1       0.1972204       52.29472
2010    14      2       0.171747        46.81035
2010    14      3       0.1661267       45.76058
2010    14      4       0.2730814       68.29422
2010    14      5       0.3315732       79.65095
2010    14      6       0.2148085       56.6821
2010    14      7       0.1909887       51.45499
2010    15      0       0.1651545       45.7395
2010    15      1       0.1611805       44.7663
2010    15      2       0.1726621       47.24519
2010    15      3       0.1858879       50.09056
2010    15      4       0.3093647       75.26076
2010    15      5       0.4011599       91.91453
2010    15      6       0.2275197       59.18317
2010    15      7       0.1288314       37.44951
2010    16      0       0.1209275       35.54294
2010    16      1       0.113259        33.60595
2010    16      2       0.1241289       35.66522
2010    16      3       0.1271258       36.30256
2010    16      4       0.1695638       46.3166
2010    16      5       0.1698111       46.50423
2010    16      6       0.137658        39.21548
2010    16      7       0.1320779       37.87144
2010    17      0       0.1251884       36.40424
2010    17      1       0.1358345       38.67062
2010    17      2       0.1742331       46.65308
2010    17      3       0.2481344       61.10697
2010    17      4       0.3547154       80.36217
2010    17      5       0.3921919       87.44704
2010    17      6       0.3760028       85.34357
2010    17      7       0.3544832       81.49039
2010    18      0       0.3404263       79.04926
2010    18      1       0.3290401       76.89606
2010    18      2       0.3411009       78.92326
2010    18      3       0.3473931       80.05898
2010    18      4       0.3373511       78.47571
2010    18      5       0.3365485       78.55325
2010    18      6       0.3904216       88.02701
2010    18      7       0.4268464       93.62659
2010    19      0       0.4192564       92.26889
2010    19      1       0.4155804       91.67334
2010    19      2       0.4417172       96.27682
2010    19      3       0.4718799       101.3946
2010    19      4       0.4935618       105.1243
2010    19      5       0.5208251       109.6484
2010    19      6       0.5395279       112.5229
2010    19      7       0.5887037       119.6415
2010    20      0       0.5725001       117.5519
2010    20      1       0.5354104       112.1245
2010    20      2       0.5372627       112.2596
2010    20      3       0.5274053       111.0211
2010    20      4       0.5492825       114.5297
2010    20      5       0.5198267       109.9021
2010    20      6       0.5300472       111.5096
2010    20      7       0.6295807       125.8534
2010    21      0       0.6565499       129.6642
2010    21      1       0.6799798       133.0255
2010    21      2       0.7106379       136.9351
2010    21      3       0.7588973       142.7521
2010    21      4       0.7178203       137.6951
2010    21      5       0.6208196       125.124
2010    21      6       0.531893        112.4318
2010    21      7       0.6081252       123.3487
2010    22      0       0.6377367       127.3478
2010    22      1       0.6429854       127.9625
2010    22      2       0.6940506       134.6287
2010    22      3       0.8152381       149.6384
2010    22      4       1.088158        177.0723
2010    22      5       1.030876        171.8786
2010    22      6       0.7308043       140.0693
2010    22      7       0.5768641       119.2452
2010    23      0       0.5485065       114.9227
2010    23      1       0.5080975       108.7016
2010    23      2       0.5570596       116.1245
2010    23      3       0.7098079       137.0769
2010    23      4       0.8576063       155.1801
2010    23      5       0.8060143       149.9265
2010    23      6       0.6667          132.5277
2010    23      7       0.6019323       123.4272
2010    24      0       0.5561797       116.6599
2010    24      1       0.5110657       109.8005
2010    24      2       0.5200559       111.3191
2010    24      3       0.5587107       117.3279
2010    24      4       0.6299959       127.6092
2010    24      5       0.6744828       133.5807
2010    24      6       0.6012024       123.7145
2010    24      7       0.6245053       126.7687
2010    25      0       0.5396761       114.5124
2010    25      1       0.4324874       97.51419
2010    25      2       0.3619366       85.37809
2010    25      3       0.3720539       87.16127
2010    25      4       0.4642627       102.9316
2010    25      5       0.3999994       92.2776
2010    25      6       0.2485307       63.79314
2010    25      7       0.1900002       51.48542
2010    26      0       0.1903108       51.47872
2010    26      1       0.1812976       49.39601
2010    26      2       0.1608216       44.82963
2010    26      3       0.1833697       49.73394
2010    26      4       0.5753825       118.4023
2010    26      5       0.61357         122.9717
2010    26      6       0.3002497       73.1097
2010    26      7       0.226754        59.07392
2010    27      0       0.3777769       88.06912
2010    27      1       0.3677392       86.255
2010    27      2       0.1578997       44.27293
2010    27      3       0.08184239      26.50603
2010    27      4       0.180012        49.07438
2010    27      5       0.161746        45.23422
2010    27      6       0.1214845       36.1201
2010    27      7       0.1288193       37.75754
2010    28      0       0.119915        35.73687
2010    28      1       0.09512478      29.93303
2010    28      2       0.1111973       33.75956
2010    28      3       0.1589174       44.66234
2010    28      4       0.3042941       74.33191
2010    28      5       0.4626949       101.7887
2010    28      6       0.3417673       81.25076
2010    28      7       0.2254998       58.75772
2010    29      0       0.2022131       53.79208
2010    29      1       0.1752153       48.00606
2010    29      2       0.1563844       43.98045
2010    29      3       0.1303444       37.99183
2010    29      4       0.1120296       33.6317
2010    29      5       0.1516761       42.77533
2010    29      6       0.1631455       45.40273
2010    29      7       0.1840364       49.78953
2010    30      0       0.2291086       59.14318
2010    30      1       0.3057581       74.26213
2010    30      2       0.5419885       114.2893
2010    30      3       0.6415067       128.5512
2010    30      4       0.652755        130.136
2010    30      5       0.759854        143.5608
2010    30      6       0.9150733       160.7963
2010    30      7       0.8326703       151.8471
2010    31      0       0.6778667       133.2647
2010    31      1       0.5496979       115.588
2010    31      2       0.3660514       85.77279
2010    31      3       0.2699991       67.444
2010    31      4       0.3849563       88.1162
2010    31      5       0.4772487       103.7134
2010    31      6       0.4059645       92.08066
2010    31      7       0.3342452       79.49515
2011    1       0       1.08257         176.2671
2011    1       1       0.9381892       162.8807
2011    1       2       0.7761454       145.2973
2011    1       3       0.8993818       158.9852
2011    1       4       1.082357        175.5124
2011    1       5       1.326367        195.3196
2011    1       6       1.397164        200.5066
2011    1       7       1.313298        194.0411
2011    2       0       1.268498        190.2941
2011    2       1       1.070859        174.2135
2011    2       2       0.8175835       148.9911
2011    2       3       0.6379041       126.7149
2011    2       4       0.6349065       126.8522
2011    2       5       0.5051822       108.3712
2011    2       6       0.3557928       83.58153
2011    2       7       0.354101        83.55546
2011    3       0       0.3172696       76.84036
2011    3       1       0.2695566       67.70639
2011    3       2       0.2694513       67.82487
2011    3       3       0.2813635       70.24172
2011    3       4       0.3983726       92.12732
2011    3       5       0.499605        108.9415
2011    3       6       0.3537246       84.30948
2011    3       7       0.326259        79.04283
2011    4       0       0.2929846       72.71289
2011    4       1       0.2068245       55.19425
2011    4       2       0.1666003       46.37521
2011    4       3       0.2072024       55.11367
2011    4       4       0.3918327       90.56853
2011    4       5       0.4107305       93.76756
2011    4       6       0.2963312       73.1808
2011    4       7       0.248368        63.52833
2011    5       0       0.2320166       60.24087
2011    5       1       0.1873472       50.87481
2011    5       2       0.1948343       52.43096
2011    5       3       0.2513042       64.08501
2011    5       4       0.5493875       115.647
2011    5       5       0.5789233       120.0328
2011    5       6       0.4030931       92.81179
2011    5       7       0.4270571       96.91061
2011    6       0       0.4153956       94.68041
2011    6       1       0.380491        88.50092
2011    6       2       0.3274067       78.86367
2011    6       3       0.3335218       79.92577
2011    6       4       0.3770804       87.88292
2011    6       5       0.3699086       86.60822
2011    6       6       0.2387461       61.43656
2011    6       7       0.2298915       59.52646
2011    7       0       0.2275297       59.0638
2011    7       1       0.2049244       54.24542
2011    7       2       0.1733992       47.21881
2011    7       3       0.1534975       42.66829
2011    7       4       0.1424939       40.18099
2011    7       5       0.1238388       35.92758
2011    7       6       0.1122598       33.26193
2011    7       7       0.1210099       35.44978
2011    8       0       0.1148294       34.09494
2011    8       1       0.1042784       31.52775
2011    8       2       0.1085024       32.46326
2011    8       3       0.1157822       34.23776
2011    8       4       0.1051461       31.79772
2011    8       5       0.09790713      30.1174
2011    8       6       0.09873416      30.36456
2011    8       7       0.1141611       34.02255
2011    9       0       0.1188563       35.05888
2011    9       1       0.104512        31.64148
2011    9       2       0.111544        33.25331
2011    9       3       0.1229098       35.88573
2011    9       4       0.1072162       32.18978
2011    9       5       0.1430706       40.48654
2011    9       6       0.2579317       64.98102
2011    9       7       0.3950712       90.69011
2011    10      0       0.476328        104.188
2011    10      1       0.5096559       109.3763
2011    10      2       0.5770145       119.3699
2011    10      3       0.6328706       127.2259
2011    10      4       0.5590632       116.7669
2011    10      5       0.4316391       96.5911
2011    10      6       0.4047933       92.0792
2011    10      7       0.4043668       92.20972
2011    11      0       0.4062782       92.51313
2011    11      1       0.4313181       96.622
2011    11      2       0.4934702       106.76
2011    11      3       0.5363156       113.5067
2011    11      4       0.7071959       137.346
2011    11      5       0.7628696       144.3636
2011    11      6       0.5013729       108.4697
2011    11      7       0.4240748       95.71099
2011    12      0       0.4293536       96.32113
2011    12      1       0.4612485       101.3131
2011    12      2       0.5255389       111.1206
2011    12      3       0.6091979       123.5121
2011    12      4       0.8924381       157.8099
2011    12      5       0.9395071       162.7651
2011    12      6       0.6603291       130.6952
2011    12      7       0.6287054       126.5159
2011    13      0       0.6792866       133.2231
2011    13      1       0.660249        130.7375
2011    13      2       0.6501594       129.194
2011    13      3       0.969409        165.7966
2011    13      4       1.293155        193.1753
2011    13      5       1.082014        176.4163
2011    13      6       1.012238        170.0418
2011    13      7       0.9400047       163.0308
2011    14      0       0.839442        152.404
2011    14      1       0.7529825       142.1681
2011    14      2       0.7568103       142.3785
2011    14      3       0.8790583       156.2467
2011    14      4       0.9984041       168.1384
2011    14      5       0.9714501       165.4347
2011    14      6       0.8673381       154.9096
2011    14      7       0.7744947       144.3229
2011    15      0       0.7438244       140.4556
2011    15      1       0.7420834       140.0322
2011    15      2       0.7397507       139.8089
2011    15      3       0.7422412       140.1906
2011    15      4       0.7762917       144.6261
2011    15      5       0.8715404       155.7126
2011    15      6       0.711364        137.5712
2011    15      7       0.6055023       123.4954
2011    16      0       0.5285608       112.2863
2011    16      1       0.4868579       105.8581
2011    16      2       0.5151085       110.2901
2011    16      3       0.5510165       115.7218
2011    16      4       0.7598954       143.3405
2011    16      5       0.7727462       145.1907
2011    16      6       0.6168105       125.542
2011    16      7       0.5273391       112.6025
2011    17      0       0.4964318       107.781
2011    17      1       0.4381755       98.19676
2011    17      2       0.3681588       86.12708
2011    17      3       0.3248346       78.2151
2011    17      4       0.4079648       93.07705
2011    17      5       0.4864456       105.5739
2011    17      6       0.4538588       100.2283
2011    17      7       0.5239852       111.3178
2011    18      0       0.4782647       104.3668
2011    18      1       0.4349266       97.28082
2011    18      2       0.4203176       94.79006
2011    18      3       0.4882908       106.0378
2011    18      4       0.8049499       148.9292
2011    18      5       1.040799        172.7221
2011    18      6       1.059211        174.3061
2011    18      7       0.926963        161.7214
2011    19      0       0.783727        146.0642
2011    19      1       0.6602838       130.8198
2011    19      2       0.6568355       130.3882
2011    19      3       0.6914864       134.7245
2011    19      4       0.8521479       153.8035
2011    19      5       0.8324092       151.9346
2011    19      6       0.6521094       129.8686
2011    19      7       0.5912648       121.3006
2011    20      0       0.5068925       108.7483
2011    20      1       0.4619523       101.5032
2011    20      2       0.4293478       96.2522
2011    20      3       0.3941684       90.42139
2011    20      4       0.4437778       98.87957
2011    20      5       0.3815717       88.20371
2011    20      6       0.2932284       72.06423
2011    20      7       0.2507642       63.80232
2011    21      0       0.2368793       61.03137
2011    21      1       0.2004368       53.52671
2011    21      2       0.2250297       58.57988
2011    21      3       0.2815428       69.72054
2011    21      4       0.3096258       75.08306
2011    21      5       0.3158055       76.52804
2011    21      6       0.3076695       75.31156
2011    21      7       0.297977        73.55585
2011    22      0       0.2743195       68.99136
2011    22      1       0.1959113       52.90991
2011    22      2       0.1678018       46.76379
2011    22      3       0.2370708       61.57584
2011    22      4       0.4408376       99.24641
2011    22      5       0.4313183       97.53386
2011    22      6       0.2752802       69.26434
2011    22      7       0.2319165       60.34541
2011    23      0       0.2085052       55.33156
2011    23      1       0.2079428       55.15254
2011    23      2       0.2310276       59.93497
2011    23      3       0.2159587       56.79856
2011    23      4       0.1531275       43.29122
2011    23      5       0.1020558       31.48092
2011    23      6       0.08199909      26.61528
2011    23      7       0.09820334      30.49477
2011    24      0       0.1180139       34.74537
2011    24      1       0.1103104       32.98549
2011    24      2       0.1184061       34.99229
2011    24      3       0.1572609       43.89344
2011    24      4       0.191151        51.36503
2011    24      5       0.1641844       45.41298
2011    24      6       0.1412197       40.30527
2011    24      7       0.1647445       45.44434
2011    25      0       0.18696         50.33654
2011    25      1       0.1849146       49.94588
2011    25      2       0.1762316       47.94869
2011    25      3       0.1909499       51.0454
2011    25      4       0.1962095       52.1416
2011    25      5       0.2191039       56.94963
2011    25      6       0.2270241       58.79282
2011    25      7       0.2911654       71.71642
2011    26      0       0.4102161       93.14536
2011    26      1       0.6080533       123.7055
2011    26      2       0.9575304       164.3437
2011    26      3       1.241051        189.1131
2011    26      4       1.259968        189.9755
2011    26      5       1.014212        169.8919
2011    26      6       0.8058442       148.1775
2011    26      7       0.6827883       132.8251
2011    27      0       0.7532465       141.5617
2011    27      1       0.8470389       152.7134
2011    27      2       1.105555        177.8377
2011    27      3       1.201245        185.3379
2011    27      4       1.221653        187.4108
2011    27      5       1.071769        175.8358
2011    27      6       1.086217        177.0906
2011    27      7       1.175186        184.4219
2011    28      0       1.021251        170.979
2011    28      1       0.9110318       159.9952
2011    28      2       1.014212        169.6913
2011    28      3       1.154979        182.3653
2011    28      4       1.198171        185.9226
2011    28      5       1.115708        179.2833
2011    28      6       0.9099346       159.4561
2011    28      7       0.7936176       146.3823
2011    29      0       0.9224929       160.4081
2011    29      1       1.007327        169.3121
2011    29      2       0.9171902       160.32
2011    29      3       0.9155131       160.1944
2011    29      4       0.8834473       156.4256
2011    29      5       0.8295594       150.5109
2011    29      6       0.6942035       134.422
2011    29      7       0.5420381       113.3831
2011    30      0       0.4668242       101.3408
2011    30      1       0.414239        92.46348
2011    30      2       0.4014395       90.45201
2011    30      3       0.4006997       90.60551
2011    30      4       0.4227354       94.72128
2011    30      5       0.4382835       97.1974
2011    30      6       0.4279781       95.03672
2011    30      7       0.3834501       87.39226
2011    31      0       0.3718688       85.33083
2011    31      1       0.415071        93.01128
2011    31      2       0.4717892       102.3141
2011    31      3       0.5587605       115.4289
2011    31      4       0.5824206       119.0865
2011    31      5       0.522278        111.0084
2011    31      6       0.4399672       98.13391
2011    31      7       0.3974275       90.27362
2012    1       0       0.1486865       42.14492
2012    1       1       0.142707        40.74024
2012    1       2       0.1430634       40.72614
2012    1       3       0.1668278       45.96075
2012    1       4       0.22381         58.37845
2012    1       5       0.2818974       70.26679
2012    1       6       0.2022929       54.04232
2012    1       7       0.1962567       52.78509
2012    2       0       0.1984818       53.22097
2012    2       1       0.1803179       49.27023
2012    2       2       0.1600392       44.71392
2012    2       3       0.1542626       43.33359
2012    2       4       0.1580911       44.18967
2012    2       5       0.1572155       44.0105
2012    2       6       0.1548561       43.38714
2012    2       7       0.1719971       47.11034
2012    3       0       0.1774684       48.28064
2012    3       1       0.1778937       48.38273
2012    3       2       0.1912187       51.2446
2012    3       3       0.2050974       54.17981
2012    3       4       0.2023167       53.54464
2012    3       5       0.18359         49.49035
2012    3       6       0.1562834       43.49114
2012    3       7       0.1525013       42.64816
2012    4       0       0.155989        43.45095
2012    4       1       0.1616405       44.78248
2012    4       2       0.1639719       45.34368
2012    4       3       0.1640195       45.3168
2012    4       4       0.1573969       43.8537
2012    4       5       0.1513069       42.57439
2012    4       6       0.1298134       37.64495
2012    4       7       0.1373741       39.29333
2012    5       0       0.1442864       40.82689
2012    5       1       0.1504196       42.24741
2012    5       2       0.1591473       44.31369
2012    5       3       0.1766794       48.24789
2012    5       4       0.2130343       56.11343
2012    5       5       0.2657147       66.8963
2012    5       6       0.1806032       49.18796
2012    5       7       0.161064        44.78228
2012    6       0       0.1772455       48.32256
2012    6       1       0.1857763       50.1718
2012    6       2       0.1811965       49.19359
2012    6       3       0.1947987       52.1731
2012    6       4       0.2539778       64.63
2012    6       5       0.2935264       72.53901
2012    6       6       0.2024412       54.02903
2012    6       7       0.1844787       50.10204
2012    7       0       0.1871092       50.59815
2012    7       1       0.1999121       53.16803
2012    7       2       0.2179089       56.92019
2012    7       3       0.2343671       60.41125
2012    7       4       0.3427895       81.53993
2012    7       5       0.4372214       98.02371
2012    7       6       0.2469017       63.12122
2012    7       7       0.2162568       56.78473
2012    8       0       0.2277585       59.18363
2012    8       1       0.2204156       57.72649
2012    8       2       0.2355945       60.92838
2012    8       3       0.2762565       68.92125
2012    8       4       0.4800831       104.5451
2012    8       5       0.5547165       115.5964
2012    8       6       0.4404551       98.0732
2012    8       7       0.3901134       89.3513
2012    9       0       0.3695276       85.49033
2012    9       1       0.3212646       76.58808
2012    9       2       0.2884046       70.30068
2012    9       3       0.271809        67.24306
2012    9       4       0.305596        73.7918
2012    9       5       0.4001633       90.90969
2012    9       6       0.3405514       80.48848
2012    9       7       0.3077199       74.34408
2012    10      0       0.2926244       71.4085
2012    10      1       0.2925137       71.07538
2012    10      2       0.3408324       79.65802
2012    10      3       0.4970443       106.1258
2012    10      4       0.7953716       145.5735
2012    10      5       0.9628147       162.5197
2012    10      6       0.649815        127.7333
2012    10      7       0.5460815       113.2677
2012    11      0       0.5265579       109.927
2012    11      1       0.523377        109.214
2012    11      2       0.7187849       136.2472
2012    11      3       1.15705         180.7749
2012    11      4       1.208016        185.0469
2012    11      5       1.122488        177.2713
2012    11      6       1.150413        179.7108
2012    11      7       1.062838        173.3262
2012    12      0       0.5714473       116.5731
2012    12      1       0.4705575       101.7163
2012    12      2       0.4624686       100.88
2012    12      3       0.5066458       108.2303
2012    12      4       0.6755702       131.9018
2012    12      5       0.6280595       125.4562
2012    12      6       0.6542424       128.7167
2012    12      7       0.68517         132.9136
2012    13      0       0.6164735       123.8845
2012    13      1       0.4771226       103.0921
2012    13      2       0.387828        88.14939
2012    13      3       0.6048794       122.5966
2012    13      4       0.9124228       158.9949
2012    13      5       1.120087        178.602
2012    13      6       1.296745        192.9551
2012    13      7       1.216118        186.3693
2012    14      0       1.076244        174.3287
2012    14      1       0.8840174       156.1028
2012    14      2       0.7141648       136.6832
2012    14      3       0.6382947       127.0106
2012    14      4       0.6795273       132.7665
2012    14      5       0.7055047       136.2126
2012    14      6       0.5885301       120.4182
2012    14      7       0.5921627       121.0907
2012    15      0       0.5642627       117.0236
2012    15      1       0.5007901       107.2708
2012    15      2       0.4790383       103.8786
2012    15      3       0.5212746       110.6823
2012    15      4       0.7431635       141.3045
2012    15      5       0.6450985       128.9211
2012    15      6       0.3838513       88.59298
2012    15      7       0.3767069       87.31036
2012    16      0       0.4088815       92.88742
2012    16      1       0.4296936       96.40587
2012    16      2       0.3930396       90.15844
2012    16      3       0.4000774       91.43296
2012    16      4       0.4345066       97.43406
2012    16      5       0.3576731       84.17257
2012    16      6       0.2813795       69.71596
2012    16      7       0.2710547       67.56944
2012    17      0       0.2457246       62.33832
2012    17      1       0.2381092       60.74023
2012    17      2       0.2750366       68.20045
2012    17      3       0.3482356       82.20061
2012    17      4       0.4228978       95.48753
2012    17      5       0.4257023       96.08438
2012    17      6       0.3053377       74.35866
2012    17      7       0.2763871       68.7482
2012    18      0       0.321174        77.27511
2012    18      1       0.3705712       86.17308
2012    18      2       0.389159        89.43421
2012    18      3       0.3865509       89.12383
2012    18      4       0.5074387       109.3114
2012    18      5       0.5904987       121.64
2012    18      6       0.3953354       90.85724
2012    18      7       0.2502998       63.60293
2012    19      0       0.2040227       53.94553
2012    19      1       0.1852916       49.87491
2012    19      2       0.1920276       51.32134
2012    19      3       0.1931076       51.52865
2012    19      4       0.3017119       73.52548
2012    19      5       0.4078207       92.86797
2012    19      6       0.3390162       80.71743
2012    19      7       0.2830337       69.9606
2012    20      0       0.2147769       56.15819
2012    20      1       0.1693437       46.33339
2012    20      2       0.2198413       57.04297
2012    20      3       0.4079149       92.53812
2012    20      4       0.6325666       126.99
2012    20      5       0.6631292       131.0262
2012    20      6       0.5386399       114.0482
2012    20      7       0.4403408       98.50482
2012    21      0       0.3545726       83.69912
2012    21      1       0.3146208       76.20582
2012    21      2       0.3015952       73.8837
2012    21      3       0.3449185       81.75637
2012    21      4       0.4065522       93.09316
2012    21      5       0.4478631       100.4833
2012    21      6       0.3067906       75.3329
2012    21      7       0.2596255       65.986
2012    22      0       0.2217048       58.17262
2012    22      1       0.2309706       59.98343
2012    22      2       0.2969389       72.82391
2012    22      3       0.3994266       91.21681
2012    22      4       0.5517431       115.6282
2012    22      5       0.6986316       135.8369
2012    22      6       0.7083324       137.124
2012    22      7       0.6590915       131.0805
2012    23      0       0.5989404       122.5125
2012    23      1       0.5466711       114.805
2012    23      2       0.5752781       118.691
2012    23      3       0.6023953       122.4755
2012    23      4       0.7175819       137.9032
2012    23      5       0.8989383       158.67
2012    23      6       0.8365383       152.1001
2012    23      7       0.6820241       133.5632
2012    24      0       0.4901983       105.6821
2012    24      1       0.4367272       97.08169
2012    24      2       0.4277767       95.91579
2012    24      3       0.5118478       109.4671
2012    24      4       0.568525        117.8909
2012    24      5       0.46103         101.4472
2012    24      6       0.2912184       71.44479
2012    24      7       0.2821574       69.46541
2012    25      0       0.2864228       70.21508
2012    25      1       0.2580674       64.61238
2012    25      2       0.2744944       68.05694
2012    25      3       0.302186        73.46871
2012    25      4       0.2951028       72.04857
2012    25      5       0.2946409       71.31505
2012    25      6       0.240377        60.62249
2012    25      7       0.2333241       59.69616
2012    26      0       0.229968        59.24836
2012    26      1       0.221993        57.53614
2012    26      2       0.2471727       62.64152
2012    26      3       0.2703206       67.47529
2012    26      4       0.2864673       70.75294
2012    26      5       0.3075599       74.84539
2012    26      6       0.2596782       65.2512
2012    26      7       0.2572963       64.54108
2012    27      0       0.262639        65.52808
2012    27      1       0.2650155       65.87469
2012    27      2       0.3050224       73.63013
2012    27      3       0.5207049       110.741
2012    27      4       0.940277        162.6844
2012    27      5       0.9925652       167.6858
2012    27      6       1.050463        174.364
2012    27      7       1.150153        182.5983
2012    28      0       1.145002        181.3431
2012    28      1       1.020321        170.304
2012    28      2       0.8248657       150.7613
2012    28      3       0.7074651       136.9542
2012    28      4       0.6605199       130.9776
2012    28      5       0.6139046       124.7766
2012    28      6       0.5271494       112.2762
2012    28      7       0.4782379       104.5521
2012    29      0       0.4599626       101.4777
2012    29      1       0.4262444       95.83218
2012    29      2       0.385598        88.96977
2012    29      3       0.3747605       87.11943
2012    29      4       0.3883247       89.53697
2012    29      5       0.3715228       86.59057
2012    29      6       0.3263216       78.60683
2012    29      7       0.3488394       82.89773
2012    30      0       0.3268589       78.85283
2012    30      1       0.259938        65.81244
2012    30      2       0.2397206       61.51577
2012    30      3       0.2648123       66.48207
2012    30      4       0.3303205       79.22968
2012    30      5       0.3743296       87.31508
2012    30      6       0.2963103       72.83463
2012    30      7       0.3666147       85.72111
2012    31      0       0.3367056       80.30581
2012    31      1       0.269432        67.30931
2012    31      2       0.3499685       82.44747
2012    31      3       0.4163185       94.09878
2012    31      4       0.3726629       86.45464
2012    31      5       0.3389494       80.58915
2012    31      6       0.2266562       58.63137
2012    31      7       0.2096309       54.7723
2013    1       0       0.3076468       75.04872
2013    1       1       0.2297292       59.72006
2013    1       2       0.2055063       54.58387
2013    1       3       0.2370744       61.11685
2013    1       4       0.4531904       100.6733
2013    1       5       0.6238136       125.9629
2013    1       6       0.598987        122.4485
2013    1       7       0.7384004       140.8501
2013    2       0       0.8268377       151.529
2013    2       1       0.6496482       129.7863
2013    2       2       0.5181019       110.8707
2013    2       3       0.4587309       101.4906
2013    2       4       0.6337224       127.7331
2013    2       5       0.8545424       154.1813
2013    2       6       0.6123134       124.3441
2013    2       7       0.4874571       105.7376
2013    3       0       0.4369282       97.44619
2013    3       1       0.3458336       81.52183
2013    3       2       0.3009285       73.29876
2013    3       3       0.2675706       67.1273
2013    3       4       0.2508898       63.91272
2013    3       5       0.2162332       56.72606
2013    3       6       0.2071271       54.64932
2013    3       7       0.2311958       59.53052
2013    4       0       0.2137243       55.71551
2013    4       1       0.2223201       57.31927
2013    4       2       0.2403077       60.81587
2013    4       3       0.2494396       62.72153
2013    4       4       0.2586034       64.59969
2013    4       5       0.3374902       79.93086
2013    4       6       0.3440285       81.29158
2013    4       7       0.387197        89.2284
2013    5       0       0.4015766       91.72194
2013    5       1       0.3629291       84.90857
2013    5       2       0.3750683       87.04624
2013    5       3       0.525855        112.3276
2013    5       4       0.660419        131.9266
2013    5       5       0.7187222       139.7027
2013    5       6       0.6104067       125.0032
2013    5       7       0.5339569       113.4657
2013    6       0       0.4744472       103.9152
2013    6       1       0.4789812       104.5993
2013    6       2       0.4867946       105.8418
2013    6       3       0.4927333       106.9122
2013    6       4       0.6203566       125.9613
2013    6       5       0.5759699       119.8716
2013    6       6       0.4719698       103.9643
2013    6       7       0.4687997       103.3212
2013    7       0       0.448557        99.90468
2013    7       1       0.4342383       97.47951
2013    7       2       0.496988        107.6819
2013    7       3       0.5982444       122.6987
2013    7       4       0.5934123       122.0806
2013    7       5       0.5368534       113.9126
2013    7       6       0.3730405       87.20487
2013    7       7       0.3312098       79.53584
2013    8       0       0.2758605       68.81201
2013    8       1       0.2454376       62.46911
2013    8       2       0.3606403       84.24504
2013    8       3       0.5255566       110.6122
2013    8       4       0.4687477       101.8308
2013    8       5       0.4078149       92.14429
2013    8       6       0.3433405       81.05625
2013    8       7       0.2752566       68.20832
2013    9       0       0.2538584       63.9709
2013    9       1       0.2656404       66.35594
2013    9       2       0.3198568       76.82556
2013    9       3       0.3873932       88.9616
2013    9       4       0.4719846       103.1723
2013    9       5       0.6275914       126.4506
2013    9       6       0.5691792       118.3167
2013    9       7       0.5775656       119.2074
2013    10      0       0.5552931       115.8591
2013    10      1       0.5223295       110.7852
2013    10      2       0.5752116       118.5535
2013    10      3       0.61026         123.4551
2013    10      4       0.5551212       115.5736
2013    10      5       0.479606        104.0925
2013    10      6       0.4355136       97.00216
2013    10      7       0.4176252       93.8419
2013    11      0       0.4480153       98.99505
2013    11      1       0.4430733       98.29301
2013    11      2       0.4544698       99.94624
2013    11      3       0.4588266       100.616
2013    11      4       0.4958982       106.3115
2013    11      5       0.5418459       113.4238
2013    11      6       0.5130607       109.3899
2013    11      7       0.4878513       105.5809
2013    12      0       0.3834512       88.15338
2013    12      1       0.2999988       72.90493
2013    12      2       0.29597         72.16028
2013    12      3       0.3014707       73.17211
2013    12      4       0.2932937       71.46163
2013    12      5       0.3358798       79.51096
2013    12      6       0.3120498       75.1005
2013    12      7       0.3222925       76.96079
2013    13      0       0.3050956       73.63912
2013    13      1       0.2808074       68.82042
2013    13      2       0.2990858       72.20405
2013    13      3       0.5080368       108.0819
2013    13      4       0.8730986       154.6075
2013    13      5       0.8463759       152.1187
2013    13      6       0.7003175       135.6028
2013    13      7       0.5717731       117.9273
2013    14      0       0.3820309       87.47483
2013    14      1       0.2809149       68.87486
2013    14      2       0.2888847       70.28978
2013    14      3       0.3014157       72.5823
2013    14      4       0.269016        66.48202
2013    14      5       0.2088345       54.48101
2013    14      6       0.2136951       55.54372
2013    14      7       0.3551378       83.03543
2013    15      0       0.372493        86.34019
2013    15      1       0.2539639       63.8456
2013    15      2       0.2478679       62.63875
2013    15      3       0.3313611       78.82514
2013    15      4       0.3550132       83.1112
2013    15      5       0.2731378       67.87531
2013    15      6       0.2172469       56.52356
2013    15      7       0.2125015       55.46574
2013    16      0       0.2169799       56.08123
2013    16      1       0.2027058       52.94244
2013    16      2       0.1877043       49.65028
2013    16      3       0.188589        49.68204
2013    16      4       0.1339887       38.06761
2013    16      5       0.1052438       31.77512
2013    16      6       0.1134717       33.66764
2013    16      7       0.119671        35.10336
2013    17      0       0.1235082       36.05011
2013    17      1       0.1235715       36.13428
2013    17      2       0.1343982       38.56783
2013    17      3       0.1498344       41.95331
2013    17      4       0.144131        40.68644
2013    17      5       0.1421407       40.34531
2013    17      6       0.1129659       33.62804
2013    17      7       0.09820646      30.18164
2013    18      0       0.1076099       32.37002
2013    18      1       0.1176736       34.65151
2013    18      2       0.1319374       37.9094
2013    18      3       0.1548985       43.06284
2013    18      4       0.255137        64.39637
2013    18      5       0.2927816       72.01876
2013    18      6       0.1699425       46.72832
2013    18      7       0.1210599       35.58244
2013    19      0       0.1114239       33.31891
2013    19      1       0.1022289       31.11789
2013    19      2       0.1191204       35.09298
2013    19      3       0.1306221       37.78799
2013    19      4       0.1380997       39.61318
2013    19      5       0.1327174       38.47458
2013    19      6       0.08140093      26.22746
2013    19      7       0.0869063       27.5664
2013    20      0       0.08720355      27.59087
2013    20      1       0.08087866      25.95181
2013    20      2       0.08460578      26.81809
2013    20      3       0.0900019       28.06979
2013    20      4       0.09439597      29.12607
2013    20      5       0.09914222      30.34507
2013    20      6       0.08494224      26.99388
2013    20      7       0.08687312      27.51605
2013    21      0       0.08900615      28.00703
2013    21      1       0.08399444      26.85848
2013    21      2       0.08461008      27.04851
2013    21      3       0.09328194      29.16138
2013    21      4       0.191188        51.47063
2013    21      5       0.2334035       60.34306
2013    21      6       0.1330572       38.73603
2013    21      7       0.1272306       37.37368
2013    22      0       0.150578        42.63552
2013    22      1       0.1402884       40.28638
2013    22      2       0.1537574       43.293
2013    22      3       0.2513818       63.98916
2013    22      4       0.3821915       88.33607
2013    22      5       0.3029475       73.94201
2013    22      6       0.1361476       39.42096
2013    22      7       0.08465008      27.25113
2013    23      0       0.08976214      28.46615
2013    23      1       0.1020126       31.38801
2013    23      2       0.1198264       35.46974
2013    23      3       0.1238187       36.35061
2013    23      4       0.1462518       41.45109
2013    23      5       0.1466655       41.60196
2013    23      6       0.1094622       33.08072
2013    23      7       0.1040829       31.78384
2013    24      0       0.09872003      30.43047
2013    24      1       0.1161281       34.44321
2013    24      2       0.134953        38.70139
2013    24      3       0.1425408       40.41341
2013    24      4       0.1469088       41.34999
2013    24      5       0.1543828       42.82235
2013    24      6       0.1695689       45.90238
2013    24      7       0.1983168       51.82092
2013    25      0       0.2181003       55.75569
2013    25      1       0.2291654       57.97078
2013    25      2       0.2106736       54.40656
2013    25      3       0.1991417       52.07575
2013    25      4       0.183182        48.80663
2013    25      5       0.1651574       45.08184
2013    25      6       0.1554529       43.06822
2013    25      7       0.153838        42.78867
2013    26      0       0.16321         44.83203
2013    26      1       0.1703615       46.34958
2013    26      2       0.1672714       45.6835
2013    26      3       0.1584978       43.75664
2013    26      4       0.1526654       42.59851
2013    26      5       0.1756504       47.92298
2013    26      6       0.130734        37.9387
2013    26      7       0.09798855      30.23863
2013    27      0       0.1072377       32.46996
2013    27      1       0.1428881       40.77747
2013    27      2       0.1983026       53.03341
2013    27      3       0.3696316       86.39169
2013    27      4       0.4486189       99.61298
2013    27      5       0.4465363       99.00107
2013    27      6       0.2669489       66.79887
2013    27      7       0.1625048       44.97038
2013    28      0       0.1480867       41.68445
2013    28      1       0.1335211       38.40477
2013    28      2       0.1394689       39.78823
2013    28      3       0.1474248       41.63408
2013    28      4       0.1455016       41.28244
2013    28      5       0.1359009       39.17334
2013    28      6       0.1153752       34.46507
2013    28      7       0.111538        33.55853
2013    29      0       0.1105548       33.34399
2013    29      1       0.1054223       32.12675
2013    29      2       0.1167761       34.70395
2013    29      3       0.1288136       37.43432
2013    29      4       0.1469374       41.50927
2013    29      5       0.1527583       42.83064
2013    29      6       0.1277608       37.08296
2013    29      7       0.1227757       35.82616
2013    30      0       0.1281525       37.01097
2013    30      1       0.1201665       35.12011
2013    30      2       0.1148313       33.88301
2013    30      3       0.1186116       34.71814
2013    30      4       0.1220035       35.52558
2013    30      5       0.1217659       35.60716
2013    30      6       0.1024134       31.15269
2013    30      7       0.1139433       33.94693
2013    31      0       0.1853294       49.93408
2013    31      1       0.2311618       59.52989
2013    31      2       0.2132927       55.90878
2013    31      3       0.2061417       54.50279
2013    31      4       0.2732924       68.40458
2013    31      5       0.3755287       87.6406
2013    31      6       0.2512025       64.11215
2013    31      7       0.2299162       59.54207
2014    1       0       0.147175        42.05633
2014    1       1       0.1604134       45.02721
2014    1       2       0.2416391       62.3291
2014    1       3       0.447588        100.0312
2014    1       4       0.6316018       127.5209
2014    1       5       0.603006        123.681
2014    1       6       0.3486044       83.05964
2014    1       7       0.3425792       81.60521
2014    2       0       0.4591449       101.6099
2014    2       1       0.5357685       113.4657
2014    2       2       0.4830512       105.3374
2014    2       3       0.6039127       123.3519
2014    2       4       0.7968427       147.7689
2014    2       5       0.594203        122.3594
2014    2       6       0.4041267       92.80981
2014    2       7       0.4029075       92.30988
2014    3       0       0.3983835       91.34378
2014    3       1       0.3298881       79.21361
2014    3       2       0.4055593       92.88625
2014    3       3       0.6348321       127.679
2014    3       4       0.9466975       164.0417
2014    3       5       0.8589182       155.5237
2014    3       6       0.6494175       130.3121
2014    3       7       0.5391275       114.5706
2014    4       0       0.4684287       103.4641
2014    4       1       0.4210192       95.48927
2014    4       2       0.386191        89.34545
2014    4       3       0.2904384       71.86211
2014    4       4       0.2185374       57.42218
2014    4       5       0.1383371       39.87265
2014    4       6       0.1029464       31.63452
2014    4       7       0.1080309       32.82625
2014    5       0       0.1240872       36.50368
2014    5       1       0.1365395       39.32846
2014    5       2       0.1352522       39.01963
2014    5       3       0.1436622       40.89399
2014    5       4       0.2704176       67.41729
2014    5       5       0.6783501       132.853
2014    5       6       0.5234499       111.1339
2014    5       7       0.5274646       111.927
2014    6       0       0.3758991       87.32135
2014    6       1       0.2945452       72.41046
2014    6       2       0.2246791       58.30067
2014    6       3       0.1407434       40.25797
2014    6       4       0.1279245       37.30154
2014    6       5       0.1365854       39.39299
2014    6       6       0.1789484       48.74717
2014    6       7       0.2146271       56.16492
2014    7       0       0.1902472       50.91354
2014    7       1       0.1977804       52.28551
2014    7       2       0.2624498       65.28336
2014    7       3       0.393653        89.789
2014    7       4       0.9824008       166.8773
2014    7       5       0.8791759       155.9293
2014    7       6       0.502337        108.1101
2014    7       7       0.2882013       71.00566
2014    8       0       0.2553744       64.49985
2014    8       1       0.238605        61.18822
2014    8       2       0.2315342       59.70649
2014    8       3       0.2378757       60.97206
2014    8       4       0.3283391       78.40259
2014    8       5       0.263997        66.204
2014    8       6       0.1713112       47.07607
2014    8       7       0.1464327       41.54407
2014    9       0       0.1381036       39.61707
2014    9       1       0.1432895       40.76296
2014    9       2       0.145579        41.26673
2014    9       3       0.1412963       40.40822
2014    9       4       0.1606087       44.66021
2014    9       5       0.1640274       45.45957
2014    9       6       0.1812331       49.2423
2014    9       7       0.1965353       52.47998
2014    10      0       0.2006697       53.30075
2014    10      1       0.2216456       57.68995
2014    10      2       0.2726324       68.0021
2014    10      3       0.3159593       76.26559
2014    10      4       0.4032942       91.97241
2014    10      5       0.3289458       78.57383
2014    10      6       0.180947        48.9294
2014    10      7       0.120796        35.47552
2014    11      0       0.1128412       33.49574
2014    11      1       0.07609413      24.65328
2014    11      2       0.09680936      29.72592
2014    11      3       0.122316        35.57314
2014    11      4       0.144426        40.61277
2014    11      5       0.1641875       45.18602
2014    11      6       0.1993797       52.98426
2014    11      7       0.2268753       58.79955
2014    12      0       0.2376016       60.9686
2014    12      1       0.2223097       57.67212
2014    12      2       0.2022602       53.27387
2014    12      3       0.2199964       56.86256
2014    12      4       0.2686499       66.61048
2014    12      5       0.2789322       68.74663
2014    12      6       0.2335721       59.88259
2014    12      7       0.2298614       59.38966
2014    13      0       0.2330355       60.19467
2014    13      1       0.2496472       63.53255
2014    13      2       0.2685628       67.18082
2014    13      3       0.2892563       71.07704
2014    13      4       0.4134598       93.66536
2014    13      5       0.535638        113.2043
2014    13      6       0.4197687       94.89643
2014    13      7       0.3620177       84.92894
2014    14      0       0.3174593       76.74388
2014    14      1       0.2708601       67.51928
2014    14      2       0.2576059       64.68831
2014    14      3       0.4341377       97.10101
2014    14      4       0.5999352       122.3786
2014    14      5       0.4842314       105.1591
2014    14      6       0.3438007       81.56334
2014    14      7       0.2870554       70.98572
2014    15      0       0.2170966       56.99599
2014    15      1       0.2279187       59.3212
2014    15      2       0.4212148       95.63942
2014    15      3       0.6747981       133.492
2014    15      4       0.7688138       144.7661
2014    15      5       0.7554575       143.1374
2014    15      6       0.5700815       118.7161
2014    15      7       0.4460412       99.49923
2014    16      0       0.412581        93.83081
2014    16      1       0.3913379       90.14076
2014    16      2       0.4593371       101.2474
2014    16      3       0.7022902       135.808
2014    16      4       0.8508616       152.7574
2014    16      5       0.6809148       133.0767
2014    16      6       0.4281333       96.43844
2014    16      7       0.3349734       80.11486
2014    17      0       0.2610424       65.84981
2014    17      1       0.1704777       46.79981
2014    17      2       0.1445059       41.03437
2014    17      3       0.1963958       52.40331
2014    17      4       0.5638527       117.0595
2014    17      5       0.4489851       99.54075
2014    17      6       0.4061716       92.45225
2014    17      7       0.3876395       89.26817
2014    18      0       0.3335425       79.22765
2014    18      1       0.2842905       69.42755
2014    18      2       0.2683638       66.12157
2014    18      3       0.3307422       78.07906
2014    18      4       0.6113677       123.4371
2014    18      5       0.5836043       119.5645
2014    18      6       0.3628269       84.16503
2014    18      7       0.2776832       68.10824
2014    19      0       0.2520439       62.87461
2014    19      1       0.2457666       61.5555
2014    19      2       0.2375315       60.04583
2014    19      3       0.233266        59.41526
2014    19      4       0.2119843       55.37024
2014    19      5       0.1894235       50.89967
2014    19      6       0.2255878       58.47817
2014    19      7       0.2589679       65.25361
2014    20      0       0.2513453       63.65236
2014    20      1       0.2414551       61.63265
2014    20      2       0.2829835       69.637
2014    20      3       0.30424         73.58105
2014    20      4       0.2929577       71.42232
2014    20      5       0.2658089       66.05651
2014    20      6       0.2849889       70.2596
2014    20      7       0.3443611       81.89971
2014    21      0       0.3552525       83.88831
2014    21      1       0.3231837       77.88672
2014    21      2       0.4080235       93.0965
2014    21      3       0.3977145       91.31837
2014    21      4       0.3001057       73.61524
2014    21      5       0.2389091       61.57691
2014    21      6       0.1939497       52.21757
2014    21      7       0.1574984       44.25156
2014    22      0       0.1764243       48.42362
2014    22      1       0.1734557       47.66519
2014    22      2       0.2091355       55.17667
2014    22      3       0.269816        67.55143
2014    22      4       0.4521293       100.4097
2014    22      5       0.6724273       132.5249
2014    22      6       0.4114509       93.36826
2014    22      7       0.3156753       75.67145
2014    23      0       0.3387915       80.24933
2014    23      1       0.3078934       74.79231
2014    23      2       0.2550467       64.68423
2014    23      3       0.2263683       59.04214
2014    23      4       0.312725        76.36613
2014    23      5       0.4116486       94.15158
2014    23      6       0.2613413       65.99112
2014    23      7       0.2525963       64.07313
2014    24      0       0.2347174       60.47071
2014    24      1       0.2084002       55.02295
2014    24      2       0.2277883       59.08314
2014    24      3       0.2437069       62.3011
2014    24      4       0.2507891       63.91133
2014    24      5       0.2350942       60.91606
2014    24      6       0.1917243       51.87212
2014    24      7       0.2011091       53.76292
2014    25      0       0.2128261       56.23629
2014    25      1       0.2078725       55.24777
2014    25      2       0.1865213       50.6428
2014    25      3       0.1785372       48.81203
2014    25      4       0.2040099       54.36169
2014    25      5       0.2225491       58.33314
2014    25      6       0.1405213       40.43435
2014    25      7       0.1235544       36.44488
2014    26      0       0.1289393       37.65765
2014    26      1       0.1277403       37.38338
2014    26      2       0.1276175       37.37376
2014    26      3       0.1575125       44.3249
2014    26      4       0.2316314       60.3142
2014    26      5       0.1866899       50.71491
2014    26      6       0.1110421       33.61537
2014    26      7       0.1038596       31.895
2014    27      0       0.1068736       32.5836
2014    27      1       0.1046301       32.11409
2014    27      2       0.1028816       31.70009
2014    27      3       0.1101841       33.36308
2014    27      4       0.1217811       36.11442
2014    27      5       0.1234541       36.48072
2014    27      6       0.1072638       32.55713
2014    27      7       0.1061591       32.24341
2014    28      0       0.108388        32.86227
2014    28      1       0.1069106       32.4972
2014    28      2       0.114146        34.19259
2014    28      3       0.1268246       37.16203
2014    28      4       0.1824374       49.79099
2014    28      5       0.2437752       62.82554
2014    28      6       0.1614427       45.23984
2014    28      7       0.1842122       50.15246
2014    29      0       0.1919166       51.91605
2014    29      1       0.1837312       50.20818
2014    29      2       0.2102567       55.93834
2014    29      3       0.2308085       60.25929
2014    29      4       0.2526706       64.86173
2014    29      5       0.2679048       67.94484
2014    29      6       0.1903275       51.76348
2014    29      7       0.1790894       49.2109
2014    30      0       0.1791809       49.11609
2014    30      1       0.1741048       48.06131
2014    30      2       0.1757906       48.37351
2014    30      3       0.1823012       49.73596
2014    30      4       0.222986        58.47033
2014    30      5       0.236714        61.40508
2014    30      6       0.1313243       38.48855
2014    30      7       0.1005041       31.16574
2014    31      0       0.1040701       31.93845
2014    31      1       0.09759662      30.30669
2014    31      2       0.107462        32.60782
2014    31      3       0.1310354       38.13209
2014    31      4       0.2591359       65.79651
2014    31      5       0.534762        113.6577
2014    31      6       0.5202137       111.1923
2014    31      7       0.5163705       110.6312
2015    1       0       0.2910734       71.39759
2015    1       1       0.3932017       89.58677
2015    1       2       0.4749074       102.9474
2015    1       3       0.4522526       99.69923
2015    1       4       0.445915        99.11011
2015    1       5       0.4617283       102.1701
2015    1       6       0.3426652       81.78157
2015    1       7       0.3152972       76.21256
2015    2       0       0.277037        68.87032
2015    2       1       0.2098318       55.1452
2015    2       2       0.1835454       49.51208
2015    2       3       0.2571769       65.02096
2015    2       4       0.4126679       94.0574
2015    2       5       0.3660312       85.94324
2015    2       6       0.2353704       60.7836
2015    2       7       0.1692459       46.49182
2015    3       0       0.1731146       47.19437
2015    3       1       0.1775221       48.18324
2015    3       2       0.1589484       44.13642
2015    3       3       0.1514616       42.52721
2015    3       4       0.1797508       48.98206
2015    3       5       0.1870212       50.65863
2015    3       6       0.1774227       48.42959
2015    3       7       0.2105523       55.55523
2015    4       0       0.2161648       56.75276
2015    4       1       0.2159806       56.66455
2015    4       2       0.2076604       54.80273
2015    4       3       0.1908846       51.31543
2015    4       4       0.2750354       68.79847
2015    4       5       0.3497139       83.05104
2015    4       6       0.2867138       71.18707
2015    4       7       0.2613361       66.07584
2015    5       0       0.1860001       50.26059
2015    5       1       0.1786573       48.73121
2015    5       2       0.2421665       62.21546
2015    5       3       0.2597248       65.7554
2015    5       4       0.2740649       68.5961
2015    5       5       0.2620544       66.2209
2015    5       6       0.2761302       69.01435
2015    5       7       0.302423        74.02197
2015    6       0       0.3113045       75.59945
2015    6       1       0.3749639       87.21053
2015    6       2       0.4579208       101.2879
2015    6       3       0.5688508       118.4206
2015    6       4       0.7018926       136.6453
2015    6       5       0.7313631       140.3359
2015    6       6       0.7080499       137.3778
2015    6       7       0.6771245       133.3293
2015    7       0       0.6893226       134.7643
2015    7       1       0.7489183       141.7975
2015    7       2       0.9072556       159.2926
2015    7       3       1.294627        192.6185
2015    7       4       1.266424        190.7753
2015    7       5       1.08953         176.5102
2015    7       6       0.9612666       164.8396
2015    7       7       0.9861422       167.5821
2015    8       0       0.8067183       149.052
2015    8       1       0.6544407       130.4982
2015    8       2       0.6542795       130.6659
2015    8       3       0.8368998       152.8774
2015    8       4       1.077824        176.4936
2015    8       5       1.01716         171.0125
2015    8       6       0.9081607       160.875
2015    8       7       0.8314881       152.6767
2015    9       0       0.7023365       136.9621
2015    9       1       0.5863957       121.1971
2015    9       2       0.4908791       106.8244
2015    9       3       0.5002536       108.3106
2015    9       4       0.6551028       130.8624
2015    9       5       0.5832337       120.7562
2015    9       6       0.4553923       100.8555
2015    9       7       0.4233622       95.50115
2015    10      0       0.4105588       93.2048
2015    10      1       0.3854884       88.95685
2015    10      2       0.384558        88.82047
2015    10      3       0.3904403       89.79195
2015    10      4       0.6327977       127.4692
2015    10      5       0.5029392       108.4817
2015    10      6       0.3808391       88.00625
2015    10      7       0.418822        94.41804
2015    11      0       0.4270756       95.80326
2015    11      1       0.3792627       87.56898
2015    11      2       0.410495        93.16364
2015    11      3       0.4577407       101.1559
2015    11      4       0.4604115       101.7114
2015    11      5       0.4566134       101.0802
2015    11      6       0.4715929       103.295
2015    11      7       0.5995684       122.2908
2015    12      0       0.6854086       133.5788
2015    12      1       0.754557        141.9093
2015    12      2       0.8117773       148.6189
2015    12      3       1.011057        168.8971
2015    12      4       1.192514        183.8994
2015    12      5       1.089315        175.1606
2015    12      6       0.8707578       154.7427
2015    12      7       0.4641874       101.6585
2015    13      0       0.3194316       76.40105
2015    13      1       0.320712        76.77648
2015    13      2       0.3239521       77.38552
2015    13      3       0.2729622       67.89835
2015    13      4       0.3094456       74.90678
2015    13      5       0.3315706       79.06665
2015    13      6       0.2867561       70.61791
2015    13      7       0.2768575       68.67463
2015    14      0       0.2840619       70.13265
2015    14      1       0.2780633       69.08547
2015    14      2       0.2621967       66.01113
2015    14      3       0.2530278       64.14655
2015    14      4       0.4998485       107.976
2015    14      5       0.4594326       101.5073
2015    14      6       0.3977225       91.092
2015    14      7       0.4022965       91.78801
2015    15      0       0.3597203       84.27439
2015    15      1       0.3216302       77.33898
2015    15      2       0.3565634       83.91129
2015    15      3       0.3954946       90.63067
2015    15      4       0.4422439       98.64162
2015    15      5       0.4718295       103.6192
2015    15      6       0.3707182       86.50648
2015    15      7       0.3611944       84.84169
2015    16      0       0.3806216       88.21211
2015    16      1       0.3854454       88.92782
2015    16      2       0.4730069       103.6603
2015    16      3       0.7754919       145.6045
2015    16      4       1.025444        171.8395
2015    16      5       1.030341        172.4024
2015    16      6       0.7951559       148.251
2015    16      7       0.6501777       130.1675
2015    17      0       0.4968654       107.5871
2015    17      1       0.3746947       86.99552
2015    17      2       0.3599607       84.2524
2015    17      3       0.39431         90.34255
2015    17      4       0.5408708       114.2333
2015    17      5       0.7019338       136.5798
2015    17      6       0.5454936       114.8828
2015    17      7       0.4684843       102.6815
2015    18      0       0.4178315       94.19152
2015    18      1       0.3490865       82.01146
2015    18      2       0.3747866       86.79325
2015    18      3       0.4081275       92.44844
2015    18      4       0.3826513       88.05211
2015    18      5       0.338994        80.21997
2015    18      6       0.3117293       75.06715
2015    18      7       0.314161        75.56033
2015    19      0       0.3046679       73.85222
2015    19      1       0.2687488       66.98765
2015    19      2       0.2775119       68.78904
2015    19      3       0.3273829       78.3052
2015    19      4       0.3596714       84.31663
2015    19      5       0.3815317       88.34658
2015    19      6       0.3141387       76.12837
2015    19      7       0.3220591       77.72622
2015    20      0       0.2869155       71.03806
2015    20      1       0.2601124       65.70996
2015    20      2       0.2816866       70.03442
2015    20      3       0.3084582       75.23617
2015    20      4       0.3290504       79.15576
2015    20      5       0.3272869       78.9476
2015    20      6       0.2286151       59.60051
2015    20      7       0.2032933       54.17414
2015    21      0       0.2154903       56.77762
2015    21      1       0.2034493       54.22346
2015    21      2       0.2009854       53.58694
2015    21      3       0.2661667       66.97484
2015    21      4       0.4471106       99.8931
2015    21      5       0.4125921       94.40803
2015    21      6       0.2458307       63.28656
2015    21      7       0.2122775       56.16879
2015    22      0       0.2254545       58.82753
2015    22      1       0.1883411       50.90248
2015    22      2       0.2118428       55.87382
2015    22      3       0.3954029       90.77068
2015    22      4       0.6917152       134.7483
2015    22      5       0.6891763       134.9359
2015    22      6       0.3813423       88.72717
2015    22      7       0.2723311       68.50808
2015    23      0       0.3797777       88.58323
2015    23      1       0.5378252       114.3887
2015    23      2       0.6750169       133.7251
2015    23      3       0.7222031       139.9042
2015    23      4       0.784812        147.5802
2015    23      5       0.7718193       145.9456
2015    23      6       0.5991269       123.5458
2015    23      7       0.4994909       108.7144
2015    24      0       0.4458088       100.1013
2015    24      1       0.4248304       96.53076
2015    24      2       0.5033286       109.1786
2015    24      3       0.5157218       111.2081
2015    24      4       0.5183231       111.7515
2015    24      5       0.5098051       110.3914
2015    24      6       0.4100565       94.01704
2015    24      7       0.4476264       100.1789
2015    25      0       0.4217188       95.63587
2015    25      1       0.392133        90.31811
2015    25      2       0.4280822       96.37224
2015    25      3       0.4518783       100.3034
2015    25      4       0.4490307       100.0368
2015    25      5       0.4230453       95.83546
2015    25      6       0.3719432       86.86275
2015    25      7       0.4710919       103.6935
2015    26      0       0.4423709       98.93233
2015    26      1       0.3600238       84.61091
2015    26      2       0.3399354       80.98648
2015    26      3       0.3522093       83.27942
2015    26      4       0.3633302       85.37968
2015    26      5       0.3466205       82.44797
2015    26      6       0.2835324       70.5707
2015    26      7       0.3396804       80.9979
2015    27      0       0.3728348       86.94444
2015    27      1       0.3355135       80.22307
2015    27      2       0.3672776       85.99343
2015    27      3       0.3981025       91.51023
2015    27      4       0.5181028       111.1438
2015    27      5       0.4982418       108.2207
2015    27      6       0.3391091       81.2061
2015    27      7       0.3346487       80.21452
2015    28      0       0.3430579       81.69269
2015    28      1       0.3219671       77.75828
2015    28      2       0.5061793       109.337
2015    28      3       0.7155295       138.9859
2015    28      4       0.8560324       155.4137
2015    28      5       0.8887319       158.9275
2015    28      6       0.8141455       150.8382
2015    28      7       0.8024368       149.4156
2015    29      0       0.7473897       142.7136
2015    29      1       0.6449185       129.39
2015    29      2       0.5573584       116.9085
2015    29      3       0.5916688       121.8978
2015    29      4       0.8378968       153.059
2015    29      5       0.830132        152.1822
2015    29      6       0.5829139       120.5916
2015    29      7       0.4605323       101.6241
2015    30      0       0.4346538       97.32212
2015    30      1       0.3948176       90.46993
2015    30      2       0.415866        94.09291
2015    30      3       0.4274208       96.22954
2015    30      4       0.5058449       109.1432
2015    30      5       0.5736283       119.4643
2015    30      6       0.5106727       109.8941
2015    30      7       0.5499606       115.4263
2015    31      0       0.6297715       126.4084
2015    31      1       0.6486417       128.9253
2015    31      2       0.647342        128.393
2015    31      3       0.6870728       133.4573
2015    31      4       0.7165603       136.8421
2015    31      5       0.5462463       113.0789
2015    31      6       0.4337526       94.88729
2015    31      7       0.4890578       104.7073
2016    1       0       0.09928518      30.65918
2016    1       1       0.108           32.70286
2016    1       2       0.1446441       41.15798
2016    1       3       0.2544621       64.59761
2016    1       4       0.3873161       89.67864
2016    1       5       0.3175014       77.03691
2016    1       6       0.235302        60.90047
2016    1       7       0.26696         67.11878
2016    2       0       0.2900828       71.50012
2016    2       1       0.289104        71.28174
2016    2       2       0.387833        89.45927
2016    2       3       0.5380418       113.9512
2016    2       4       0.797453        148.4146
2016    2       5       0.731634        140.9678
2016    2       6       0.4735154       104.4589
2016    2       7       0.5019602       108.7241
2016    3       0       0.5281491       112.4853
2016    3       1       0.4824635       105.3619
2016    3       2       0.552305        115.9033
2016    3       3       0.888945        157.7535
2016    3       4       1.120147        179.4546
2016    3       5       0.8844634       157.536
2016    3       6       0.5665079       118.128
2016    3       7       0.5528549       115.9475
2016    4       0       0.5774184       119.4677
2016    4       1       0.509671        109.4901
2016    4       2       0.4689411       103.0904
2016    4       3       0.5952133       121.8862
2016    4       4       0.8139117       149.4984
2016    4       5       0.6979493       135.8997
2016    4       6       0.4095116       93.47594
2016    4       7       0.3234074       78.13149
2016    5       0       0.3413044       81.51
2016    5       1       0.3281271       79.14335
2016    5       2       0.4231617       96.09975
2016    5       3       0.5853013       121.5036
2016    5       4       0.6114822       125.2884
2016    5       5       0.5637805       118.5265
2016    5       6       0.326488        79.25063
2016    5       7       0.2375663       61.7444
2016    6       0       0.192465        52.26888
2016    6       1       0.134278        39.31049
2016    6       2       0.1438126       41.45143
2016    6       3       0.1462316       42.00861
2016    6       4       0.2765752       69.51975
2016    6       5       0.1964703       52.94975
2016    6       6       0.1182672       35.4129
2016    6       7       0.1326781       38.82794
2016    7       0       0.1305405       38.40159
2016    7       1       0.1151092       34.75577
2016    7       2       0.1201904       35.88866
2016    7       3       0.1222567       36.34147
2016    7       4       0.1836372       50.26085
2016    7       5       0.1910613       52.00444
2016    7       6       0.1509429       43.10966
2016    7       7       0.1512423       42.98172
2016    8       0       0.1479308       42.28917
2016    8       1       0.133504        39.04398
2016    8       2       0.1452268       41.67725
2016    8       3       0.1708375       47.348
2016    8       4       0.2616414       66.58571
2016    8       5       0.2324839       60.66955
2016    8       6       0.1609453       45.25634
2016    8       7       0.1425619       41.04097
2016    9       0       0.1633154       45.73743
2016    9       1       0.1581702       44.58039
2016    9       2       0.1474706       42.12897
2016    9       3       0.1339273       38.96778
2016    9       4       0.1438987       41.31159
2016    9       5       0.1412396       40.77924
2016    9       6       0.1013573       31.44872
2016    9       7       0.09173652      29.19959
2016    10      0       0.1060499       32.63407
2016    10      1       0.1159643       34.95198
2016    10      2       0.1155691       34.83636
2016    10      3       0.1141072       34.45225
2016    10      4       0.1051537       32.28801
2016    10      5       0.09058804      28.77053
2016    10      6       0.08293384      26.91021
2016    10      7       0.08930181      28.44601
2016    11      0       0.08975879      28.62534
2016    11      1       0.08092871      26.40823
2016    11      2       0.0827676       26.88415
2016    11      3       0.08710578      27.93378
2016    11      4       0.08929683      28.40147
2016    11      5       0.08458817      27.29387
2016    11      6       0.0833194       26.98745
2016    11      7       0.08651629      27.71747
2016    12      0       0.07881075      25.76214
2016    12      1       0.07625314      25.08896
2016    12      2       0.09022426      28.43755
2016    12      3       0.1082137       32.71718
2016    12      4       0.1275141       37.24247
2016    12      5       0.1403326       40.21212
2016    12      6       0.1362359       39.26523
2016    12      7       0.1249676       36.61786
2016    13      0       0.1231911       36.22874
2016    13      1       0.1363619       39.26064
2016    13      2       0.1412877       40.40998
2016    13      3       0.1557376       43.71816
2016    13      4       0.1531212       43.14324
2016    13      5       0.1483501       42.06577
2016    13      6       0.1709132       47.04893
2016    13      7       0.2474805       63.11582
2016    14      0       0.2330895       60.07287
2016    14      1       0.2134845       55.96154
2016    14      2       0.1989067       52.88359
2016    14      3       0.1915245       51.27341
2016    14      4       0.1885138       50.58483
2016    14      5       0.1811901       48.98304
2016    14      6       0.164838        45.40586
2016    14      7       0.1806581       48.82524
2016    15      0       0.174906        47.64152
2016    15      1       0.1521712       42.58057
2016    15      2       0.118118        34.7034
2016    15      3       0.1049359       31.58667
2016    15      4       0.105453        31.57073
2016    15      5       0.1067431       31.90979
2016    15      6       0.1132796       33.33364
2016    15      7       0.1357713       38.40828
2016    16      0       0.150172        41.57488
2016    16      1       0.1518635       41.91451
2016    16      2       0.1740465       46.75289
2016    16      3       0.1925644       50.77662
2016    16      4       0.1912305       50.68938
2016    16      5       0.166498        45.36524
2016    16      6       0.1521063       42.03935
2016    16      7       0.1656335       45.00124
2016    17      0       0.1821801       48.49541
2016    17      1       0.194693        50.97793
2016    17      2       0.2214729       56.47317
2016    17      3       0.2377343       60.00581
2016    17      4       0.2473147       62.21062
2016    17      5       0.2076268       54.30143
2016    17      6       0.122475        35.66309
2016    17      7       0.1362772       38.83492
2016    18      0       0.1552815       43.09438
2016    18      1       0.1521447       42.648
2016    18      2       0.1495326       42.07051
2016    18      3       0.1400967       39.90434
2016    18      4       0.1404083       39.9935
2016    18      5       0.1443976       40.85893
2016    18      6       0.1305954       37.70195
2016    18      7       0.1333825       38.24466
2016    19      0       0.1268615       36.81073
2016    19      1       0.1175247       34.67362
2016    19      2       0.1227683       35.84562
2016    19      3       0.1328823       38.10385
2016    19      4       0.1331539       38.08354
2016    19      5       0.130093        37.38296
2016    19      6       0.1168451       34.37736
2016    19      7       0.1236975       35.94373
2016    20      0       0.1409509       39.97472
2016    20      1       0.1622824       44.8445
2016    20      2       0.2085363       54.84984
2016    20      3       0.2576691       64.86722
2016    20      4       0.2486819       63.04877
2016    20      5       0.2079251       54.568
2016    20      6       0.1362059       39.03165
2016    20      7       0.1079391       32.45076
2016    21      0       0.1196502       35.09532
2016    21      1       0.1219582       35.77971
2016    21      2       0.1483673       41.7407
2016    21      3       0.1692756       46.32132
2016    21      4       0.1538982       42.96628
2016    21      5       0.1173801       34.69641
2016    21      6       0.08439879      26.82118
2016    21      7       0.07341846      24.27267
2016    22      0       0.0716366       23.91462
2016    22      1       0.06957341      23.38531
2016    22      2       0.07007829      23.54235
2016    22      3       0.07433403      24.64967
2016    22      4       0.08325364      26.85084
2016    22      5       0.08263646      26.73671
2016    22      6       0.05908695      20.89289
2016    22      7       0.05204887      19.0893
2016    23      0       0.0569335       20.3338
2016    23      1       0.05882067      20.80308
2016    23      2       0.06639137      22.67737
2016    23      3       0.07596532      24.99628
2016    23      4       0.08435425      27.09754
2016    23      5       0.08564969      27.43844
2016    23      6       0.06860328      23.2207
2016    23      7       0.06957822      23.36704
2016    24      0       0.07864812      25.52594
2016    24      1       0.07950948      25.76563
2016    24      2       0.08778425      27.76323
2016    24      3       0.123717        36.15282
2016    24      4       0.1603731       44.44174
2016    24      5       0.1325455       38.27963
2016    24      6       0.1372159       39.24273
2016    24      7       0.1490683       41.86647
2016    25      0       0.1410295       40.13168
2016    25      1       0.1468013       41.17604
2016    25      2       0.151295        41.93908
2016    25      3       0.1622856       44.26933
2016    25      4       0.2018959       52.84407
2016    25      5       0.2270777       57.84151
2016    25      6       0.209006        53.61752
2016    25      7       0.2128777       54.32277
2016    26      0       0.2396335       59.61883
2016    26      1       0.2630776       64.5624
2016    26      2       0.3367078       78.38368
2016    26      3       0.391733        87.61635
2016    26      4       0.4255385       93.84899
2016    26      5       0.4688503       101.8168
2016    26      6       0.5423055       112.92
2016    26      7       0.6300245       124.5993
2016    27      0       0.6509598       127.3773
2016    27      1       0.5578381       114.7853
2016    27      2       0.5619007       115.2704
2016    27      3       0.5827181       118.4034
2016    27      4       0.5841713       118.7757
2016    27      5       0.5808256       118.5135
2016    27      6       0.4759319       102.6044
2016    27      7       0.4209707       93.42918
2016    28      0       0.4160043       92.46762
2016    28      1       0.4142417       92.0819
2016    28      2       0.4736136       101.6316
2016    28      3       0.5811954       117.9272
2016    28      4       0.8237802       149.2324
2016    28      5       0.8597855       153.3312
2016    28      6       0.6302437       125.4986
2016    28      7       0.5280019       110.5954
2016    29      0       0.5012774       106.3688
2016    29      1       0.4499271       97.88881
2016    29      2       0.3790407       85.81337
2016    29      3       0.3159491       74.56662
2016    29      4       0.2910171       70.26479
2016    29      5       0.2920459       70.68188
2016    29      6       0.2436904       61.36439
2016    29      7       0.1968427       51.80272
2016    30      0       0.1815237       48.72592
2016    30      1       0.1685834       45.94635
2016    30      2       0.1795763       48.28898
2016    30      3       0.186955        49.87214
2016    30      4       0.2918388       71.2659
2016    30      5       0.4930391       106.2941
2016    30      6       0.5279205       111.7019
2016    30      7       0.3385082       80.12226
2016    31      0       0.2160752       55.92976
2016    31      1       0.2012025       52.83537
2016    31      2       0.2257365       57.84635
2016    31      3       0.2443616       61.60612
2016    31      4       0.3709197       85.61026
2016    31      5       0.3862168       88.63647
2016    31      6       0.2715075       67.42474
2016    31      7       0.2394466       60.83094
2017    1       0       0.1348295       38.61415
2017    1       1       0.1312081       37.80314
2017    1       2       0.1362681       38.97821
2017    1       3       0.1381183       39.4309
2017    1       4       0.1352914       38.78039
2017    1       5       0.1310928       37.82881
2017    1       6       0.1088403       32.67109
2017    1       7       0.1119864       33.42399
2017    2       0       0.1173853       34.70249
2017    2       1       0.1245231       36.36345
2017    2       2       0.1193691       35.17789
2017    2       3       0.1080004       32.54596
2017    2       4       0.1086457       32.72957
2017    2       5       0.1257804       36.8048
2017    2       6       0.1051071       32.02955
2017    2       7       0.09740072      30.10169
2017    3       0       0.104936        31.89571
2017    3       1       0.1164555       34.63327
2017    3       2       0.1201376       35.54976
2017    3       3       0.1359761       39.15547
2017    3       4       0.1481718       42.02155
2017    3       5       0.1434513       40.99544
2017    3       6       0.1011177       31.17343
2017    3       7       0.08732174      27.86286
2017    4       0       0.0889319       28.25976
2017    4       1       0.08821184      28.06113
2017    4       2       0.08746792      27.88684
2017    4       3       0.08723058      27.92538
2017    4       4       0.08359028      27.0598
2017    4       5       0.07604652      25.19159
2017    4       6       0.06767043      23.09276
2017    4       7       0.06244742      21.72925
2017    5       0       0.06498071      22.34893
2017    5       1       0.0748008       24.75975
2017    5       2       0.08869034      28.19912
2017    5       3       0.1035832       31.82655
2017    5       4       0.1222558       36.25841
2017    5       5       0.1356222       39.39094
2017    5       6       0.1125251       34.0218
2017    5       7       0.1183367       35.31288
2017    6       0       0.1257939       37.06836
2017    6       1       0.1307707       38.15991
2017    6       2       0.1146263       34.38594
2017    6       3       0.1099309       33.27395
2017    6       4       0.1340915       38.84754
2017    6       5       0.1363797       39.44614
2017    6       6       0.1139676       34.25925
2017    6       7       0.1233835       36.43356
2017    7       0       0.1340677       38.9453
2017    7       1       0.1424625       40.82731
2017    7       2       0.1318232       38.40193
2017    7       3       0.125033        36.85416
2017    7       4       0.1305486       38.14882
2017    7       5       0.133186        38.8231
2017    7       6       0.1198313       35.49786
2017    7       7       0.1442198       41.06789
2017    8       0       0.1456897       41.51886
2017    8       1       0.1295231       37.95077
2017    8       2       0.1280897       37.66392
2017    8       3       0.1397568       40.34285
2017    8       4       0.1762136       48.56024
2017    8       5       0.1303681       38.31026
2017    8       6       0.09704204      30.44377
2017    8       7       0.09372659      29.59651
2017    9       0       0.107651        32.95183
2017    9       1       0.1198541       35.85069
2017    9       2       0.1266349       37.49297
2017    9       3       0.346432        82.71841
2017    9       4       0.5277135       112.9806
2017    9       5       0.3723966       87.72717
2017    9       6       0.167707        47.02101
2017    9       7       0.1730053       48.03244
2017    10      0       0.202037        54.18612
2017    10      1       0.194455        52.52742
2017    10      2       0.1638741       45.7509
2017    10      3       0.2019366       53.86991
2017    10      4       0.3806975       88.20808
2017    10      5       0.2361829       61.33267
2017    10      6       0.1280853       37.79715
2017    10      7       0.1110946       33.81782
2017    11      0       0.08753313      28.1649
2017    11      1       0.0737308       24.72339
2017    11      2       0.08711321      27.97048
2017    11      3       0.1221218       36.2004
2017    11      4       0.2934482       72.28569
2017    11      5       0.2689067       67.75851
2017    11      6       0.1636167       45.80967
2017    11      7       0.1538657       43.47827
2017    12      0       0.1408853       40.54888
2017    12      1       0.1244686       36.75084
2017    12      2       0.1367297       39.48921
2017    12      3       0.2446389       62.28242
2017    12      4       0.3493081       82.01534
2017    12      5       0.3359791       79.36968
2017    12      6       0.2940567       71.38115
2017    12      7       0.177262        47.42667
2017    13      0       0.1604408       43.58404
2017    13      1       0.1515673       41.63245
2017    13      2       0.1613615       43.90978
2017    13      3       0.1823271       48.26338
2017    13      4       0.2010186       52.088
2017    13      5       0.214236        54.79935
2017    13      6       0.1975649       51.51479
2017    13      7       0.1865251       49.27602
2017    14      0       0.2132902       54.71533
2017    14      1       0.2103675       54.43272
2017    14      2       0.1924556       50.9249
2017    14      3       0.1796842       48.44525
2017    14      4       0.2136212       55.56897
2017    14      5       0.2361742       60.02084
2017    14      6       0.2052547       53.87426
2017    14      7       0.2148263       56.30086
2017    15      0       0.2542725       64.3835
2017    15      1       0.2473582       63.20068
2017    15      2       0.2559184       64.94783
2017    15      3       0.2742909       68.57254
2017    15      4       0.3739867       87.30395
2017    15      5       0.3266285       78.63775
2017    15      6       0.1384722       39.44394
2017    15      7       0.0979004       29.45828
2017    16      0       0.09161148      28.1919
2017    16      1       0.08178788      26.01018
2017    16      2       0.09836388      30.22088
2017    16      3       0.1364854       39.14909
2017    16      4       0.1902941       51.28899
2017    16      5       0.2126149       56.1889
2017    16      6       0.1685832       46.41582
2017    16      7       0.1591477       44.1794
2017    17      0       0.1849695       49.89716
2017    17      1       0.1886795       50.78709
2017    17      2       0.2283597       59.00139
2017    17      3       0.4544611       100.5053
2017    17      4       0.764857        143.7859
2017    17      5       0.7967172       148.0919
2017    17      6       0.3924748       90.6434
2017    17      7       0.2486184       63.40929
2017    18      0       0.2655795       66.74189
2017    18      1       0.2779753       69.47161
2017    18      2       0.3651015       86.12686
2017    18      3       0.6641888       132.4824
2017    18      4       0.9629132       166.8921
2017    18      5       0.8827113       159.1605
2017    18      6       0.8246463       153.1556
2017    18      7       0.5752515       121.1302
2017    19      0       0.435495        98.70224
2017    19      1       0.3363258       80.70774
2017    19      2       0.3320567       79.78006
2017    19      3       0.4659268       103.1197
2017    19      4       0.8715087       156.8995
2017    19      5       0.9784899       167.4527
2017    19      6       0.8323753       153.2128
2017    19      7       0.7492505       143.3606
2017    20      0       0.570867        119.3069
2017    20      1       0.4480833       100.1625
2017    20      2       0.5949983       123.0973
2017    20      3       0.5924518       123.0358
2017    20      4       0.4590855       102.639
2017    20      5       0.3546582       84.62916
2017    20      6       0.293038        72.94278
2017    20      7       0.1999652       53.85836
2017    21      0       0.195999        52.97036
2017    21      1       0.1696522       47.04081
2017    21      2       0.1758536       48.39678
2017    21      3       0.1691898       46.96995
2017    21      4       0.1732286       47.86181
2017    21      5       0.1665175       46.38034
2017    21      6       0.1592775       44.738
2017    21      7       0.1358702       39.43629
2017    22      0       0.1079144       32.89188
2017    22      1       0.09335156      29.38222
2017    22      2       0.08114862      26.41461
2017    22      3       0.08423591      27.21771
2017    22      4       0.1145864       34.52756
2017    22      5       0.1907319       51.73656
2017    22      6       0.352698        84.05754
2017    22      7       0.6569781       131.8416
2017    23      0       0.8701382       157.6101
2017    23      1       0.8481881       155.1975
2017    23      2       0.955661        166.414
2017    23      3       1.097901        179.4382
2017    23      4       1.158784        184.2015
2017    23      5       1.265491        192.1257
2017    23      6       1.169505        184.5597
2017    23      7       1.057672        175.1967
2017    24      0       0.9309722       163.2642
2017    24      1       0.9654673       166.7534
2017    24      2       0.9098226       161.0481
2017    24      3       0.8424676       153.8443
2017    24      4       0.7816671       147.0157
2017    24      5       0.7643536       145.1723
2017    24      6       0.6477892       130.2303
2017    24      7       0.6282477       127.1643
2017    25      0       0.4530098       100.5758
2017    25      1       0.262841        66.23444
2017    25      2       0.2449118       62.62587
2017    25      3       0.4133115       93.95916
2017    25      4       0.8945201       158.6825
2017    25      5       1.027551        171.1236
2017    25      6       1.145518        182.4208
2017    25      7       0.9334762       164.1947
2017    26      0       0.8365057       153.4018
2017    26      1       0.7126983       137.8994
2017    26      2       0.6013049       123.1155
2017    26      3       0.4465272       99.45509
2017    26      4       0.6940443       135.7265
2017    26      5       0.6232293       126.4473
2017    26      6       0.5705059       119.3214
2017    26      7       0.5243043       112.3767
2017    27      0       0.392678        90.36891
2017    27      1       0.2489708       62.84506
2017    27      2       0.1945164       51.35376
2017    27      3       0.1690173       45.7211
2017    27      4       0.3655145       84.88153
2017    27      5       0.5335817       112.8909
2017    27      6       0.4062672       92.6613
2017    27      7       0.2824259       69.78811
2017    28      0       0.2759522       68.31746
2017    28      1       0.2870954       70.13587
2017    28      2       0.2906158       70.80278
2017    28      3       0.420177        94.32154
2017    28      4       0.7749082       144.9942
2017    28      5       0.7100894       137.472
2017    28      6       0.5157596       110.2503
2017    28      7       0.3382639       79.81746
2017    29      0       0.2467345       61.90025
2017    29      1       0.1916602       50.55517
2017    29      2       0.1801693       48.17756
2017    29      3       0.1957783       51.71076
2017    29      4       0.2602454       65.39321
2017    29      5       0.3319246       79.54598
2017    29      6       0.3672037       86.11242
2017    29      7       0.3374467       80.62068
2017    30      0       0.2300982       59.33759
2017    30      1       0.1771455       47.88995
2017    30      2       0.1772451       47.91581
2017    30      3       0.1740773       47.10529
2017    30      4       0.1523076       42.58803
2017    30      5       0.1274233       37.0377
2017    30      6       0.1136731       33.94818
2017    30      7       0.1356986       39.15343
2017    31      0       0.1622581       45.17265
2017    31      1       0.1894772       51.14359
2017    31      2       0.2108509       55.59501
2017    31      3       0.1975179       52.71692
2017    31      4       0.2082505       55.13346
2017    31      5       0.1872913       50.7433
2017    31      6       0.1882876       50.92959
2017    31      7       0.262517        66.2152
2018    1       0       0.1523403       41.9575
2018    1       1       0.1463495       40.72307
2018    1       2       0.1284033       36.83994
2018    1       3       0.1240178       35.83506
2018    1       4       0.1492574       41.29307
2018    1       5       0.1672104       45.30535
2018    1       6       0.1788432       47.8396
2018    1       7       0.1849634       49.19636
2018    2       0       0.1839461       49.14314
2018    2       1       0.2299107       59.00831
2018    2       2       0.2695695       66.99642
2018    2       3       0.2760112       68.22788
2018    2       4       0.296995        72.26341
2018    2       5       0.2863148       70.28976
2018    2       6       0.2276629       58.46366
2018    2       7       0.2409971       61.17914
2018    3       0       0.2534098       63.5514
2018    3       1       0.259368        64.78424
2018    3       2       0.2399945       61.01102
2018    3       3       0.2323698       59.51729
2018    3       4       0.2506727       63.23651
2018    3       5       0.2639135       65.843
2018    3       6       0.252908        63.74512
2018    3       7       0.2798679       69.18327
2018    4       0       0.2793181       68.96665
2018    4       1       0.2524241       63.4365
2018    4       2       0.22412         57.73927
2018    4       3       0.2398111       61.10304
2018    4       4       0.2668865       66.54417
2018    4       5       0.2576902       64.62713
2018    4       6       0.2361545       60.35463
2018    4       7       0.2312259       59.47542
2018    5       0       0.2163453       56.43754
2018    5       1       0.2001185       52.96231
2018    5       2       0.1943214       51.7189
2018    5       3       0.1884963       50.55495
2018    5       4       0.2017082       53.48582
2018    5       5       0.2271853       58.93034
2018    5       6       0.1602719       44.5875
2018    5       7       0.1238272       36.37649
2018    6       0       0.1472686       41.78297
2018    6       1       0.1578024       44.18254
2018    6       2       0.175084        48.14149
2018    6       3       0.1921646       51.95984
2018    6       4       0.2294296       59.85978
2018    6       5       0.2257611       59.09568
2018    6       6       0.1809562       49.42994
2018    6       7       0.1768744       48.41684
2018    7       0       0.173705        47.72577
2018    7       1       0.1701146       46.76035
2018    7       2       0.1736445       47.5596
2018    7       3       0.1947556       52.26142
2018    7       4       0.2738308       68.65439
2018    7       5       0.2836603       70.60469
2018    7       6       0.2007372       53.6349
2018    7       7       0.1672234       46.2403
2018    8       0       0.1707932       46.82028
2018    8       1       0.1598607       44.26665
2018    8       2       0.1691912       46.34419
2018    8       3       0.2953299       72.42369
2018    8       4       0.535744        113.3942
2018    8       5       0.5440938       114.847
2018    8       6       0.5351729       113.616
2018    8       7       0.5258023       112.3091
2018    9       0       0.5304744       113.0704
2018    9       1       0.5545893       116.5689
2018    9       2       0.5949164       122.5397
2018    9       3       0.6932483       136.3571
2018    9       4       0.9141457       161.8264
2018    9       5       0.9839178       168.7026
2018    9       6       0.6677755       132.8709
2018    9       7       0.4264398       96.63799
2018    10      0       0.3161872       76.95242
2018    10      1       0.2503337       64.02972
2018    10      2       0.2835555       70.46224
2018    10      3       0.3939847       90.70966
2018    10      4       0.4471825       99.62498
2018    10      5       0.4255836       96.00437
2018    10      6       0.3447797       81.74834
2018    10      7       0.2930658       71.93833
2018    11      0       0.2275619       58.73649
2018    11      1       0.1950895       51.77904
2018    11      2       0.2210353       57.16627
2018    11      3       0.2637697       65.83138
2018    11      4       0.2431214       61.67562
2018    11      5       0.1804391       48.44254
2018    11      6       0.1524967       42.40089
2018    11      7       0.1586596       43.84314
2018    12      0       0.1615074       44.25637
2018    12      1       0.1669236       45.30432
2018    12      2       0.1707966       46.16001
2018    12      3       0.1710089       46.23258
2018    12      4       0.1725522       46.68674
2018    12      5       0.1651301       45.17879
2018    12      6       0.133618        38.25088
2018    12      7       0.1142897       33.86229
2018    13      0       0.1147499       33.94735
2018    13      1       0.1171657       34.46116
2018    13      2       0.1230896       35.80389
2018    13      3       0.1234135       35.88627
2018    13      4       0.1919064       51.14077
2018    13      5       0.1737626       47.25922
2018    13      6       0.1409369       39.99593
2018    13      7       0.1290975       37.35877
2018    14      0       0.1214711       35.66884
2018    14      1       0.1259838       36.71873
2018    14      2       0.162431        44.96889
2018    14      3       0.1927552       51.61843
2018    14      4       0.2069727       54.73548
2018    14      5       0.2177694       56.99583
2018    14      6       0.2280163       58.80986
2018    14      7       0.2396089       61.13312
2018    15      0       0.2251504       58.25418
2018    15      1       0.20701         54.51417
2018    15      2       0.2247121       58.18279
2018    15      3       0.26929         67.11171
2018    15      4       0.3155836       76.13057
2018    15      5       0.3030912       73.87849
2018    15      6       0.2422143       61.93643
2018    15      7       0.2539786       64.29789
2018    16      0       0.2350508       60.42892
2018    16      1       0.2009097       53.2971
2018    16      2       0.1887025       50.61562
2018    16      3       0.1962396       52.22088
2018    16      4       0.2873127       70.88955
2018    16      5       0.3479465       82.31529
2018    16      6       0.2473429       62.96918
2018    16      7       0.2246843       58.25856
2018    17      0       0.2099252       55.31001
2018    17      1       0.1705572       47.01273
2018    17      2       0.181037        49.22094
2018    17      3       0.2088241       55.05
2018    17      4       0.2183703       57.01681
2018    17      5       0.2091137       55.04821
2018    17      6       0.1870155       50.28224
2018    17      7       0.1774159       48.0998
2018    18      0       0.1818659       48.75229
2018    18      1       0.1910811       50.52425
2018    18      2       0.2207712       56.9689
2018    18      3       0.2469414       62.40188
2018    18      4       0.3577007       83.79667
2018    18      5       0.4763724       104.0439
2018    18      6       0.5919838       121.2173
2018    18      7       0.6554311       129.7606
2018    19      0       0.5470371       114.447
2018    19      1       0.4336358       96.4278
2018    19      2       0.4028445       91.23148
2018    19      3       0.5309961       111.9292
2018    19      4       0.827591        150.17
2018    19      5       0.8644784       153.7076
2018    19      6       0.583646        119.0372
2018    19      7       0.3290128       77.41454
2018    20      0       0.2270708       57.49355
2018    20      1       0.1851473       48.73932
2018    20      2       0.1760056       46.79391
2018    20      3       0.1737721       46.31366
2018    20      4       0.1586542       43.05985
2018    20      5       0.1477216       40.50858
2018    20      6       0.1634875       43.85951
2018    20      7       0.183405        48.18337
2018    21      0       0.1867263       49.07706
2018    21      1       0.1732785       46.50551
2018    21      2       0.1802294       48.08859
2018    21      3       0.1821005       48.37715
2018    21      4       0.2014482       52.28584
2018    21      5       0.2233406       56.81982
2018    21      6       0.2084919       54.03744
2018    21      7       0.2188864       56.5332
2018    22      0       0.2546527       63.94664
2018    22      1       0.270675        67.16341
2018    22      2       0.3201899       76.72432
2018    22      3       0.3263374       77.99696
2018    22      4       0.3654085       85.24956
2018    22      5       0.4391375       98.21664
2018    22      6       0.4562699       101.3272
2018    22      7       0.4859772       106.2669
2018    23      0       0.5005575       108.5628
2018    23      1       0.4544192       101.1545
2018    23      2       0.4119732       94.06278
2018    23      3       0.3790096       88.36351
2018    23      4       0.4233784       96.26342
2018    23      5       0.4946796       107.9189
2018    23      6       0.6063097       124.4642
2018    23      7       0.6608232       131.6234
2018    24      0       0.6071833       124.1792
2018    24      1       0.4801649       105.1902
2018    24      2       0.4359621       98.15222
2018    24      3       0.4049495       93.07334
2018    24      4       0.5317343       113.7359
2018    24      5       0.8639082       156.7731
2018    24      6       0.9745739       167.9604
2018    24      7       0.980345        168.3594
2018    25      0       1.018083        171.596
2018    25      1       1.012666        170.9199
2018    25      2       1.137904        181.4329
2018    25      3       1.142702        182.0729
2018    25      4       1.277526        192.8111
2018    25      5       1.102511        178.8006
2018    25      6       0.9276837       162.3416
2018    25      7       0.7719034       144.9986
2018    26      0       0.7326169       140.0631
2018    26      1       0.6329441       126.9806
2018    26      2       0.5503586       115.4073
2018    26      3       0.5122539       109.9301
2018    26      4       0.5755643       119.8459
2018    26      5       0.7614716       144.6024
2018    26      6       0.6438728       129.0994
2018    26      7       0.5372445       113.808
2018    27      0       0.4287617       96.40277
2018    27      1       0.3664751       85.61339
2018    27      2       0.3921476       90.31221
2018    27      3       0.4945336       107.3396
2018    27      4       0.5262321       112.257
2018    27      5       0.5309671       113.0747
2018    27      6       0.5828707       120.6966
2018    27      7       0.6429807       129.1818
2018    28      0       0.6578751       131.1137
2018    28      1       0.6512764       130.1062
2018    28      2       0.5654259       118.1613
2018    28      3       0.4647373       102.6982
2018    28      4       0.5219676       111.7709
2018    28      5       0.4833637       105.5867
2018    28      6       0.4495342       100.145
2018    28      7       0.4557236       101.1758
2018    29      0       0.4586009       101.5123
2018    29      1       0.500986        108.0754
2018    29      2       0.4481389       99.66035
2018    29      3       0.5743472       118.9783
2018    29      4       0.8532563       153.7827
2018    29      5       0.8155053       149.2485
2018    29      6       0.5517487       115.2276
2018    29      7       0.2654189       66.06267
2018    30      0       0.2824289       69.40669
2018    30      1       0.4294455       95.82552
2018    30      2       0.4791317       103.3626
2018    30      3       0.5715485       117.0017
2018    30      4       0.7189616       137.0181
2018    30      5       0.7718258       143.7113
2018    30      6       0.8174687       149.21
2018    30      7       0.8567356       153.9913
2018    31      0       0.8103993       149.076
2018    31      1       0.8092701       149.0646
2018    31      2       0.8131149       149.5275
2018    31      3       0.8222308       150.6352
2018    31      4       0.8306942       152.0355
2018    31      5       0.7555755       143.3557
2018    31      6       0.7179599       138.4958
2018    31      7       0.6382182       127.9395
