####################################################################################################
# Month: 11Nov                                                                                     #
# Station: CNI                                                                                     #
# Frequency: 345 GHz                                                                               #
# Columns are: year    day     tau     Tb (K)                                                      #
####################################################################################################
2009    1       0.58764546      122.860535
2009    2       0.69151514      135.7345
2009    3       0.5816191       121.538
2009    4       0.70774875      140.8931
2009    5       0.86876266      159.9762125
2009    6       0.39231778      91.3237
2009    7       0.42250825      97.42759375
2009    8       0.54348125      117.7324
2009    9       0.52324209      114.58102
2009    10      0.63696503      127.80135
2009    11      0.70217156      139.9702875
2009    12      0.53463842      115.153925
2009    13      0.44293588      101.13151375
2009    14      0.44823194      101.982265
2009    15      0.39776008      93.6327375
2009    16      0.9159448       139.59421125
2009    17      0.49318148      103.69846875
2009    18      0.49547088      106.16721
2009    19      0.34879086      83.71286125
2009    20      0.3454639       83.99958375
2009    21      0.36468524      86.7719375
2009    22      0.47596792      105.67940375
2009    23      0.81601396      150.1658875
2009    24      0.55298396      115.734405
2009    25      0.29191251      72.69513625
2009    26      0.26266971      66.61931625
2009    27      0.39557402      90.04007875
2009    28      0.8675841       151.65704125
2009    29      0.51529179      108.36456625
2009    30      0.77064214      146.347675
2010    1       0.46595435      102.49276
2010    2       0.5800726       121.19995875
2010    3       0.53292836      114.16812125
2010    4       0.66435578      133.7989125
2010    5       0.61423724      128.0450625
2010    6       0.57673798      122.378535
2010    7       0.32071246      78.1831525
2010    8       0.44994752      101.70144125
2010    9       0.9566494       166.6538375
2010    10      0.75546556      145.5392375
2010    11      0.88576228      160.698375
2010    12      0.92972162      166.5880125
2010    13      0.61567081      127.8079625
2010    14      1.21339695      183.803675
2010    15      1.0298709       154.32315875
2010    16      0.17782605      48.15366
2010    17      0.72512848      128.4976725
2010    18      2.03987738      239.348725
2010    19      1.38008925      205.6899
2010    20      1.00202006      174.4241875
2010    21      1.25700312      194.294325
2010    22      1.15129035      185.0071375
2010    23      0.79547169      149.5882
2010    24      0.84169654      154.870225
2010    25      1.81373712      220.4814125
2010    26      0.46612284      101.5683325
2010    27      0.4088065       91.3716975
2010    28      1.92666646      209.3534875
2010    29      2.1763465       236.9244875
2010    30      1.10328108      141.1833825
2011    1       0.89598376      156.35985
2011    2       0.99801022      170.2782
2011    3       0.78531376      151.2775
2011    4       0.73640736      142.75095
2011    5       0.86928859      158.979775
2011    6       1.3158195       201.32495
2011    7       1.40071138      205.92835
2011    8       1.08572835      179.8434
2011    9       1.09418148      179.984175
2011    10      0.7623547       142.0575125
2011    11      2.360712        239.7194375
2011    12      0.51564135      111.21312875
2011    13      0.43465156      97.28034875
2011    14      0.67991175      135.593425
2011    15      0.67643704      134.2581825
2011    16      0.59309701      120.38965875
2011    17      0.70158562      126.44213625
2011    18      0.36787865      84.38335875
2011    19      1.31913764      198.364675
2011    20      0.40498211      94.26504625
2011    21      0.76814772      144.4411625
2011    22      0.23873665      56.43862
2011    23      0.1519855       42.8623125
2011    24      0.2185135       57.01558625
2011    25      0.23788992      60.74993625
2011    26      0.22171082      57.24672125
2011    27      0.19428009      52.12233
2011    28      0.41494588      94.39609
2011    29      0.41298078      94.86124875
2011    30      0.31564019      77.133075
2012    1       2.82968888      256.285975
2012    2       3.55077538      267.3744875
2012    3       2.86811125      258.5119625
2012    4       2.90621013      258.81315
2012    5       1.91847712      227.166275
2012    6       2.015462        235.287175
2012    7       0.71109274      137.6070875
2012    8       0.53605279      113.98584875
2012    9       0.23417562      61.201275
2012    10      0.59162624      123.25682625
2012    11      0.63411004      131.48042625
2012    12      0.62673149      131.0752375
2012    13      0.48385129      109.23644
2012    14      0.52757066      112.66486125
2012    15      0.25051158      63.79792125
2012    16      0.46041076      100.2764275
2012    17      0.3512474       83.45098125
2012    18      0.17361959      48.240475
2012    19      0.18611292      50.6519075
2012    20      0.44459395      100.54301625
2012    21      0.75043499      132.2314475
2012    22      0.49351061      104.93944375
2012    23      0.92763773      156.043625
2012    24      1.64163338      220.994925
2012    25      1.39744139      196.0947125
2012    26      0.96959409      169.05445
2012    27      0.52362641      110.32144375
2012    28      0.23043857      60.11392
2012    29      0.23109495      60.260985
2012    30      0.24063038      61.628195
2013    1       0.21686121      57.31896
2013    2       0.78862388      140.7224925
2013    3       2.1506935       237.7204
2013    4       0.70194961      132.7968025
2013    5       0.42644869      94.7044575
2013    6       1.65642611      215.7169125
2013    7       0.77780648      142.80901625
2013    8       0.58158984      123.011425
2013    9       0.9864497       170.640575
2013    10      0.59675731      123.66505
2013    11      0.4938048       109.9338875
2013    12      0.49573352      109.1343375
2013    13      0.65167579      130.2099625
2013    14      0.70565752      138.0913625
2013    15      0.42384104      94.14152125
2013    16      0.16655415      45.90810625
2013    17      0.1945285       51.2252125
2013    18      0.23111936      59.6201625
2013    19      0.31571957      76.1388175
2013    20      0.8749418       151.28623625
2013    21      1.77080875      227.6555875
2013    22      1.2056434       188.7986
2013    23      1.07512155      177.5944125
2013    24      0.75656804      146.98525
2013    25      1.0387242       176.6595625
2013    26      0.99503915      171.466475
2013    27      1.22351425      191.788825
2013    28      0.98694338      155.15132625
2013    29      0.96907165      133.80647625
2013    30      2.85782838      257.0620625
2014    1       0.50468616      112.2771825
2014    2       0.48507566      108.09353875
2014    3       0.53113783      115.11373125
2014    4       0.82267879      152.43875
2014    5       1.41652862      208.877075
2014    6       1.1459205       191.054125
2014    7       1.40273738      207.8680125
2014    8       0.86987118      153.78217875
2014    9       0.64631099      128.8653575
2014    10      1.47066962      211.6533125
2014    11      0.58642766      124.76135
2014    12      0.34841309      83.27990125
2014    13      0.35700137      84.6166675
2014    14      0.53723679      112.545535
2014    15      1.69913125      221.4039125
2014    16      1.67075062      220.698675
2014    17      0.91747831      164.01665
2014    18      1.33864529      182.3331625
2014    19      1.07496634      151.1150275
2014    20      0.69758879      132.4761325
2014    21      0.9308111       158.4747625
2014    22      0.59789753      120.71010875
2014    23      0.4396331       95.7714375
2014    24      0.33329921      78.94394625
2014    25      0.29455821      71.9854775
2014    26      0.33340546      78.58472875
2014    27      1.47835311      205.937875
2014    28      1.68150374      202.71175375
2014    29      0.26134091      67.49607
2014    30      0.23513335      60.97366
2015    1       1.05898626      177.0810625
2015    2       1.12275171      181.6436625
2015    3       0.92968421      163.1200125
2015    4       0.76161708      148.3508375
2015    5       0.40271682      93.68995125
2015    6       0.57044116      117.96283
2015    7       0.98884999      172.1367625
2015    8       1.31159444      200.5934
2015    9       0.75339094      146.076325
2015    10      0.97668411      170.116
2015    11      0.94986488      164.410575
2015    12      0.86590772      157.8059375
2015    13      0.84936846      156.4297875
2015    14      1.01942684      172.883
2015    15      1.33971025      201.695375
2015    16      0.83004274      152.8917
2015    17      0.48054451      106.6944125
2015    18      0.24357331      62.73524875
2015    19      0.28741398      72.44649625
2015    20      0.30441997      75.5183075
2015    21      0.26283408      67.88066625
2015    22      0.34461879      78.28582625
2015    23      0.33482291      79.2446925
2015    24      0.29968546      74.66035125
2015    25      0.55777707      116.03997625
2015    26      0.69754215      137.895575
2015    27      0.48637541      106.75038
2015    28      0.62735874      128.7457
2015    29      0.60291652      112.32203
2015    30      1.17570698      186.2787875
2016    1       0.15220793      43.16566375
2016    2       0.32127079      73.69968625
2016    3       1.0068121       167.7718875
2016    4       1.13659434      182.7963
2016    5       1.75365988      222.23825
2016    6       1.1925464       185.8589
2016    7       0.73615765      140.75853125
2016    8       0.1980422       53.581105
2016    9       0.25904456      65.619705
2016    10      0.26252792      67.95887125
2016    11      0.58730916      123.2762825
2016    12      0.72255936      139.996
2016    13      0.80376196      148.389575
2016    14      1.71426849      216.745625
2016    15      1.8248855       223.7909625
2016    16      0.75570542      143.3544
2016    17      1.03112734      175.1989375
2016    18      1.52982562      213.145525
2016    19      1.16594987      189.2474625
2016    20      0.8178621       155.0525125
2016    21      1.13502379      177.41556625
2016    22      0.28983702      71.82857875
2016    23      0.42565215      94.98242875
2016    24      0.6002382       123.047475
2016    25      0.57750581      115.58852625
2016    26      0.17924302      48.889605
2016    27      0.29255792      72.49334
2016    28      0.3446693       81.2914
2016    29      0.66346144      133.4883875
2016    30      0.50607219      102.65410375
2017    1       0.63334328      129.421125
2017    2       1.27843179      195.0199625
2017    3       0.97670803      166.9066875
2017    4       0.37536689      88.34731625
2017    5       0.24948205      64.47797125
2017    6       0.35677462      84.01759
2017    7       0.60922345      125.097775
2017    8       0.82707816      154.3678375
2017    9       0.52571014      110.74268125
2017    10      0.60150255      121.17830625
2017    11      1.71596975      222.527375
2017    12      1.79885525      224.4971375
2017    13      1.688641        220.0638125
2017    14      1.88864612      230.2366125
2017    15      1.53632875      212.1208
2017    16      1.440692        206.5845375
2017    17      1.9611085       230.263725
2017    18      1.31041875      197.1475125
2017    19      1.17904988      187.2119875
2017    20      0.89471345      160.91845
2017    21      1.45248428      199.7037375
2017    22      0.92473641      154.95544125
2017    23      0.50373085      106.83114125
2017    24      1.60709638      217.7165
2017    25      1.82440538      226.885225
2017    26      1.13249656      182.877025
2017    27      1.08353013      182.440075
2017    28      1.0280721       176.380525
2017    29      1.49641966      206.606025
2017    30      1.834989        228.1466
2018    1       0.43774949      101.18972375
2018    2       0.34446826      83.8563275
2018    3       0.23139853      61.07177625
2018    4       0.29527059      73.81634
2018    5       0.5485641       113.63343625
2018    6       0.63291238      131.3954625
2018    7       0.50300076      111.33386375
2018    8       0.33081151      80.61224375
2018    9       0.46380088      105.14005
2018    10      0.53380771      116.589375
2018    11      0.41875929      96.486485
2018    12      0.72759532      141.819
2018    13      0.97396078      171.011775
2018    14      0.63104316      124.63705875
2018    15      0.54990404      115.3082525
2018    16      1.3506051       199.4875875
2018    17      1.00084121      143.1558125
2018    18      0.46700058      99.21572875
2018    19      0.73349234      133.5805375
2018    20      0.79504448      136.4561025
2018    21      2.72669262      252.0255875
2018    22      1.1791269       179.8337125
2018    23      0.53690984      105.626615
2018    24      1.45003275      209.809275
2018    25      1.3378045       202.649525
2018    26      1.00003979      173.09335
2018    27      0.43778395      100.4084875
2018    28      0.42429969      98.30818125
2018    29      0.58949453      123.7013375
2018    30      0.65611347      131.7361375
