####################################################################################################
# Month: 11Nov                                                                                     #
# Station: CNI                                                                                     #
# Frequency: 345 GHz                                                                               #
# Columns are: year    day     segment         tau     Tb (K)                                      #
####################################################################################################
2009    1       0       0.4299642       98.73988
2009    1       1       0.4993386       110.5381
2009    1       2       0.6220565       128.7896
2009    1       3       0.6354792       130.6552
2009    1       4       0.671374        135.3361
2009    1       5       0.6654676       134.2031
2009    1       6       0.6076526       125.4566
2009    1       7       0.569831        119.1657
2009    2       0       0.5629203       117.5644
2009    2       1       0.5933971       122.435
2009    2       2       0.6324039       128.3987
2009    2       3       0.6945733       136.9559
2009    2       4       0.8746038       159.5441
2009    2       5       0.8652011       158.0104
2009    2       6       0.709698        139.0777
2009    2       7       0.5993236       123.8898
2009    3       0       0.5026199       109.3712
2009    3       1       0.4601437       102.3183
2009    3       2       0.5270839       113.2374
2009    3       3       0.5876198       122.7022
2009    3       4       0.6071116       125.6244
2009    3       5       0.6306502       129.1571
2009    3       6       0.6627063       133.9606
2009    3       7       0.6750174       135.9328
2009    4       0       0.7532621       146.4063
2009    4       1       0.8171625       154.4333
2009    4       2       0.7980269       152.5728
2009    4       3       0.7039183       140.9241
2009    4       4       0.6736565       136.7656
2009    4       5       0.6544203       134.1673
2009    4       6       0.6183937       129.1753
2009    4       7       0.6431497       132.7001
2009    5       0       0.7108536       141.6421
2009    5       1       0.7250451       143.1862
2009    5       2       0.7677704       148.5396
2009    5       3       0.8392513       157.1274
2009    5       4       0.9421854       168.6024
2009    5       5       1.078042        182.1752
2009    5       6       1.031244        178.3904
2009    5       7       0.8557095       160.1464
2009    6       0       0.6842107       139.4658
2009    6       1       0.4219203       98.53089
2009    6       2       0.3286394       80.42603
2009    6       3       0.3739356       88.82745
2009    6       4       0.3975138       93.07773
2009    6       5       0.3348504       81.34246
2009    6       6       0.2867104       71.95144
2009    6       7       0.3107616       76.9678
2009    7       0       0.314171        77.65276
2009    7       1       0.2812709       71.1135
2009    7       2       0.3436031       83.81253
2009    7       3       0.3735954       89.77596
2009    7       4       0.4775224       108.4216
2009    7       5       0.4735757       107.6298
2009    7       6       0.484781        109.3841
2009    7       7       0.6315465       131.6305
2009    8       0       0.6151011       128.5197
2009    8       1       0.5547057       118.9466
2009    8       2       0.5319713       115.3231
2009    8       3       0.5116762       112.3902
2009    8       4       0.5111822       112.7021
2009    8       5       0.5228051       114.9374
2009    8       6       0.539886        117.8518
2009    8       7       0.5605224       121.1883
2009    9       0       0.5159038       113.9015
2009    9       1       0.4018257       94.09603
2009    9       2       0.3671947       87.78893
2009    9       3       0.5584164       121.0716
2009    9       4       0.678668        138.9117
2009    9       5       0.6065666       128.5275
2009    9       6       0.5534388       120.2004
2009    9       7       0.5039227       112.1505
2009    10      0       0.4413564       101.5901
2009    10      1       0.3971866       93.79828
2009    10      2       0.4013504       94.24339
2009    10      3       0.4281748       98.79833
2009    10      4       0.5943544       125.932
2009    10      5       0.8580071       160.3513
2009    10      6       0.9983796       174.9455
2009    10      7       0.9769109       172.7519
2009    11      0       0.8732317       161.4003
2009    11      1       0.7945061       152.0123
2009    11      2       0.7319678       144.2906
2009    11      3       0.6655658       135.4871
2009    11      4       0.707744        141.1343
2009    11      5       0.6533943       133.7287
2009    11      6       0.6249754       130.0984
2009    11      7       0.5659874       121.6106
2009    12      0       0.5223653       114.6993
2009    12      1       0.4849727       108.316
2009    12      2       0.5049006       110.603
2009    12      3       0.5308173       113.6122
2009    12      4       0.5775549       120.6455
2009    12      5       0.5768027       120.9696
2009    12      6       0.5585996       118.801
2009    12      7       0.5210943       113.5848
2009    13      0       0.4763108       106.6227
2009    13      1       0.4415617       100.9169
2009    13      2       0.451997        102.7521
2009    13      3       0.4590415       104.1099
2009    13      4       0.4401504       101.0017
2009    13      5       0.4470699       101.9378
2009    13      6       0.428949        98.52238
2009    13      7       0.3984067       93.18863
2009    14      0       0.4720474       106.0121
2009    14      1       0.5223345       114.3336
2009    14      2       0.4998014       110.8731
2009    14      3       0.5006692       111.0815
2009    14      4       0.4771737       107.3376
2009    14      5       0.4292684       99.29222
2009    14      6       0.3511481       85.06692
2009    14      7       0.3334128       81.86108
2009    15      0       0.3628727       87.47967
2009    15      1       0.3700292       88.72284
2009    15      2       0.3799896       90.49972
2009    15      3       0.3798332       90.26624
2009    15      4       0.3916787       92.43625
2009    15      5       0.4360018       100.587
2009    15      6       0.4467912       102.4451
2009    15      7       0.4148842       96.62508
2009    16      0       0.3639351       87.11541
2009    16      1       0.6529982       133.8814
2009    16      2       1.739203        225.7349
2009    16      3       2.360315        245.5786
2009    16      4       1.204796        188.9361
2009    16      5       0.5309242       113.1751
2009    16      6       0.2910738       71.93088
2009    16      7       0.1843131       50.4013
2009    17      0       0.1738878       48.19558
2009    17      1       0.2049815       54.96399
2009    17      2       0.2723608       68.69268
2009    17      3       0.4973186       109.0581
2009    17      4       0.4909443       108.0915
2009    17      5       0.6910959       137.2973
2009    17      6       0.8231856       153.5632
2009    17      7       0.7916773       149.7254
2009    18      0       0.7558457       145.6102
2009    18      1       0.6144657       127.285
2009    18      2       0.5726104       122.1183
2009    18      3       0.686432        138.6968
2009    18      4       0.6059441       126.8826
2009    18      5       0.2982521       74.22933
2009    18      6       0.216796        57.50756
2009    18      7       0.213421        57.00789
2009    19      0       0.2240277       59.22159
2009    19      1       0.234937        61.43632
2009    19      2       0.2653634       68.01949
2009    19      3       0.3118019       77.55226
2009    19      4       0.3639107       87.60703
2009    19      5       0.4126928       96.6524
2009    19      6       0.4418686       101.6529
2009    19      7       0.5357248       117.5609
2009    20      0       0.4123321       96.58903
2009    20      1       0.3986127       94.10326
2009    20      2       0.3936671       93.14424
2009    20      3       0.3659152       88.17983
2009    20      4       0.3439298       84.17315
2009    20      5       0.3089982       77.29471
2009    20      6       0.2894131       73.29751
2009    20      7       0.250843        65.21494
2009    21      0       0.2237825       59.40026
2009    21      1       0.2340036       61.5736
2009    21      2       0.3044525       75.98906
2009    21      3       0.3589883       86.46616
2009    21      4       0.3936932       92.96492
2009    21      5       0.4649758       105.5964
2009    21      6       0.4834053       108.7218
2009    21      7       0.4541807       103.4633
2009    22      0       0.4134604       96.14456
2009    22      1       0.4171761       96.39797
2009    22      2       0.4931002       108.5564
2009    22      3       0.5156292       111.4218
2009    22      4       0.4902399       107.5058
2009    22      5       0.5101081       111.0837
2009    22      6       0.4916594       108.5121
2009    22      7       0.4763701       105.8129
2009    23      0       0.584951        122.2568
2009    23      1       0.6512736       131.4019
2009    23      2       0.7543747       143.6931
2009    23      3       0.9580246       165.0059
2009    23      4       0.9284907       162.3063
2009    23      5       0.8976012       159.8381
2009    23      6       0.8865108       159.1784
2009    23      7       0.8668851       157.6466
2009    24      0       0.7796447       147.793
2009    24      1       0.6301841       127.9712
2009    24      2       0.5416581       114.2695
2009    24      3       0.521023        110.5129
2009    24      4       0.5258128       111.5684
2009    24      5       0.4976196       107.6286
2009    24      6       0.4836364       106.1401
2009    24      7       0.444293        99.99154
2009    25      0       0.3895931       90.80115
2009    25      1       0.3434659       82.78883
2009    25      2       0.3161822       77.67539
2009    25      3       0.3035838       75.22104
2009    25      4       0.2685395       68.41264
2009    25      5       0.2393747       62.49986
2009    25      6       0.2368531       61.975
2009    25      7       0.2377078       62.18718
2009    26      0       0.2452708       63.69895
2009    26      1       0.256217        65.79973
2009    26      2       0.2475593       63.98037
2009    26      3       0.2321029       60.6996
2009    26      4       0.2354604       61.27572
2009    26      5       0.2497386       63.94589
2009    26      6       0.2913191       71.84425
2009    26      7       0.3436896       81.71002
2009    27      0       0.3234537       77.98786
2009    27      1       0.3436176       81.31073
2009    27      2       0.416915        93.92976
2009    27      3       0.4493754       99.22523
2009    27      4       0.4742359       103.4961
2009    27      5       0.4545542       100.3021
2009    27      6       0.3753549       86.25342
2009    27      7       0.3270855       77.81543
2009    28      0       0.337272        79.72813
2009    28      1       0.5740864       117.5544
2009    28      2       0.789005        145.4963
2009    28      3       0.8134553       148.9275
2009    28      4       0.9433611       164.233
2009    28      5       1.152468        184.3313
2009    28      6       1.227447        191.1408
2009    28      7       1.103578        181.8449
2009    29      0       0.9144118       163.6274
2009    29      1       0.668082        134.3203
2009    29      2       0.6005582       125.3557
2009    29      3       0.6457227       132.4658
2009    29      4       0.3914851       92.01142
2009    29      5       0.2546106       64.59602
2009    29      6       0.2578755       64.74818
2009    29      7       0.3895884       89.79171
2009    30      0       0.6303699       128.7221
2009    30      1       0.8917028       161.7273
2009    30      2       0.9492057       167.4475
2009    30      3       0.8864794       160.4392
2009    30      4       0.7948672       150.17
2009    30      5       0.7474353       144.4933
2009    30      6       0.6778234       135.3008
2009    30      7       0.5872534       122.4812
2010    1       0       0.2569418       67.12088
2010    1       1       0.2312525       61.77341
2010    1       2       0.2864414       73.27538
2010    1       3       0.3382205       83.43685
2010    1       4       0.405727        95.87276
2010    1       5       0.5745006       123.974
2010    1       6       0.7785772       152.5671
2010    1       7       0.8559738       161.9217
2010    2       0       0.8809274       164.1985
2010    2       1       0.8459796       160.0162
2010    2       2       0.7187786       144.1101
2010    2       3       0.599088        127.3101
2010    2       4       0.5087819       113.2478
2010    2       5       0.3982376       93.95094
2010    2       6       0.3441836       83.41724
2010    2       7       0.3446041       83.34879
2010    3       0       0.3704254       88.1324
2010    3       1       0.3863166       91.12999
2010    3       2       0.4050929       94.57328
2010    3       3       0.4435816       101.2518
2010    3       4       0.4980902       110.475
2010    3       5       0.5963811       126.2334
2010    3       6       0.7085749       141.9288
2010    3       7       0.8549642       159.6203
2010    4       0       0.9398113       168.8019
2010    4       1       0.8608474       159.2136
2010    4       2       0.6604565       132.9182
2010    4       3       0.554713        118.0222
2010    4       4       0.5613815       120.3084
2010    4       5       0.5929465       125.9558
2010    4       6       0.5735619       122.9246
2010    4       7       0.5711281       122.2466
2010    5       0       0.5904231       124.8902
2010    5       1       0.5993559       125.8292
2010    5       2       0.5939199       124.883
2010    5       3       0.5952291       125.1693
2010    5       4       0.6290851       130.1929
2010    5       5       0.6586546       134.3832
2010    5       6       0.6341649       131.0076
2010    5       7       0.6130653       128.0051
2010    6       0       0.647773        132.9113
2010    6       1       0.659266        134.4501
2010    6       2       0.6231099       129.4278
2010    6       3       0.5936965       125.1864
2010    6       4       0.6169525       128.6192
2010    6       5       0.5991163       126.3859
2010    6       6       0.496134        111.0145
2010    6       7       0.3778556       91.03308
2010    7       0       0.3227669       80.77595
2010    7       1       0.3010322       76.34474
2010    7       2       0.2675832       69.25155
2010    7       3       0.2320654       61.35475
2010    7       4       0.2367759       62.03024
2010    7       5       0.2914933       72.75465
2010    7       6       0.4140351       94.57944
2010    7       7       0.4999477       108.3739
2010    8       0       0.4445123       100.6341
2010    8       1       0.410102        95.23729
2010    8       2       0.423586        97.82324
2010    8       3       0.454344        102.8541
2010    8       4       0.4203736       96.94093
2010    8       5       0.4260443       97.70777
2010    8       6       0.4860812       107.4808
2010    8       7       0.5345368       114.9333
2010    9       0       0.5953765       123.9462
2010    9       1       0.6938674       137.6122
2010    9       2       0.8698339       158.7929
2010    9       3       1.045334        177.1292
2010    9       4       1.178818        190.0348
2010    9       5       1.308363        201.3135
2010    9       6       1.142766        188.7796
2010    9       7       0.8188364       155.6223
2010    10      0       0.633126        130.774
2010    10      1       0.6216259       128.7764
2010    10      2       0.7094137       140.6176
2010    10      3       0.7791996       149.014
2010    10      4       0.8326138       155.211
2010    10      5       0.8492448       156.9899
2010    10      6       0.8317402       154.4072
2010    10      7       0.7867605       148.5238
2010    11      0       0.7780242       147.5511
2010    11      1       0.7984908       150.0478
2010    11      2       0.844322        155.5101
2010    11      3       0.8906076       160.8929
2010    11      4       0.9078014       163.5865
2010    11      5       0.949165        168.5495
2010    11      6       0.951503        168.9347
2010    11      7       0.9661842       170.5144
2010    12      0       1.004824        174.2826
2010    12      1       1.016887        175.447
2010    12      2       0.9892132       172.942
2010    12      3       0.931615        167.2267
2010    12      4       0.9311223       167.2568
2010    12      5       0.9536064       169.5112
2010    12      6       0.8575219       159.2681
2010    12      7       0.7529832       146.7697
2010    13      0       0.6967111       139.4467
2010    13      1       0.6622378       134.6523
2010    13      2       0.6133339       127.7527
2010    13      3       0.5778195       122.6395
2010    13      4       0.5586659       119.6585
2010    13      5       0.5605989       119.8273
2010    13      6       0.608288        126.4025
2010    13      7       0.6477114       132.0842
2010    14      0       0.6918234       137.9249
2010    14      1       0.7863323       149.3435
2010    14      2       0.9260209       164.178
2010    14      3       0.991642        170.0853
2010    14      4       1.151199        184.4136
2010    14      5       1.458717        206.872
2010    14      6       1.776783        224.9036
2010    14      7       1.924658        232.7085
2010    15      0       1.791058        227.9844
2010    15      1       1.723074        224.8237
2010    15      2       1.662214        221.5857
2010    15      3       1.387945        205.46
2010    15      4       0.9291492       167.1415
2010    15      5       0.4521293       103.2215
2010    15      6       0.1784159       49.5794
2010    15      7       0.1149818       34.78907
2010    16      0       0.1287927       38.17227
2010    16      1       0.1452917       41.9607
2010    16      2       0.1541698       43.72556
2010    16      3       0.1641697       45.67746
2010    16      4       0.1652819       45.90293
2010    16      5       0.1680178       46.14857
2010    16      6       0.2045139       53.30987
2010    16      7       0.2923709       70.33192
2010    17      0       0.3536251       81.57909
2010    17      1       0.3970054       88.71619
2010    17      2       0.3627836       82.71673
2010    17      3       0.4125758       91.67547
2010    17      4       0.560649        116.3572
2010    17      5       0.8659329       156.0528
2010    17      6       1.277752        194.9856
2010    17      7       1.570704        215.8983
2010    18      0       1.801707        228.6365
2010    18      1       2.030515        238.6811
2010    18      2       2.144679        243.4693
2010    18      3       2.191651        245.0988
2010    18      4       2.090552        241.6191
2010    18      5       2.087206        241.1957
2010    18      6       2.058319        240.4868
2010    18      7       1.91439         235.6025
2010    19      0       1.779964        229.6871
2010    19      1       1.63132         222.3038
2010    19      2       1.412937        209.3995
2010    19      3       1.275769        199.455
2010    19      4       1.353905        205.2829
2010    19      5       1.387304        208.0474
2010    19      6       1.15436         190.6679
2010    19      7       1.045155        180.6756
2010    20      0       1.00893         176.7779
2010    20      1       1.001804        175.6154
2010    20      2       0.8737908       162.0626
2010    20      3       0.8904286       163.0327
2010    20      4       0.9731001       171.6663
2010    20      5       1.037218        177.8205
2010    20      6       1.079638        181.2205
2010    20      7       1.151251        187.1976
2010    21      0       1.16147         188.2246
2010    21      1       1.240142        194.1727
2010    21      2       1.335559        200.4811
2010    21      3       1.317361        198.4374
2010    21      4       1.323176        198.6076
2010    21      5       1.283946        195.942
2010    21      6       1.245706        193.2089
2010    21      7       1.148665        185.2803
2010    22      0       1.225763        191.4192
2010    22      1       1.401837        204.2379
2010    22      2       1.331294        199.7035
2010    22      3       1.154561        186.7346
2010    22      4       1.177388        189.2411
2010    22      5       1.131675        185.4799
2010    22      6       0.9492608       167.8764
2010    22      7       0.838544        155.3645
2010    23      0       0.7918452       149.6781
2010    23      1       0.8217662       152.6398
2010    23      2       0.6950999       137.7244
2010    23      3       0.6797941       135.0881
2010    23      4       0.748871        144.0891
2010    23      5       0.8375087       154.7752
2010    23      6       0.8778106       159.384
2010    23      7       0.9110778       163.3269
2010    24      0       0.8993913       162.4253
2010    24      1       0.829032        154.7415
2010    24      2       0.783996        149.5681
2010    24      3       0.7022979       139.5826
2010    24      4       0.7085533       139.7834
2010    24      5       0.7759602       147.6196
2010    24      6       0.9203736       163.2012
2010    24      7       1.113968        182.0401
2010    25      0       1.405029        203.7685
2010    25      1       1.733194        222.4356
2010    25      2       2.05845         237.0035
2010    25      3       2.518205        249.9453
2010    25      4       2.792224        255.4846
2010    25      5       1.471733        208.7115
2010    25      6       1.483618        209.8052
2010    25      7       1.047444        176.6971
2010    26      0       0.6970449       139.4194
2010    26      1       0.869093        161.0243
2010    26      2       0.5365943       117.0345
2010    26      3       0.2367102       61.87434
2010    26      4       0.4771619       106.8611
2010    26      5       0.4048282       94.81041
2010    26      6       0.2659002       68.1925
2010    26      7       0.24165         63.33011
2010    27      0       0.1941217       53.3647
2010    27      1       0.2105403       56.33248
2010    27      2       0.3380024       81.43501
2010    27      3       0.3014245       73.51209
2010    27      4       0.4570613       100.2023
2010    27      5       0.5732041       119.2205
2010    27      6       0.5966925       123.0945
2010    27      7       0.5994052       123.812
2010    28      0       0.8226162       153.273
2010    28      1       1.015033        174.1756
2010    28      2       0.7424904       143.1654
2010    28      3       0.9648071       168.482
2010    28      4       2.861044        257.3298
2010    28      5       2.965221        258.8929
2010    28      6       2.893574        257.7476
2010    28      7       3.148546        261.7616
2010    29      0       3.133289        261.4311
2010    29      1       2.725928        254.1884
2010    29      2       1.864277        227.8353
2010    29      3       2.260622        241.9323
2010    29      4       2.051391        236.8302
2010    29      5       1.60197         215.9957
2010    29      6       1.876251        228.3355
2010    29      7       1.897044        228.8474
2010    30      0       1.886541        229.2106
2010    30      1       2.156892        237.9805
2010    30      2       2.250465        238.3244
2010    30      3       1.755858        224.0359
2010    30      4       0.4991642       111.9547
2010    30      5       0.06275261      22.1946
2010    30      6       0.08261109      26.92966
2010    30      7       0.1319647       38.8367
2011    1       0       0.5276398       113.7304
2011    1       1       0.5883271       122.677
2011    1       2       0.6308888       128.6506
2011    1       3       0.7462157       144.3973
2011    1       4       0.8878447       160.686
2011    1       5       1.04955         176.6028
2011    1       6       1.279741        195.6588
2011    1       7       1.457663        208.4759
2011    2       0       1.450571        208.3886
2011    2       1       1.183068        191.4019
2011    2       2       1.306916        201.6848
2011    2       3       1.140459        188.2784
2011    2       4       0.8526323       158.494
2011    2       5       0.8159997       155.5013
2011    2       6       0.6782482       138.282
2011    2       7       0.5561876       120.1946
2011    3       0       0.6254154       131.0169
2011    3       1       0.8382202       161.1933
2011    3       2       0.6008016       128.0578
2011    3       3       0.5346144       116.9522
2011    3       4       0.7922934       153.0483
2011    3       5       0.9682451       173.4865
2011    3       6       0.905718        167.2504
2011    3       7       1.017202        179.2146
2011    4       0       1.079792        185.1517
2011    4       1       0.6511009       133.5195
2011    4       2       0.6030516       124.7915
2011    4       3       0.6448873       130.2371
2011    4       4       0.7061574       138.867
2011    4       5       0.78146         148.8942
2011    4       6       0.7174343       141.1443
2011    4       7       0.7073754       139.4023
2011    5       0       0.8673406       157.8387
2011    5       1       0.9324779       165.0571
2011    5       2       0.8924504       161.2031
2011    5       3       0.7790491       148.5804
2011    5       4       0.7990301       151.445
2011    5       5       0.9236093       164.9653
2011    5       6       0.8448267       156.6924
2011    5       7       0.9155246       166.0562
2011    6       0       1.064885        181.6669
2011    6       1       1.132089        188.1206
2011    6       2       1.380319        206.9348
2011    6       3       1.40446         208.3068
2011    6       4       1.284031        199.6906
2011    6       5       1.299273        200.5273
2011    6       6       1.478665        212.4853
2011    6       7       1.482834        212.8673
2011    7       0       1.508021        214.3777
2011    7       1       1.476618        211.9519
2011    7       2       1.578227        217.562
2011    7       3       1.639289        221.3272
2011    7       4       1.41011         208.1522
2011    7       5       1.342403        202.9515
2011    7       6       1.198073        191.9932
2011    7       7       1.05295         179.1111
2011    8       0       1.056676        178.5284
2011    8       1       1.07427         179.2492
2011    8       2       1.010957        171.4815
2011    8       3       1.0122          172.3587
2011    8       4       1.316542        198.2169
2011    8       5       1.161057        187.3956
2011    8       6       1.110822        183.5783
2011    8       7       0.9433028       167.9386
2011    9       0       0.7746125       149.1865
2011    9       1       0.7090113       141.4227
2011    9       2       1.174256        190.8081
2011    9       3       1.446703        210.3031
2011    9       4       1.467589        212.5611
2011    9       5       1.321337        203.0341
2011    9       6       1.027199        177.4361
2011    9       7       0.832744        155.1217
2011    10      0       0.7130758       138.718
2011    10      1       0.7005515       137.335
2011    10      2       0.6955765       135.7134
2011    10      3       0.6425027       127.7109
2011    10      4       0.6196418       124.2301
2011    10      5       0.6525958       129.3282
2011    10      6       0.8418555       153.3614
2011    10      7       1.233038        190.0631
2011    11      0       1.654146        217.4347
2011    11      1       2.139529        237.7693
2011    11      2       2.766364        254.0146
2011    11      3       3.019363        259.4255
2011    11      4       3.228731        263.0134
2011    11      5       2.840957        258.3728
2011    11      6       2.144946        242.7654
2011    11      7       1.09166         184.9598
2011    12      0       0.7875495       152.2203
2011    12      1       0.6492692       133.2544
2011    12      2       0.5988701       127.5841
2011    12      3       0.4548548       104.2255
2011    12      4       0.3876159       91.13554
2011    12      5       0.4978493       109.7001
2011    12      6       0.4624033       101.7876
2011    12      7       0.2867187       69.79749
2011    13      0       0.2590095       65.60349
2011    13      1       0.3219594       78.17269
2011    13      2       0.3697844       87.01368
2011    13      3       0.386984        90.00312
2011    13      4       0.4307779       97.60531
2011    13      5       0.5390163       115.3309
2011    13      6       0.5983947       124.3334
2011    13      7       0.5712863       120.1802
2011    14      0       0.6084965       124.9193
2011    14      1       0.5944284       122.5382
2011    14      2       0.5705352       119.4163
2011    14      3       0.5964163       124.0474
2011    14      4       0.7440381       145.1683
2011    14      5       0.7792924       149.9005
2011    14      6       0.7677021       148.6397
2011    14      7       0.778385        150.1177
2011    15      0       0.8460795       157.6898
2011    15      1       0.8901989       162.6341
2011    15      2       0.8148778       154.2001
2011    15      3       0.7297761       143.5392
2011    15      4       0.6635283       134.6473
2011    15      5       0.6021764       125.7338
2011    15      6       0.4306991       97.38633
2011    15      7       0.4341602       98.23483
2011    16      0       0.4205292       95.89267
2011    16      1       0.47499         104.1748
2011    16      2       0.536486        112.853
2011    16      3       0.5577373       115.5813
2011    16      4       0.6452939       127.8096
2011    16      5       0.7295088       138.4563
2011    16      6       0.7124567       136.6458
2011    16      7       0.6677742       131.7038
2011    17      0       0.8834854       158.9573
2011    17      1       1.260472        194.0032
2011    17      2       1.333904        199.558
2011    17      3       0.9443051       165.5992
2011    17      4       0.439752        99.62551
2011    17      5       0.2641911       67.96863
2011    17      6       0.2133536       57.05731
2011    17      7       0.2732218       68.76794
2011    18      0       0.2544116       64.62149
2011    18      1       0.2692694       67.46302
2011    18      2       0.2997391       73.53165
2011    18      3       0.2555714       65.29102
2011    18      4       0.2612007       65.93236
2011    18      5       0.3953833       90.34513
2011    18      6       0.5279684       112.8486
2011    18      7       0.6794853       135.0336
2011    19      0       0.8811568       160.0025
2011    19      1       1.223542        192.7311
2011    19      2       1.62424         219.5958
2011    19      3       1.671291        222.9896
2011    19      4       1.432644        209.7015
2011    19      5       1.469418        212.3226
2011    19      6       1.38363         207.4939
2011    19      7       0.8671793       162.0804
2011    20      0       0.4513156       103.135
2011    20      1       0.3772053       89.39821
2011    20      2       0.3351038       81.41878
2011    20      3       0.3667257       87.48866
2011    20      4       0.4089978       95.16839
2011    20      5       0.3938944       92.1543
2011    20      6       0.4231989       97.34803
2011    20      7       0.4834154       108.009
2011    21      0       0.5100302       112.3523
2011    21      1       0.5190419       113.3656
2011    21      2       0.5766134       122.0076
2011    21      3       0.6719286       135.2649
2011    21      4       0.7712118       147.8178
2011    21      5       0.8769319       160.0151
2011    21      6       1.025107        175.0826
2011    21      7       1.194317        189.6234
2011    22      0       0.8353132       155.0211
2011    22      1       0.2564557       65.26356
2011    22      2       0.1004546       30.52481
2011    22      3       0.1045852       31.46037
2011    22      4       0.1402644       39.56841
2011    22      5       0.1620737       44.3274
2011    22      6       0.1551004       42.7235
2011    22      7       0.155646        42.61981
2011    23      0       0.1436965       40.05499
2011    23      1       0.1264976       36.46984
2011    23      2       0.1527747       42.82257
2011    23      3       0.1566621       44.13051
2011    23      4       0.1581067       44.6032
2011    23      5       0.1973667       53.53913
2011    23      6       0.1632066       45.98818
2011    23      7       0.1175731       35.29008
2011    24      0       0.1424562       41.33295
2011    24      1       0.1902996       51.91719
2011    24      2       0.2016175       53.95289
2011    24      3       0.1915422       51.42468
2011    24      4       0.2347263       60.36699
2011    24      5       0.3039694       74.34032
2011    24      6       0.2830679       70.20873
2011    24      7       0.2004289       52.58094
2011    25      0       0.2049436       53.61353
2011    25      1       0.2159707       56.47746
2011    25      2       0.2134505       56.18432
2011    25      3       0.2185849       56.90722
2011    25      4       0.2237427       57.78771
2011    25      5       0.2792567       69.31117
2011    25      6       0.2926663       71.99714
2011    25      7       0.254504        63.72094
2011    26      0       0.293946        71.40869
2011    26      1       0.237818        59.88498
2011    26      2       0.191967        50.58008
2011    26      3       0.1743952       47.26756
2011    26      4       0.1711595       46.84293
2011    26      5       0.201239        53.41897
2011    26      6       0.2490854       63.61835
2011    26      7       0.2540765       64.95221
2011    27      0       0.2133809       56.54449
2011    27      1       0.1446236       41.09393
2011    27      2       0.1407389       40.3919
2011    27      3       0.1478454       42.22754
2011    27      4       0.1749072       48.47539
2011    27      5       0.2091772       55.94939
2011    27      6       0.2313965       60.27058
2011    27      7       0.292171        72.02542
2011    28      0       0.3933805       90.51511
2011    28      1       0.4609813       101.9776
2011    28      2       0.483767        105.737
2011    28      3       0.4712241       103.9565
2011    28      4       0.4342928       98.05818
2011    28      5       0.3823771       89.16908
2011    28      6       0.3416448       81.86027
2011    28      7       0.3518994       83.89498
2011    29      0       0.3952434       91.63872
2011    29      1       0.4132931       94.62589
2011    29      2       0.4011356       92.51656
2011    29      3       0.4004293       92.38598
2011    29      4       0.4204695       96.08427
2011    29      5       0.4394228       99.61977
2011    29      6       0.432304        98.60453
2011    29      7       0.4015485       93.41427
2011    30      0       0.3709274       87.805
2011    30      1       0.3443747       82.79279
2011    30      2       0.3270071       79.52384
2011    30      3       0.328368        79.71675
2011    30      4       0.3102983       76.19838
2011    30      5       0.2972445       73.55834
2011    30      6       0.2835676       70.81104
2011    30      7       0.2633339       66.65846
2012    1       0       1.925439        231.9006
2012    1       1       2.761317        255.5864
2012    1       2       3.044723        260.7605
2012    1       3       2.933819        259.4054
2012    1       4       2.917672        259.6603
2012    1       5       2.947215        259.8469
2012    1       6       2.90016         259.1861
2012    1       7       3.207166        263.9416
2012    2       0       3.563034        267.7169
2012    2       1       3.709545        269.2452
2012    2       2       3.869654        270.4929
2012    2       3       3.622953        268.255
2012    2       4       3.638181        267.9548
2012    2       5       3.663853        268.1363
2012    2       6       3.365832        265.7008
2012    2       7       2.973151        261.494
2012    3       0       3.068402        262.6706
2012    3       1       3.293283        264.7869
2012    3       2       2.943323        259.9637
2012    3       3       2.725715        256.2018
2012    3       4       2.196671        244.7464
2012    3       5       2.402369        250.8566
2012    3       6       3.313678        267.1266
2012    3       7       3.001449        261.7431
2012    4       0       2.993498        260.4732
2012    4       1       2.666391        255.2059
2012    4       2       2.650555        255.5071
2012    4       3       2.916809        259.24
2012    4       4       3.080361        261.5234
2012    4       5       3.035164        260.4657
2012    4       6       2.931159        258.6931
2012    4       7       2.975744        259.3968
2012    5       0       2.875984        257.549
2012    5       1       2.28817         244.7204
2012    5       2       2.073033        239.1297
2012    5       3       2.136516        241.1949
2012    5       4       1.918104        233.0853
2012    5       5       1.711174        224.2738
2012    5       6       1.176952        189.1044
2012    5       7       1.167884        188.2727
2012    6       0       1.477791        211.1117
2012    6       1       1.926194        233.4676
2012    6       2       2.35192         246.8636
2012    6       3       2.27134         245.1107
2012    6       4       2.193278        242.6812
2012    6       5       2.029541        236.7369
2012    6       6       2.016864        236.1055
2012    6       7       1.856768        230.2202
2012    7       0       1.30213         199.9072
2012    7       1       0.8520553       159.011
2012    7       2       0.7646202       148.2832
2012    7       3       0.6558821       133.8871
2012    7       4       0.4956505       109.9209
2012    7       5       0.5476706       117.9608
2012    7       6       0.5156564       112.8691
2012    7       7       0.5550768       119.0174
2012    8       0       0.6768135       136.5144
2012    8       1       0.5735431       121.6338
2012    8       2       0.3230496       78.88863
2012    8       3       0.3571896       84.93726
2012    8       4       0.5209976       112.9214
2012    8       5       0.7744859       148.1059
2012    8       6       0.6040092       125.5284
2012    8       7       0.4583338       103.357
2012    9       0       0.2087944       55.89139
2012    9       1       0.2646258       67.5048
2012    9       2       0.2261623       59.46876
2012    9       3       0.2339444       61.14839
2012    9       4       0.1773238       49.25766
2012    9       5       0.1797103       49.74726
2012    9       6       0.2700736       69.16462
2012    9       7       0.3127704       77.42732
2012    10      0       0.3172482       78.02689
2012    10      1       0.3928296       92.38882
2012    10      2       0.4812114       108.1022
2012    10      3       0.5599843       120.7381
2012    10      4       0.6707052       136.7168
2012    10      5       0.7403306       146.3768
2012    10      6       0.7675525       149.6316
2012    10      7       0.8031481       154.0734
2012    11      0       0.6741121       137.5237
2012    11      1       0.5006668       111.7225
2012    11      2       0.4070129       95.88231
2012    11      3       0.5747006       123.9692
2012    11      4       0.6968408       141.3139
2012    11      5       0.7313955       145.9406
2012    11      6       0.7358053       146.7067
2012    11      7       0.7523463       148.7845
2012    12      0       0.5623078       121.4024
2012    12      1       0.4893822       109.0745
2012    12      2       0.6496891       134.5195
2012    12      3       0.6693092       137.4734
2012    12      4       0.6719408       138.1636
2012    12      5       0.7360406       147.3877
2012    12      6       0.6941435       141.6711
2012    12      7       0.5410387       118.9097
2012    13      0       0.5598772       122.0393
2012    13      1       0.5883083       126.3977
2012    13      2       0.5712354       123.6705
2012    13      3       0.50894         113.6973
2012    13      4       0.4363906       101.6246
2012    13      5       0.4078713       96.64468
2012    13      6       0.3866867       92.83913
2012    13      7       0.4115008       96.97831
2012    14      0       0.4877288       108.9426
2012    14      1       0.5441948       115.8972
2012    14      2       0.6682494       132.4622
2012    14      3       0.6503945       130.2382
2012    14      4       0.3834679       89.10656
2012    14      5       0.246482        63.29973
2012    14      6       0.6445694       134.3958
2012    14      7       0.5954785       126.9766
2012    15      0       0.2446436       63.76859
2012    15      1       0.1983015       53.71478
2012    15      2       0.2266707       59.44196
2012    15      3       0.2584257       65.43765
2012    15      4       0.2706384       67.4545
2012    15      5       0.2676049       66.79732
2012    15      6       0.2711627       67.32506
2012    15      7       0.2666451       66.44351
2012    16      0       0.2924392       71.21077
2012    16      1       0.2828311       70.0354
2012    16      2       0.3399495       80.62031
2012    16      3       0.4397036       97.84154
2012    16      4       0.5828393       120.051
2012    16      5       0.6197535       126.0196
2012    16      6       0.5529941       116.4699
2012    16      7       0.5727758       119.9629
2012    17      0       0.5811426       122.7462
2012    17      1       0.3819505       90.77574
2012    17      2       0.3485171       84.74012
2012    17      3       0.415358        96.32658
2012    17      4       0.4263612       98.46747
2012    17      5       0.2716971       69.4453
2012    17      6       0.2126528       57.06884
2012    17      7       0.1722999       48.0376
2012    18      0       0.1617089       45.5802
2012    18      1       0.1662905       46.5369
2012    18      2       0.1654479       46.2015
2012    18      3       0.1652054       46.11378
2012    18      4       0.1780033       49.07666
2012    18      5       0.1872224       51.33224
2012    18      6       0.1840134       50.80497
2012    18      7       0.1810649       50.27755
2012    19      0       0.1755039       48.97511
2012    19      1       0.1624201       45.97396
2012    19      2       0.1585397       44.93998
2012    19      3       0.1594192       44.94008
2012    19      4       0.1694165       46.97648
2012    19      5       0.1852244       50.32052
2012    19      6       0.2177928       57.07277
2012    19      7       0.2605868       66.01636
2012    20      0       0.3102821       75.89356
2012    20      1       0.3859869       89.97567
2012    20      2       0.4549761       101.929
2012    20      3       0.4967579       109.0735
2012    20      4       0.4785632       107.0235
2012    20      5       0.4814011       107.7828
2012    20      6       0.4928824       109.4675
2012    20      7       0.4559019       103.1986
2012    21      0       0.4439375       100.3591
2012    21      1       0.4647066       103.61
2012    21      2       0.7035627       139.474
2012    21      3       1.58282         215.6738
2012    21      4       1.373876        203.6178
2012    21      5       0.9113814       164.4752
2012    21      6       0.3785637       89.564
2012    21      7       0.144632        41.07768
2012    22      0       0.1876646       50.78789
2012    22      1       0.2427254       62.46261
2012    22      2       0.3217747       78.21385
2012    22      3       0.4628482       103.1265
2012    22      4       0.5512417       117.5606
2012    22      5       0.6973051       138.0769
2012    22      6       0.7391294       144.1626
2012    22      7       0.7453958       145.1246
2012    23      0       0.6827835       136.5601
2012    23      1       0.4983484       110.0495
2012    23      2       0.4136213       96.2852
2012    23      3       0.5049537       111.1404
2012    23      4       0.9968839       170.8546
2012    23      5       1.292332        195.8883
2012    23      6       1.505769        212.3123
2012    23      7       1.52641         215.2586
2012    24      0       1.578638        218.6952
2012    24      1       1.618116        220.5497
2012    24      2       1.615008        219.7548
2012    24      3       1.566507        216.6046
2012    24      4       1.622261        219.6471
2012    24      5       1.820285        229.5147
2012    24      6       1.729377        225.571
2012    24      7       1.582875        217.6223
2012    25      0       1.488028        212.0488
2012    25      1       1.554188        215.5306
2012    25      2       1.992095        234.8719
2012    25      3       2.168786        240.5294
2012    25      4       1.529998        212.7061
2012    25      5       0.7828467       149.1782
2012    25      6       0.6103374       126.1831
2012    25      7       1.053252        177.7096
2012    26      0       1.290281        197.7042
2012    26      1       1.364718        202.8974
2012    26      2       0.8383819       156.3897
2012    26      3       0.7569316       146.984
2012    26      4       0.7754217       150.0883
2012    26      5       0.884433        163.3904
2012    26      6       0.9023416       165.289
2012    26      7       0.9442439       169.6926
2012    27      0       0.9238958       168.5292
2012    27      1       0.799886        154.4968
2012    27      2       0.7263093       144.9872
2012    27      3       0.5598676       121.253
2012    27      4       0.4166758       97.42113
2012    27      5       0.3401159       83.19838
2012    27      6       0.2321931       61.07749
2012    27      7       0.1900678       51.60835
2012    28      0       0.1910697       51.6806
2012    28      1       0.216274        56.95444
2012    28      2       0.2459597       63.01464
2012    28      3       0.2580014       65.51499
2012    28      4       0.2441597       62.9695
2012    28      5       0.232522        60.79682
2012    28      6       0.2321982       60.85503
2012    28      7       0.2233239       59.12534
2012    29      0       0.2426431       62.87746
2012    29      1       0.2673018       67.7389
2012    29      2       0.2736055       68.99338
2012    29      3       0.2533793       64.77321
2012    29      4       0.2212181       58.2624
2012    29      5       0.2228659       58.80381
2012    29      6       0.188288        51.43797
2012    29      7       0.1794579       49.20075
2012    30      0       0.24564         62.88796
2012    30      1       0.2737415       69.02314
2012    30      2       0.2025426       54.61788
2012    30      3       0.1034175       31.65792
2012    30      4       0.1467698       41.83665
2012    30      5       0.2271083       59.59399
2012    30      6       0.3956735       92.85122
2012    30      7       0.3301498       80.5568
2013    1       0       0.2010099       54.15691
2013    1       1       0.1511135       43.05017
2013    1       2       0.1492074       42.75556
2013    1       3       0.1551653       44.04204
2013    1       4       0.1918291       52.31478
2013    1       5       0.2482445       64.65372
2013    1       6       0.3021376       75.59611
2013    1       7       0.3361824       81.98239
2013    2       0       0.3659565       87.58737
2013    2       1       0.394303        93.06357
2013    2       2       0.4732494       106.8276
2013    2       3       0.5177745       114.3832
2013    2       4       0.6827932       138.7422
2013    2       5       0.9358414       168.062
2013    2       6       1.31398         199.2491
2013    2       7       1.625093        217.8649
2013    3       0       1.874296        229.0299
2013    3       1       1.968848        232.149
2013    3       2       2.141116        237.5669
2013    3       3       2.34584         243.0283
2013    3       4       2.493762        246.5763
2013    3       5       2.365934        244.1795
2013    3       6       2.188589        240.4583
2013    3       7       1.827163        228.775
2013    4       0       1.40886         207.1951
2013    4       1       1.04678         179.3664
2013    4       2       0.809286        154.1975
2013    4       3       0.6595829       134.6375
2013    4       4       0.586431        124.0844
2013    4       5       0.4646036       105.1101
2013    4       6       0.3487624       84.47653
2013    4       7       0.291291        73.30689
2013    5       0       0.2541565       65.50042
2013    5       1       0.2453649       63.38438
2013    5       2       0.2824522       71.0464
2013    5       3       0.3625512       86.46022
2013    5       4       0.4411399       99.26664
2013    5       5       0.5315799       113.0519
2013    5       6       0.6031733       123.6995
2013    5       7       0.6911716       135.2262
2013    6       0       0.8894739       158.8225
2013    6       1       1.211077        189.9667
2013    6       2       1.463353        209.0412
2013    6       3       1.814491        228.7668
2013    6       4       2.146703        241.8964
2013    6       5       2.282573        246.4172
2013    6       6       1.892152        233.6834
2013    6       7       1.551586        217.1411
2013    7       0       1.339229        203.606
2013    7       1       1.228636        194.8705
2013    7       2       1.013744        175.0044
2013    7       3       0.730041        142.0933
2013    7       4       0.5826259       122.1207
2013    7       5       0.4864678       108.6057
2013    7       6       0.4340188       100.4565
2013    7       7       0.4076893       95.71503
2013    8       0       0.4465094       102.1918
2013    8       1       0.4823399       108.3585
2013    8       2       0.512071        112.916
2013    8       3       0.5499312       118.6301
2013    8       4       0.5869777       124.5733
2013    8       5       0.6655877       135.7159
2013    8       6       0.7047385       140.914
2013    8       7       0.7045633       140.7918
2013    9       0       0.7776136       150.1183
2013    9       1       0.8661338       160.4533
2013    9       2       0.905301        164.0104
2013    9       3       0.9786852       170.346
2013    9       4       1.07534         178.6132
2013    9       5       1.125402        182.9963
2013    9       6       1.095361        180.6618
2013    9       7       1.067761        177.9253
2013    10      0       0.8641158       157.3651
2013    10      1       0.6459001       130.3043
2013    10      2       0.5786518       121.2862
2013    10      3       0.5648944       119.7505
2013    10      4       0.5410148       116.4746
2013    10      5       0.5252498       114.2757
2013    10      6       0.5277122       114.9058
2013    10      7       0.5265196       114.9582
2013    11      0       0.4941644       109.9874
2013    11      1       0.4687839       105.794
2013    11      2       0.4915422       109.4495
2013    11      3       0.5004457       110.8898
2013    11      4       0.5048956       111.8508
2013    11      5       0.5253339       115.2557
2013    11      6       0.5089031       112.5239
2013    11      7       0.4563696       103.72
2013    12      0       0.4350615       100.1019
2013    12      1       0.4406942       101.0517
2013    12      2       0.4619509       104.5518
2013    12      3       0.4903723       109.1129
2013    12      4       0.4895465       108.6609
2013    12      5       0.5069585       110.7044
2013    12      6       0.5609241       118.1664
2013    12      7       0.5803602       120.7247
2013    13      0       0.6136777       124.8823
2013    13      1       0.6020323       123.4642
2013    13      2       0.6169356       126.0467
2013    13      3       0.6807464       134.6322
2013    13      4       0.6826958       134.656
2013    13      5       0.6394928       128.7385
2013    13      6       0.6681647       132.2216
2013    13      7       0.709661        137.0382
2013    14      0       0.6705322       132.5119
2013    14      1       0.6964432       136.057
2013    14      2       0.7429298       141.8864
2013    14      3       0.7586447       144.0122
2013    14      4       0.7295789       140.929
2013    14      5       0.6768879       135.1092
2013    14      6       0.6831307       136.7258
2013    14      7       0.6871128       137.4994
2013    15      0       0.6735009       135.3582
2013    15      1       0.6415561       130.6135
2013    15      2       0.5708277       120.2354
2013    15      3       0.447908        100.6268
2013    15      4       0.3544873       84.11958
2013    15      5       0.2825349       70.4847
2013    15      6       0.2266417       59.35761
2013    15      7       0.1932717       52.33638
2013    16      0       0.1697754       47.13375
2013    16      1       0.1535724       43.51058
2013    16      2       0.1540153       43.49109
2013    16      3       0.1540587       43.22729
2013    16      4       0.1504944       42.20974
2013    16      5       0.1516144       42.3395
2013    16      6       0.1822632       49.13227
2013    16      7       0.2166394       56.22063
2013    17      0       0.2410681       60.74559
2013    17      1       0.251889        62.86096
2013    17      2       0.2529869       63.21799
2013    17      3       0.2258293       57.92365
2013    17      4       0.182714        49.03219
2013    17      5       0.1555113       43.46599
2013    17      6       0.1274981       37.22177
2013    17      7       0.1187313       35.33356
2013    18      0       0.1513137       43.00593
2013    18      1       0.238723        62.43186
2013    18      2       0.2466225       63.788
2013    18      3       0.2183725       57.28698
2013    18      4       0.2376229       60.92149
2013    18      5       0.2531422       63.47827
2013    18      6       0.2646101       65.45332
2013    18      7       0.238548        60.59545
2013    19      0       0.2384083       60.99349
2013    19      1       0.2405681       61.57006
2013    19      2       0.2797127       69.60454
2013    19      3       0.3888419       90.39013
2013    19      4       0.3699339       87.39902
2013    19      5       0.3401349       81.13884
2013    19      6       0.3696498       85.86557
2013    19      7       0.298507        72.14889
2013    20      0       0.2870923       69.70371
2013    20      1       0.4403076       96.37418
2013    20      2       0.6451511       128.2786
2013    20      3       0.8926934       159.595
2013    20      4       1.296837        196.1663
2013    20      5       1.106633        182.5096
2013    20      6       1.08825         182.0762
2013    20      7       1.24257         195.5863
2013    21      0       1.819607        230.0783
2013    21      1       2.192999        244.1249
2013    21      2       1.883425        233.2114
2013    21      3       1.591721        219.2446
2013    21      4       1.622139        221.0326
2013    21      5       1.776411        228.5365
2013    21      6       1.702103        225.4249
2013    21      7       1.578065        219.5915
2013    22      0       1.614435        222.3145
2013    22      1       1.645141        224.2223
2013    22      2       1.465173        213.6635
2013    22      3       1.25051         197.9391
2013    22      4       1.144367        188.5418
2013    22      5       1.058273        180.1304
2013    22      6       0.8328187       155.418
2013    22      7       0.6344295       128.1592
2013    23      0       0.587066        120.8065
2013    23      1       0.6576396       131.3194
2013    23      2       0.9376698       166.8026
2013    23      3       1.321372        202.6498
2013    23      4       1.507337        216.2179
2013    23      5       1.343388        205.8557
2013    23      6       1.166406        192.3531
2013    23      7       1.080094        184.7503
2013    24      0       0.8179257       156.5773
2013    24      1       0.737167        146.155
2013    24      2       0.6459829       133.9023
2013    24      3       0.5625003       121.404
2013    24      4       0.6604305       135.3689
2013    24      5       0.7509846       146.2736
2013    24      6       0.9169935       165.6018
2013    24      7       0.9605598       170.5991
2013    25      0       1.037084        178.4759
2013    25      1       1.091474        183.3259
2013    25      2       1.126638        185.5632
2013    25      3       1.191957        190.704
2013    25      4       1.095196        181.9883
2013    25      5       0.9692184       169.5503
2013    25      6       0.8965438       161.7101
2013    25      7       0.9016824       161.9588
2013    26      0       0.9464869       166.252
2013    26      1       0.9823518       169.2529
2013    26      2       1.024345        173.1201
2013    26      3       0.9530871       167.2795
2013    26      4       0.9136323       163.9627
2013    26      5       0.9732351       169.9649
2013    26      6       1.064364        178.993
2013    26      7       1.102811        182.9067
2013    27      0       1.039453        177.3102
2013    27      1       1.153887        186.8507
2013    27      2       1.228962        193.3894
2013    27      3       1.230592        193.6443
2013    27      4       1.114084        183.8796
2013    27      5       1.070698        179.9892
2013    27      6       1.308976        199.4439
2013    27      7       1.641462        219.8033
2013    28      0       1.867653        230.1119
2013    28      1       1.729027        223.7923
2013    28      2       1.349246        201.6615
2013    28      3       1.122271        184.1145
2013    28      4       0.7986981       152.486
2013    28      5       0.4379618       100.6525
2013    28      6       0.3040695       75.86972
2013    28      7       0.2866206       72.52219
2013    29      0       0.2660678       68.05589
2013    29      1       0.231353        60.45359
2013    29      2       0.2511922       63.29759
2013    29      3       0.3452174       80.54834
2013    29      4       0.5957198       121.9118
2013    29      5       1.147099        183.8922
2013    29      6       2.028562        234.8244
2013    29      7       2.887362        257.468
2013    30      0       2.826766        256.8101
2013    30      1       2.848203        256.7248
2013    30      2       2.927542        257.9393
2013    30      3       3.007909        258.8795
2013    30      4       2.932102        258.0607
2013    30      5       2.909301        258.0591
2013    30      6       2.802275        256.6708
2013    30      7       2.608529        253.3522
2014    1       0       0.5846764       125.3575
2014    1       1       0.554859        120.6825
2014    1       2       0.4633043       105.8259
2014    1       3       0.4212944       98.25166
2014    1       4       0.4832775       108.7006
2014    1       5       0.5637439       121.3178
2014    1       6       0.4884034       109.7981
2014    1       7       0.4779304       108.2834
2014    2       0       0.5003431       111.6245
2014    2       1       0.4758795       107.1094
2014    2       2       0.4524672       102.8861
2014    2       3       0.466244        105.1314
2014    2       4       0.5116498       112.5782
2014    2       5       0.5867223       123.9649
2014    2       6       0.4684804       105.2833
2014    2       7       0.418819        96.17051
2014    3       0       0.3936384       92.53775
2014    3       1       0.4669464       105.2779
2014    3       2       0.5597822       119.8768
2014    3       3       0.5904556       124.2555
2014    3       4       0.5802734       122.9115
2014    3       5       0.5406725       116.9044
2014    3       6       0.5510051       118.5244
2014    3       7       0.566329        120.6216
2014    4       0       0.5889924       123.8477
2014    4       1       0.5806337       122.8255
2014    4       2       0.6571566       133.8184
2014    4       3       0.7309957       143.6892
2014    4       4       0.8652941       160.1549
2014    4       5       0.9591706       170.5974
2014    4       6       0.9494892       168.6627
2014    4       7       1.249698        195.9142
2014    5       0       1.726878        226.943
2014    5       1       1.773344        230.2598
2014    5       2       1.569565        220.3242
2014    5       3       1.52251         218.1831
2014    5       4       1.421849        212.7385
2014    5       5       1.260896        201.2187
2014    5       6       1.054678        183.3844
2014    5       7       1.002509        177.9649
2014    6       0       1.059845        183.616
2014    6       1       1.103477        187.6286
2014    6       2       1.156076        192.4105
2014    6       3       1.184045        194.6773
2014    6       4       1.198395        195.8174
2014    6       5       1.235917        198.6733
2014    6       6       1.156643        191.6921
2014    6       7       1.072966        183.9178
2014    7       0       1.148177        190.2073
2014    7       1       1.273814        199.8585
2014    7       2       1.340729        204.5071
2014    7       3       1.400755        208.3339
2014    7       4       1.513451        215.1355
2014    7       5       1.559853        217.9864
2014    7       6       1.530482        215.8522
2014    7       7       1.454638        211.0632
2014    8       0       1.383346        206.6784
2014    8       1       1.32273         202.6574
2014    8       2       1.121772        186.5798
2014    8       3       0.9383476       168.7032
2014    8       4       0.8097047       154.6845
2014    8       5       0.6307022       131.8061
2014    8       6       0.4312397       100.0882
2014    8       7       0.3211272       79.05983
2014    9       0       0.4087966       94.726
2014    9       1       0.422324        98.25771
2014    9       2       0.4214479       98.53615
2014    9       3       0.5021393       111.8447
2014    9       4       0.5775607       123.5112
2014    9       5       0.6959474       140.1254
2014    9       6       1.010538        176.2551
2014    9       7       1.131734        187.6666
2014    10      0       1.209059        194.0988
2014    10      1       1.568692        219.693
2014    10      2       1.742015        228.9343
2014    10      3       1.769267        230.14
2014    10      4       1.653577        223.9408
2014    10      5       1.503597        215.5298
2014    10      6       1.281311        200.252
2014    10      7       1.037839        180.6378
2014    11      0       0.7819436       152.9525
2014    11      1       0.6400663       133.799
2014    11      2       0.5539401       120.4912
2014    11      3       0.5744569       123.262
2014    11      4       0.5956038       126.4827
2014    11      5       0.573539        123.1947
2014    11      6       0.5195948       114.6208
2014    11      7       0.4522768       103.2879
2014    12      0       0.4023472       94.40041
2014    12      1       0.3489386       84.30971
2014    12      2       0.3020942       75.22175
2014    12      3       0.3009325       74.65037
2014    12      4       0.3407239       81.68583
2014    12      5       0.371549        86.81795
2014    12      6       0.37188         86.59587
2014    12      7       0.3488393       82.55732
2014    13      0       0.3253209       78.66689
2014    13      1       0.3574425       84.09874
2014    13      2       0.3533205       83.63863
2014    13      3       0.3547724       84.52481
2014    13      4       0.3709685       87.65404
2014    13      5       0.3762434       88.32901
2014    13      6       0.3733471       87.56074
2014    13      7       0.3445957       82.46048
2014    14      0       0.3446985       82.68416
2014    14      1       0.3658046       86.89795
2014    14      2       0.3969087       92.64138
2014    14      3       0.4301223       98.28279
2014    14      4       0.4776674       105.9445
2014    14      5       0.5569131       118.163
2014    14      6       0.7313554       142.89
2014    14      7       0.9944243       172.8605
2014    15      0       1.392107        205.029
2014    15      1       1.91564         231.9903
2014    15      2       2.000625        235.4336
2014    15      3       1.873841        230.6597
2014    15      4       1.849422        229.9886
2014    15      5       1.722442        224.5541
2014    15      6       1.517144        213.248
2014    15      7       1.321829        200.328
2014    16      0       1.553733        214.7603
2014    16      1       1.757107        225.0603
2014    16      2       1.79687         226.9142
2014    16      3       1.900718        231.6751
2014    16      4       1.750217        225.6335
2014    16      5       1.645203        220.3366
2014    16      6       1.601369        217.8113
2014    16      7       1.360788        203.3981
2014    17      0       1.090704        182.3662
2014    17      1       0.9939333       173.2435
2014    17      2       1.113537        183.6858
2014    17      3       1.0795          181.0759
2014    17      4       0.9384835       168.4119
2014    17      5       0.7656211       149.3717
2014    17      6       0.6942882       139.3173
2014    17      7       0.6637594       134.6609
2014    18      0       0.5052185       110.121
2014    18      1       0.4866318       107.0312
2014    18      2       0.6288151       129.3953
2014    18      3       0.9781039       172.1915
2014    18      4       1.514981        214.1578
2014    18      5       1.936945        234.1996
2014    18      6       2.123492        240.3765
2014    18      7       2.534975        251.1924
2014    19      0       2.884889        257.1257
2014    19      1       2.068557        235.6226
2014    19      2       0.8325241       153.8748
2014    19      3       0.368634        85.96752
2014    19      4       0.5205455       110.9441
2014    19      5       1.105675        180.1509
2014    19      6       0.390396        89.46099
2014    19      7       0.4285101       95.77361
2014    20      0       0.3784657       87.58461
2014    20      1       0.3884979       89.37015
2014    20      2       0.5492364       115.5732
2014    20      3       0.6716325       132.8676
2014    20      4       0.7069768       137.3886
2014    20      5       0.8219531       151.7609
2014    20      6       1.077125        177.1684
2014    20      7       0.9868229       168.0956
2014    21      0       1.409018        199.7367
2014    21      1       1.192773        184.3649
2014    21      2       1.166264        183.6229
2014    21      3       0.9196563       162.7972
2014    21      4       0.9890171       171.0511
2014    21      5       0.7509013       145.2186
2014    21      6       0.5418692       116.2569
2014    21      7       0.4769899       104.7498
2014    22      0       0.4104865       93.10571
2014    22      1       0.3750468       87.19605
2014    22      2       0.4968327       107.5276
2014    22      3       0.6396731       128.6118
2014    22      4       0.7439356       144.2388
2014    22      5       0.8518442       158.4978
2014    22      6       0.9829898       174.4979
2014    22      7       0.2823715       72.00521
2014    23      0       0.3299452       80.72693
2014    23      1       0.3172394       77.88287
2014    23      2       0.5609257       118.5735
2014    23      3       0.7152349       140.4657
2014    23      4       0.8553411       158.9765
2014    23      5       0.4013679       95.27065
2014    23      6       0.1682741       47.48216
2014    23      7       0.1687365       46.79319
2014    24      0       0.1965229       52.55357
2014    24      1       0.2159246       56.48666
2014    24      2       0.2900789       71.12123
2014    24      3       0.3680017       85.25447
2014    24      4       0.4201485       94.63906
2014    24      5       0.4266057       96.22639
2014    24      6       0.3830623       88.98979
2014    24      7       0.3660491       86.2804
2014    25      0       0.3999433       92.41856
2014    25      1       0.4134356       94.84033
2014    25      2       0.3586841       85.28939
2014    25      3       0.3115144       76.20946
2014    25      4       0.2598417       65.86326
2014    25      5       0.2266234       58.86491
2014    25      6       0.19987         52.83154
2014    25      7       0.1865532       49.56637
2014    26      0       0.2412121       60.96006
2014    26      1       0.2903328       70.99894
2014    26      2       0.3306663       79.02911
2014    26      3       0.5156001       111.2722
2014    26      4       0.4834157       106.1187
2014    26      5       0.2573955       64.85242
2014    26      6       0.1935762       51.49404
2014    26      7       0.355045        83.95236
2014    27      0       0.7911729       150.1172
2014    27      1       1.115704        184.0564
2014    27      2       1.226041        193.7485
2014    27      3       1.373352        204.7185
2014    27      4       1.759216        227.2882
2014    27      5       1.838126        230.8203
2014    27      6       1.532146        214.5364
2014    27      7       2.191067        242.2175
2014    28      0       2.483475        252.0385
2014    28      1       2.57671         253.4072
2014    28      2       2.730588        258.2732
2014    28      3       2.249002        248.0272
2014    28      4       1.376495        207.2785
2014    28      5       1.06321         183.0538
2014    28      6       0.5686841       123.6048
2014    28      7       0.4038658       96.01083
2014    29      0       0.2779261       71.35201
2014    29      1       0.2322707       61.56035
2014    29      2       0.1905035       52.82501
2014    29      3       0.2107596       57.00927
2014    29      4       0.2692348       69.43455
2014    29      5       0.3020335       76.0371
2014    29      6       0.3221508       79.65074
2014    29      7       0.2858483       72.09953
2014    30      0       0.2815452       71.30195
2014    30      1       0.3056077       75.74285
2014    30      2       0.2747231       69.42722
2014    30      3       0.1834355       49.9716
2014    30      4       0.1929879       51.43996
2014    30      5       0.2016676       53.74111
2014    30      6       0.2296289       59.78691
2014    30      7       0.2114709       56.37768
2015    1       0       0.5667854       120.2082
2015    1       1       0.6974587       138.735
2015    1       2       1.031395        177.7721
2015    1       3       1.174888        191.0959
2015    1       4       1.230328        195.6949
2015    1       5       1.264471        198.2248
2015    1       6       1.260291        198.0339
2015    1       7       1.246273        196.8837
2015    2       0       1.075598        181.8252
2015    2       1       0.8762199       161.0853
2015    2       2       0.7019739       138.9222
2015    2       3       1.063173        178.1471
2015    2       4       1.552443        215.2685
2015    2       5       1.601776        218.9319
2015    2       6       1.196248        192.5043
2015    2       7       0.9145819       166.4648
2015    3       0       0.6831699       137.5802
2015    3       1       0.5364981       115.3092
2015    3       2       0.5999735       125.8814
2015    3       3       0.8170092       155.3968
2015    3       4       1.07542         182.6931
2015    3       5       1.363873        205.6429
2015    3       6       1.300992        201.1033
2015    3       7       1.060538        181.3532
2015    4       0       0.9118058       166.797
2015    4       1       0.8569372       160.7
2015    4       2       0.8455505       159.1981
2015    4       3       0.8099841       154.8297
2015    4       4       0.7646791       149.3995
2015    4       5       0.6939563       140.3443
2015    4       6       0.6101005       128.5374
2015    4       7       0.5999231       127.0007
2015    5       0       0.6040167       127.5226
2015    5       1       0.533433        116.735
2015    5       2       0.4408291       101.4046
2015    5       3       0.374745        89.5486
2015    5       4       0.3364925       82.36861
2015    5       5       0.3205225       79.25858
2015    5       6       0.3066326       76.52491
2015    5       7       0.3050632       76.15671
2015    6       0       0.3451857       83.71134
2015    6       1       0.3701402       88.23238
2015    6       2       0.3816576       90.08189
2015    6       3       0.4243248       97.30543
2015    6       4       0.5554279       118.4227
2015    6       5       0.7509618       145.4795
2015    6       6       0.8575504       158.7504
2015    6       7       0.8782809       161.719
2015    7       0       0.8157242       154.6686
2015    7       1       0.7924521       151.5309
2015    7       2       0.8609715       159.4399
2015    7       3       0.9493851       168.9944
2015    7       4       0.9454089       168.7596
2015    7       5       0.9859751       173.1778
2015    7       6       1.229797        196.0934
2015    7       7       1.331086        204.4295
2015    8       0       1.510433        216.1248
2015    8       1       1.63183         222.3601
2015    8       2       1.510214        215.2084
2015    8       3       1.354969        205.1371
2015    8       4       1.313666        202.2858
2015    8       5       1.212754        195.0227
2015    8       6       1.026553        178.988
2015    8       7       0.9323365       169.6203
2015    9       0       0.9879598       174.8374
2015    9       1       0.8760322       162.3306
2015    9       2       0.7244738       143.8442
2015    9       3       0.6543276       133.8558
2015    9       4       0.6156715       127.8518
2015    9       5       0.6231467       128.989
2015    9       6       0.7358781       143.9783
2015    9       7       0.8096378       152.9235
2015    10      0       0.9102514       164.2801
2015    10      1       0.9078309       164.2291
2015    10      2       0.8918044       162.4518
2015    10      3       0.8817305       161.1913
2015    10      4       0.9447837       167.0613
2015    10      5       1.038911        176.146
2015    10      6       1.092537        180.5748
2015    10      7       1.145624        184.9936
2015    11      0       1.140523        185.331
2015    11      1       1.163702        186.9461
2015    11      2       1.055024        177.0516
2015    11      3       1.042465        174.7277
2015    11      4       1.016788        171.2981
2015    11      5       0.792104        148.1759
2015    11      6       0.6878          135.5531
2015    11      7       0.700513        136.2011
2015    12      0       0.7740487       145.3335
2015    12      1       0.9566728       167.0787
2015    12      2       0.9270285       164.6659
2015    12      3       0.8324781       154.2203
2015    12      4       0.8328997       154.624
2015    12      5       0.9373983       166.4666
2015    12      6       0.8235687       153.8955
2015    12      7       0.843167        156.163
2015    13      0       0.9619455       168.9683
2015    13      1       0.9696929       169.9753
2015    13      2       0.8959743       161.9
2015    13      3       0.8186068       152.9498
2015    13      4       0.8113906       152.3084
2015    13      5       0.8538121       157.4641
2015    13      6       0.7927119       150.4176
2015    13      7       0.6908136       137.4548
2015    14      0       0.7576547       146.041
2015    14      1       0.9480689       167.4847
2015    14      2       0.9566505       168.1689
2015    14      3       0.9364878       165.6415
2015    14      4       0.9908508       170.8619
2015    14      5       1.096559        180.466
2015    14      6       1.182866        187.9766
2015    14      7       1.286277        196.4234
2015    15      0       1.470159        208.7673
2015    15      1       1.325634        199.8088
2015    15      2       1.313486        199.4586
2015    15      3       1.340391        201.6099
2015    15      4       1.354236        203.2465
2015    15      5       1.315407        201.1336
2015    15      6       1.293396        199.5138
2015    15      7       1.304973        200.0245
2015    16      0       1.209765        192.5408
2015    16      1       1.06115         179.6659
2015    16      2       0.9810018       172.0895
2015    16      3       0.8742868       161.2031
2015    16      4       0.7705106       149.2107
2015    16      5       0.7016742       140.4225
2015    16      6       0.5606579       120.4231
2015    16      7       0.4812956       107.578
2015    17      0       0.4607794       103.8151
2015    17      1       0.463689        104.0372
2015    17      2       0.4775994       106.1369
2015    17      3       0.4729556       105.0098
2015    17      4       0.4977458       109.1365
2015    17      5       0.5048994       110.5266
2015    17      6       0.4926135       108.8309
2015    17      7       0.474074        106.0623
2015    18      0       0.4141892       96.11154
2015    18      1       0.2941461       73.72091
2015    18      2       0.1756691       48.50573
2015    18      3       0.1647082       45.995
2015    18      4       0.1886232       51.41613
2015    18      5       0.2100029       56.19012
2015    18      6       0.2363579       61.94026
2015    18      7       0.2648899       68.0023
2015    19      0       0.2889746       72.9444
2015    19      1       0.261941        67.41708
2015    19      2       0.2360582       61.86775
2015    19      3       0.2524455       65.2471
2015    19      4       0.3378903       82.48921
2015    19      5       0.3286633       80.69461
2015    19      6       0.3029891       75.71247
2015    19      7       0.2903498       73.19935
2015    20      0       0.2883492       72.48926
2015    20      1       0.3022842       74.85351
2015    20      2       0.3065787       75.5348
2015    20      3       0.3008867       74.61254
2015    20      4       0.3236109       79.30673
2015    20      5       0.3429854       83.06166
2015    20      6       0.3120947       77.31916
2015    20      7       0.25857         66.9688
2015    21      0       0.245024        64.14902
2015    21      1       0.2437524       63.70797
2015    21      2       0.2650747       67.95854
2015    21      3       0.2633527       67.85722
2015    21      4       0.2722556       69.89345
2015    21      5       0.2705507       69.77695
2015    21      6       0.275314        70.6904
2015    21      7       0.2673485       69.01178
2015    22      0       0.1924422       52.77238
2015    22      1       0.1556633       44.0981
2015    22      2       0.125121        36.61389
2015    22      3       0.1049261       31.38089
2015    22      4       0.2483334       63.30545
2015    22      5       0.53359         116.5288
2015    22      6       0.7142909       143.1667
2015    22      7       0.6825834       138.4204
2015    23      0       0.5592664       119.5512
2015    23      1       0.4890357       106.995
2015    23      2       0.3568301       83.83496
2015    23      3       0.2690165       66.97797
2015    23      4       0.218819        57.07401
2015    23      5       0.2268079       59.2245
2015    23      6       0.2623114       66.69833
2015    23      7       0.2964963       73.60157
2015    24      0       0.3274742       79.78824
2015    24      1       0.3035069       75.81858
2015    24      2       0.2200194       58.86894
2015    24      3       0.2138966       57.49141
2015    24      4       0.2679284       69.01803
2015    24      5       0.3396564       83.16356
2015    24      6       0.3598711       86.43526
2015    24      7       0.3651307       86.69879
2015    25      0       0.365751        86.12407
2015    25      1       0.3659348       85.94716
2015    25      2       0.4293455       97.07728
2015    25      3       0.5208578       111.998
2015    25      4       0.623254        127.2356
2015    25      5       0.6954858       137.0948
2015    25      6       0.7151302       139.5008
2015    25      7       0.7464575       143.3421
2015    26      0       0.7487188       143.8671
2015    26      1       0.7216172       140.7757
2015    26      2       0.6976897       137.9439
2015    26      3       0.6789616       135.5886
2015    26      4       0.7073263       139.3018
2015    26      5       0.7077747       139.4868
2015    26      6       0.6800775       135.9467
2015    26      7       0.6381714       130.254
2015    27      0       0.601502        125.178
2015    27      1       0.5693935       120.5094
2015    27      2       0.5077067       110.866
2015    27      3       0.416731        95.48749
2015    27      4       0.340412        81.58968
2015    27      5       0.3704811       87.38517
2015    27      6       0.4944418       109.0476
2015    27      7       0.5903352       123.9397
2015    28      0       0.6386813       130.6773
2015    28      1       0.6781832       135.8218
2015    28      2       0.6838126       136.7547
2015    28      3       0.6846398       137.1889
2015    28      4       0.668323        135.0456
2015    28      5       0.6445959       131.3377
2015    28      6       0.5485514       117.6526
2015    28      7       0.4720827       105.487
2015    29      0       0.4366496       99.23937
2015    29      1       0.3701749       87.44306
2015    29      2       0.3000521       74.2304
2015    29      3       0.2602288       66.04566
2015    29      4       0.3005137       73.62915
2015    29      5       0.4613241       102.8473
2015    29      6       1.103297        179.6625
2015    29      7       1.591092        215.4788
2015    30      0       1.19509         191.0541
2015    30      1       1.178206        189.6805
2015    30      2       1.418112        206.9721
2015    30      3       1.610816        218.2489
2015    30      4       1.358911        202.5674
2015    30      5       0.9448249       167.2257
2015    30      6       0.9046459       163.4024
2015    30      7       0.79505         151.0792
2016    1       0       0.1433457       42.00393
2016    1       1       0.136281        40.19894
2016    1       2       0.1360035       39.94486
2016    1       3       0.125744        37.20859
2016    1       4       0.1506368       42.5056
2016    1       5       0.1786366       48.39452
2016    1       6       0.181917        49.00516
2016    1       7       0.1650988       46.06371
2016    2       0       0.1792093       49.52184
2016    2       1       0.2158875       57.67721
2016    2       2       0.1837961       50.7656
2016    2       3       0.1448489       41.72888
2016    2       4       0.1853052       50.06043
2016    2       5       0.3732923       86.18473
2016    2       6       0.4624619       101.7522
2016    2       7       0.8253651       151.9066
2016    3       0       1.101085        179.6519
2016    3       1       1.14746         182.2338
2016    3       2       0.7505801       142.1697
2016    3       3       0.7734414       143.6986
2016    3       4       1.214581        186.3361
2016    3       5       1.397156        200.5058
2016    3       6       0.8303103       153.0325
2016    3       7       0.839883        154.5467
2016    4       0       0.8420181       155.2413
2016    4       1       0.8349126       154.683
2016    4       2       1.069028        178.5262
2016    4       3       1.12527         183.1078
2016    4       4       1.311987        198.0911
2016    4       5       1.434314        206.8414
2016    4       6       1.290252        197.1568
2016    4       7       1.184973        188.7228
2016    5       0       1.43254         206.6236
2016    5       1       1.765126        224.9712
2016    5       2       1.871413        229.3242
2016    5       3       1.66427         218.045
2016    5       4       1.724698        220.3127
2016    5       5       1.698664        219.1224
2016    5       6       1.780734        223.2522
2016    5       7       2.091834        236.2547
2016    6       0       2.059468        236.6587
2016    6       1       1.490444        211.7425
2016    6       2       1.138156        186.4347
2016    6       3       1.002429        173.7144
2016    6       4       1.058232        179.0099
2016    6       5       1.057414        179.1594
2016    6       6       0.9554774       169.8812
2016    6       7       0.7787508       150.2704
2016    7       0       0.7665734       148.6574
2016    7       1       0.8368429       156.7376
2016    7       2       0.9167627       165.3633
2016    7       3       1.045402        179.3764
2016    7       4       0.9597902       171.7664
2016    7       5       0.6924104       140.9411
2016    7       6       0.4625789       106.3125
2016    7       7       0.2089007       56.91355
2016    8       0       0.1501648       43.40678
2016    8       1       0.1670496       47.27163
2016    8       2       0.178309        49.76027
2016    8       3       0.1976137       53.79655
2016    8       4       0.211871        56.66743
2016    8       5       0.2202505       58.13915
2016    8       6       0.22731         59.39006
2016    8       7       0.231769        60.21697
2016    9       0       0.2305647       59.86972
2016    9       1       0.2306731       59.85841
2016    9       2       0.2479445       63.31556
2016    9       3       0.2698372       67.64475
2016    9       4       0.2937619       72.28359
2016    9       5       0.3016883       73.7753
2016    9       6       0.2613336       66.36434
2016    9       7       0.2365532       61.84597
2016    10      0       0.2175216       58.33825
2016    10      1       0.2178398       58.54876
2016    10      2       0.2347089       62.25781
2016    10      3       0.2492447       65.47091
2016    10      4       0.2364952       62.90919
2016    10      5       0.2573969       67.38781
2016    10      6       0.317414        79.46934
2016    10      7       0.3696023       89.2889
2016    11      0       0.363503        87.60817
2016    11      1       0.4327501       99.37609
2016    11      2       0.6888788       139.722
2016    11      3       0.804546        154.454
2016    11      4       0.7025547       141.4582
2016    11      5       0.6034852       126.9277
2016    11      6       0.5302369       115.3399
2016    11      7       0.5725186       121.3242
2016    12      0       0.5739921       121.3161
2016    12      1       0.5617351       119.1657
2016    12      2       0.5379788       115.0127
2016    12      3       0.5765534       120.9922
2016    12      4       0.8809495       161.0457
2016    12      5       0.926567        166.286
2016    12      6       0.8180622       153.6939
2016    12      7       0.9046368       162.4557
2016    13      0       1.136941        184.3052
2016    13      1       1.162544        186.8758
2016    13      2       1.001957        173.2973
2016    13      3       0.8758527       160.8788
2016    13      4       0.7158949       142.3289
2016    13      5       0.5069618       112.6569
2016    13      6       0.4650141       105.4919
2016    13      7       0.5649302       121.2818
2016    14      0       0.9142959       165.4226
2016    14      1       1.273062        196.6471
2016    14      2       1.328918        200.4135
2016    14      3       1.543842        213.7244
2016    14      4       1.775675        225.4374
2016    14      5       2.097485        238.4398
2016    14      6       2.336767        245.7078
2016    14      7       2.444103        248.1724
2016    15      0       2.228518        241.8662
2016    15      1       2.127872        238.2248
2016    15      2       1.988246        232.8345
2016    15      3       2.022348        233.8035
2016    15      4       1.894172        228.7512
2016    15      5       1.61999         215.6906
2016    15      6       1.440128        205.0748
2016    15      7       1.27781         194.0821
2016    16      0       1.262539        194.6509
2016    16      1       0.7975921       150.0589
2016    16      2       0.6775969       135.03
2016    16      3       0.6326195       128.9345
2016    16      4       0.6690011       134.145
2016    16      5       0.66072         133.3621
2016    16      6       0.656558        133.1167
2016    16      7       0.6890168       137.5371
2016    17      0       0.7283748       142.7814
2016    17      1       0.8096641       152.9259
2016    17      2       0.9573808       169.4148
2016    17      3       1.075473        181.0912
2016    17      4       1.068171        180.6789
2016    17      5       1.030916        177.2227
2016    17      6       1.157866        188.8625
2016    17      7       1.421173        208.6141
2016    18      0       1.743017        226.1179
2016    18      1       1.739083        225.4399
2016    18      2       1.642646        220.5397
2016    18      3       1.525129        213.3861
2016    18      4       1.354184        202.026
2016    18      5       1.355915        202.2404
2016    18      6       1.410139        205.8211
2016    18      7       1.468492        209.5931
2016    19      0       1.274639        197.1965
2016    19      1       1.181066        190.0228
2016    19      2       1.20051         191.7917
2016    19      3       1.236141        194.6949
2016    19      4       1.152614        188.5164
2016    19      5       1.146168        188.2053
2016    19      6       1.109056        185.3878
2016    19      7       1.027405        178.1643
2016    20      0       0.9289168       168.3636
2016    20      1       0.8292714       157.2357
2016    20      2       0.7680802       150.4121
2016    20      3       0.8250318       157.0753
2016    20      4       0.7181303       143.1659
2016    20      5       0.7598023       147.8208
2016    20      6       0.7761504       149.4345
2016    20      7       0.9375136       166.9122
2016    21      0       1.148453        186.9099
2016    21      1       1.240968        193.5629
2016    21      2       1.259132        193.5641
2016    21      3       1.339621        199.0354
2016    21      4       1.527822        211.3362
2016    21      5       1.501449        210.546
2016    21      6       0.7043765       139.3067
2016    21      7       0.3583688       85.06333
2016    22      0       0.353074        83.88999
2016    22      1       0.3032778       75.19914
2016    22      2       0.2515695       65.22842
2016    22      3       0.2084412       55.81279
2016    22      4       0.2735573       68.84278
2016    22      5       0.3266284       79.16127
2016    22      6       0.3134531       76.05387
2016    22      7       0.2886949       70.44037
2016    23      0       0.2955961       71.71592
2016    23      1       0.3196789       76.53348
2016    23      2       0.3745235       86.3901
2016    23      3       0.4306949       96.16463
2016    23      4       0.4903353       106.2686
2016    23      5       0.5072031       109.101
2016    23      6       0.4905673       106.385
2016    23      7       0.4966181       107.3007
2016    24      0       0.5687163       118.3582
2016    24      1       0.6428095       128.7524
2016    24      2       0.6569286       130.6475
2016    24      3       0.6587153       130.9764
2016    24      4       0.6516218       130.5199
2016    24      5       0.6119015       125.5276
2016    24      6       0.5414755       115.4538
2016    24      7       0.4697371       104.144
2016    25      0       0.4068219       94.12309
2016    25      1       0.3978532       92.85679
2016    25      2       0.4096476       94.98183
2016    25      3       0.5059465       110.8722
2016    25      4       0.7682246       147.757
2016    25      5       1.322571        201.4342
2016    25      6       0.6137821       129.6669
2016    25      7       0.1951996       53.0162
2016    26      0       0.1688406       46.65123
2016    26      1       0.1472281       41.93967
2016    26      2       0.1474081       42.18962
2016    26      3       0.1333019       38.96165
2016    26      4       0.1465999       41.61103
2016    26      5       0.2051633       54.60939
2016    26      6       0.2437336       62.79806
2016    26      7       0.2416687       62.35619
2016    27      0       0.2556906       65.5113
2016    27      1       0.287929        72.21654
2016    27      2       0.2850607       71.51293
2016    27      3       0.2824346       70.71737
2016    27      4       0.3008856       74.13936
2016    27      5       0.3110389       75.60473
2016    27      6       0.325538        78.00104
2016    27      7       0.291886        72.24345
2016    28      0       0.3110529       75.79965
2016    28      1       0.3571892       84.08652
2016    28      2       0.3942151       90.27026
2016    28      3       0.3580746       83.69275
2016    28      4       0.2840625       70.09718
2016    28      5       0.2900282       70.79405
2016    28      6       0.3281702       78.28501
2016    28      7       0.4345617       97.30578
2016    29      0       0.6816401       135.0716
2016    29      1       0.6921327       135.9645
2016    29      2       0.6389782       129.2392
2016    29      3       0.6011075       124.3685
2016    29      4       0.5650729       119.5648
2016    29      5       0.6580701       133.8141
2016    29      6       0.781825        150.8326
2016    29      7       0.688865        139.0518
2016    30      0       0.7516404       146.5714
2016    30      1       0.8634738       158.2778
2016    30      2       0.9752634       170.1964
2016    30      3       0.628175        129.6536
2016    30      4       0.1992076       53.91526
2016    30      5       0.2002539       52.96869
2016    30      6       0.198259        51.84514
2016    30      7       0.2323044       57.80454
2017    1       0       0.4437673       101.8565
2017    1       1       0.4516186       103.1531
2017    1       2       0.4909976       109.6609
2017    1       3       0.5456679       118.1843
2017    1       4       0.6607912       135.1282
2017    1       5       0.7902383       152.0305
2017    1       6       0.8630126       160.1125
2017    1       7       0.8206527       155.243
2017    2       0       0.8887283       162.0586
2017    2       1       1.12954         184.4865
2017    2       2       1.22135         191.6604
2017    2       3       1.197366        189.1998
2017    2       4       1.426578        205.5986
2017    2       5       1.368843        202.9582
2017    2       6       1.433274        207.711
2017    2       7       1.561775        216.4866
2017    3       0       1.468464        211.7317
2017    3       1       1.425145        208.8848
2017    3       2       1.211654        193.5481
2017    3       3       0.9571089       170.3301
2017    3       4       0.8300299       156.2976
2017    3       5       0.7155656       142.0518
2017    3       6       0.6297095       130.2547
2017    3       7       0.5759873       122.1547
2017    4       0       0.5320021       115.5514
2017    4       1       0.528461        115.3094
2017    4       2       0.4927707       110.2619
2017    4       3       0.3503324       84.94369
2017    4       4       0.2722232       69.51114
2017    4       5       0.2504623       65.00419
2017    4       6       0.2672004       68.8506
2017    4       7       0.309483        77.34621
2017    5       0       0.2591748       67.07348
2017    5       1       0.2172165       58.07638
2017    5       2       0.2163557       57.792
2017    5       3       0.2363605       61.7185
2017    5       4       0.2610996       66.52378
2017    5       5       0.2765288       69.78913
2017    5       6       0.2716546       68.98009
2017    5       7       0.2574659       65.87041
2017    6       0       0.2657542       67.14216
2017    6       1       0.2908287       71.67875
2017    6       2       0.3294311       79.04292
2017    6       3       0.3597543       84.45708
2017    6       4       0.393731        90.61709
2017    6       5       0.4173042       95.11997
2017    6       6       0.3978381       91.86835
2017    6       7       0.3995554       92.2144
2017    7       0       0.4563735       102.2263
2017    7       1       0.4916198       108.1669
2017    7       2       0.4955632       108.7969
2017    7       3       0.5335195       114.7783
2017    7       4       0.6647517       133.8694
2017    7       5       0.7509988       145.0367
2017    7       6       0.7385326       143.6207
2017    7       7       0.7424285       144.287
2017    8       0       0.8518225       157.2695
2017    8       1       0.9641548       169.3796
2017    8       2       0.9048275       163.3268
2017    8       3       0.8682555       158.8641
2017    8       4       0.8054086       152.1693
2017    8       5       0.7309684       143.3748
2017    8       6       0.7170646       141.7976
2017    8       7       0.7741234       148.761
2017    9       0       0.7644029       147.448
2017    9       1       0.6723816       135.1979
2017    9       2       0.5905362       122.4621
2017    9       3       0.4558648       101.1598
2017    9       4       0.4104848       92.89771
2017    9       5       0.4153253       92.50908
2017    9       6       0.4304216       94.41812
2017    9       7       0.4662639       99.84874
2017    10      0       0.4541334       98.50962
2017    10      1       0.4343748       96.00983
2017    10      2       0.4451283       98.3328
2017    10      3       0.495204        107.24
2017    10      4       0.5405055       115.157
2017    10      5       0.6080412       125.7188
2017    10      6       0.7654002       147.5353
2017    10      7       1.069233        180.9231
2017    11      0       1.551116        217.5684
2017    11      1       1.867213        233.4065
2017    11      2       1.730381        226.5609
2017    11      3       1.479154        212.2644
2017    11      4       1.265936        197.1066
2017    11      5       1.418466        207.9765
2017    11      6       1.950442        234.8084
2017    11      7       2.46505         250.5273
2017    12      0       2.465191        250.9372
2017    12      1       2.27788         245.0325
2017    12      2       1.972191        233.6829
2017    12      3       1.665353        220.8737
2017    12      4       1.478489        210.7899
2017    12      5       1.443468        208.08
2017    12      6       1.527994        212.5898
2017    12      7       1.560276        213.9911
2017    13      0       1.483613        209.4623
2017    13      1       1.49072         209.9905
2017    13      2       1.59478         215.7183
2017    13      3       1.62447         216.98
2017    13      4       1.637608        218.2042
2017    13      5       1.759515        224.2942
2017    13      6       1.895667        230.4407
2017    13      7       2.022755        235.4203
2017    14      0       2.003982        234.7466
2017    14      1       1.911155        230.771
2017    14      2       1.953836        232.7064
2017    14      3       1.917087        231.3937
2017    14      4       1.967644        233.5599
2017    14      5       1.906573        231.4969
2017    14      6       1.778317        226.1187
2017    14      7       1.670575        221.0997
2017    15      0       1.773128        225.837
2017    15      1       1.734852        224.5531
2017    15      2       1.641078        220.1184
2017    15      3       1.644886        219.5215
2017    15      4       1.540848        213.2058
2017    15      5       1.247608        193.2145
2017    15      6       1.25674         193.3208
2017    15      7       1.45149         207.1953
2017    16      0       1.34777         200.9476
2017    16      1       1.266129        195.3589
2017    16      2       1.38719         203.6859
2017    16      3       1.529425        212.105
2017    16      4       1.686891        220.8377
2017    16      5       1.540063        213.3817
2017    16      6       1.319101        199.3605
2017    16      7       1.448967        206.999
2017    17      0       1.730223        221.9235
2017    17      1       1.986768        231.9995
2017    17      2       2.122879        236.1211
2017    17      3       2.014637        232.3659
2017    17      4       1.960939        230.3549
2017    17      5       2.108202        235.2804
2017    17      6       1.995851        231.3876
2017    17      7       1.769369        222.6769
2017    18      0       1.60774         215.3679
2017    18      1       1.446088        206.5148
2017    18      2       1.29222         196.5297
2017    18      3       1.266981        194.4108
2017    18      4       1.219265        190.9336
2017    18      5       1.229386        192.1088
2017    18      6       1.216097        191.1115
2017    18      7       1.205573        190.203
2017    19      0       1.231304        192.0091
2017    19      1       1.203901        189.7458
2017    19      2       1.168933        186.6163
2017    19      3       1.11716         182.0904
2017    19      4       1.196493        188.3771
2017    19      5       1.221598        190.0232
2017    19      6       1.14595         184.3818
2017    19      7       1.14706         184.4522
2017    20      0       1.117973        182.6755
2017    20      1       0.9251111       164.3128
2017    20      2       0.9435155       166.4891
2017    20      3       0.8542717       157.0391
2017    20      4       0.8998306       162.0476
2017    20      5       0.8662274       158.7114
2017    20      6       0.738073        143.6977
2017    20      7       0.8127053       152.3744
2017    21      0       0.8384226       154.8517
2017    21      1       0.9380486       164.4285
2017    21      2       1.221945        188.7676
2017    21      3       1.259633        192.3889
2017    21      4       1.604755        212.8786
2017    21      5       1.645646        215.8666
2017    21      6       2.053558        233.065
2017    21      7       2.057866        235.383
2017    22      0       1.859956        229.8015
2017    22      1       1.36222         204.5709
2017    22      2       1.150763        188.5008
2017    22      3       0.9296671       167.6459
2017    22      4       0.7814791       150.9407
2017    22      5       0.6138534       128.9314
2017    22      6       0.3746027       89.54054
2017    22      7       0.32535         79.71179
2017    23      0       0.2910612       73.26915
2017    23      1       0.312691        76.97837
2017    23      2       0.4143013       94.74796
2017    23      3       0.4262612       96.50228
2017    23      4       0.3873436       89.93437
2017    23      5       0.6278574       127.4761
2017    23      6       0.7297117       141.1311
2017    23      7       0.8406194       154.6098
2017    24      0       1.197705        190.9578
2017    24      1       1.752287        227.5645
2017    24      2       1.859155        231.619
2017    24      3       1.798414        228.7794
2017    24      4       1.584456        218.7654
2017    24      5       1.445201        209.6875
2017    24      6       1.774378        226.4374
2017    24      7       1.445175        207.921
2017    25      0       1.508627        211.932
2017    25      1       1.572555        215.779
2017    25      2       1.615929        216.742
2017    25      3       1.910339        230.4425
2017    25      4       1.970618        233.3121
2017    25      5       2.105798        239.6634
2017    25      6       1.889248        231.5233
2017    25      7       2.022129        235.6875
2017    26      0       1.4154          205.1206
2017    26      1       1.072051        179.1665
2017    26      2       0.9814584       170.7627
2017    26      3       0.8189766       153.5114
2017    26      4       0.8671205       159.0321
2017    26      5       1.321393        199.3944
2017    26      6       1.395512        205.0884
2017    26      7       1.188061        190.9401
2017    27      0       1.194259        191.5586
2017    27      1       1.098695        183.566
2017    27      2       1.111501        184.6513
2017    27      3       1.028942        177.64
2017    27      4       1.069252        181.8254
2017    27      5       1.100103        184.5806
2017    27      6       1.014905        176.1195
2017    27      7       1.050584        179.5792
2017    28      0       1.203437        193.0641
2017    28      1       1.2246          194.6479
2017    28      2       1.130532        186.1838
2017    28      3       1.071656        180.6713
2017    28      4       0.9388713       167.9148
2017    28      5       0.9047136       164.4122
2017    28      6       0.8794712       162.6281
2017    28      7       0.8712957       161.522
2017    29      0       0.8845133       161.7383
2017    29      1       1.099391        181.2636
2017    29      2       1.638351        217.9646
2017    29      3       1.205659        190.9436
2017    29      4       1.525414        212.4577
2017    29      5       1.735263        223.6159
2017    29      6       1.866312        229.6145
2017    29      7       2.016454        235.25
2017    30      0       2.052899        237.3906
2017    30      1       1.983407        235.1542
2017    30      2       1.888801        230.9664
2017    30      3       1.898091        231.2468
2017    30      4       1.627603        218.5561
2017    30      5       1.561788        214.6174
2017    30      6       1.813881        227.6803
2017    30      7       1.853442        229.561
2018    1       0       0.3543262       85.63058
2018    1       1       0.3547242       85.40208
2018    1       2       0.4026288       94.1371
2018    1       3       0.4059279       96.04835
2018    1       4       0.4113972       97.70418
2018    1       5       0.5242264       116.5781
2018    1       6       0.5446855       120.1959
2018    1       7       0.5040797       113.8215
2018    2       0       0.504117        113.5092
2018    2       1       0.4687481       107.5527
2018    2       2       0.3974372       94.87905
2018    2       3       0.3485297       85.61125
2018    2       4       0.3146938       79.11575
2018    2       5       0.2645584       68.69252
2018    2       6       0.2296176       60.90921
2018    2       7       0.2280443       60.58094
2018    3       0       0.21308         57.33433
2018    3       1       0.1999106       54.34673
2018    3       2       0.1817461       50.0817
2018    3       3       0.1857562       50.8925
2018    3       4       0.2346384       61.83034
2018    3       5       0.2764897       71.01284
2018    3       6       0.2921423       74.30546
2018    3       7       0.2674249       68.77031
2018    4       0       0.3334261       81.71756
2018    4       1       0.3895025       92.34648
2018    4       2       0.4018437       94.80151
2018    4       3       0.3153069       78.31403
2018    4       4       0.2416954       62.88551
2018    4       5       0.238229        62.58632
2018    4       6       0.2236302       59.65376
2018    4       7       0.2185309       58.22555
2018    5       0       0.2233665       59.2248
2018    5       1       0.269766        68.58686
2018    5       2       0.3425619       82.22213
2018    5       3       0.4869336       106.5156
2018    5       4       0.6087242       126.6864
2018    5       5       0.7840418       150.5571
2018    5       6       0.8416827       157.9936
2018    5       7       0.8314361       157.281
2018    6       0       0.8372145       158.3645
2018    6       1       0.7182129       143.3261
2018    6       2       0.5860195       124.5618
2018    6       3       0.5267963       115.6173
2018    6       4       0.5512511       119.8472
2018    6       5       0.591766        126.2682
2018    6       6       0.6275383       131.7076
2018    6       7       0.6245004       131.471
2018    7       0       0.6162564       130.0976
2018    7       1       0.6228767       130.4065
2018    7       2       0.5513665       119.4438
2018    7       3       0.4903139       109.7635
2018    7       4       0.4673914       105.9235
2018    7       5       0.4602688       104.5371
2018    7       6       0.428896        99.06314
2018    7       7       0.3866364       91.43577
2018    8       0       0.3499732       84.69218
2018    8       1       0.3058865       76.11532
2018    8       2       0.2800941       70.54138
2018    8       3       0.2570065       66.05778
2018    8       4       0.2778034       70.45753
2018    8       5       0.3328556       81.33471
2018    8       6       0.3743532       89.19165
2018    8       7       0.4685196       106.5074
2018    9       0       0.4335559       100.2592
2018    9       1       0.4081567       95.86699
2018    9       2       0.4133363       96.78466
2018    9       3       0.4245127       98.70495
2018    9       4       0.4703931       106.2957
2018    9       5       0.5190387       114.1945
2018    9       6       0.5259996       115.3687
2018    9       7       0.515414        113.6457
2018    10      0       0.5113437       112.996
2018    10      1       0.5253946       115.2298
2018    10      2       0.5650228       121.6507
2018    10      3       0.5568571       120.4538
2018    10      4       0.5479941       119.0193
2018    10      5       0.5773182       123.5671
2018    10      6       0.5470472       118.9115
2018    10      7       0.439484        100.8868
2018    11      0       0.4032743       94.20312
2018    11      1       0.4183502       96.52543
2018    11      2       0.4599928       103.5181
2018    11      3       0.4623324       103.7984
2018    11      4       0.4533946       102.1876
2018    11      5       0.3748359       88.76776
2018    11      6       0.3885573       91.45488
2018    11      7       0.3893368       91.43659
2018    12      0       0.470424        104.8353
2018    12      1       0.6373189       130.403
2018    12      2       0.7536969       145.8995
2018    12      3       0.7216914       141.5254
2018    12      4       0.7397584       144.283
2018    12      5       0.7117609       140.2986
2018    12      6       0.8275996       155.7736
2018    12      7       0.9585125       171.5336
2018    13      0       0.9562009       171.1971
2018    13      1       1.005662        175.8367
2018    13      2       1.170315        190.7746
2018    13      3       1.213953        194.1433
2018    13      4       0.9989772       174.113
2018    13      5       0.7238829       142.3236
2018    13      6       0.7970821       152.1592
2018    13      7       0.9256131       167.5467
2018    14      0       0.9941707       174.6332
2018    14      1       0.9875687       173.2375
2018    14      2       0.8860188       161.6713
2018    14      3       0.6900641       138.0044
2018    14      4       0.5081529       112.2755
2018    14      5       0.3467319       84.48219
2018    14      6       0.2698433       68.24748
2018    14      7       0.3657949       84.5449
2018    15      0       0.6611562       133.8387
2018    15      1       0.4009558       92.42127
2018    15      2       0.4037603       91.16685
2018    15      3       0.5921588       120.689
2018    15      4       0.5253759       110.6015
2018    15      5       0.5698263       118.4301
2018    15      6       0.6131382       126.0496
2018    15      7       0.6328608       129.269
2018    16      0       0.8495378       156.501
2018    16      1       1.059019        178.6003
2018    16      2       1.287005        197.9299
2018    16      3       1.578784        217.4459
2018    16      4       1.878083        232.4345
2018    16      5       1.662471        221.9257
2018    16      6       1.094815        183.5366
2018    16      7       1.395126        207.5268
2018    17      0       1.126274        185.9749
2018    17      1       0.887645        162.3907
2018    17      2       1.821338        231.3322
2018    17      3       2.826658        259.8766
2018    17      4       0.7314647       145.4669
2018    17      5       0.2280721       58.95394
2018    17      6       0.163361        44.87434
2018    17      7       0.2219169       56.37692
2018    18      0       0.2321684       59.15094
2018    18      1       0.2174698       57.14906
2018    18      2       0.3270593       78.10882
2018    18      3       0.4265636       95.50031
2018    18      4       0.4973022       106.5293
2018    18      5       0.6845283       132.7108
2018    18      6       0.6794056       132.7632
2018    18      7       0.6715074       131.8134
2018    19      0       0.9354648       163.463
2018    19      1       1.279643        195.9101
2018    19      2       1.219248        192.7397
2018    19      3       0.8830252       161.0949
2018    19      4       0.5489568       116.7901
2018    19      5       0.4118157       94.35181
2018    19      6       0.3387783       80.4965
2018    19      7       0.2510069       63.79819
2018    20      0       0.3117575       75.72151
2018    20      1       0.4133275       93.91991
2018    20      2       0.4797326       104.2505
2018    20      3       0.4725123       103.5616
2018    20      4       0.5765508       119.8071
2018    20      5       0.9192791       162.9235
2018    20      6       1.436291        206.8847
2018    20      7       1.750905        224.58
2018    21      0       1.994964        235.0316
2018    21      1       2.546751        249.8732
2018    21      2       2.862888        255.0892
2018    21      3       3.030387        257.6443
2018    21      4       3.023888        257.8259
2018    21      5       2.9241          256.0116
2018    21      6       2.775453        253.5459
2018    21      7       2.65511         251.183
2018    22      0       2.097403        236.1735
2018    22      1       1.594033        214.3917
2018    22      2       0.9082039       161.4494
2018    22      3       0.6976002       137.2815
2018    22      4       0.8071231       150.9257
2018    22      5       1.135669        182.8796
2018    22      6       1.128101        181.3963
2018    22      7       1.064882        174.172
2018    23      0       0.9481677       164.1566
2018    23      1       0.5466962       116.1218
2018    23      2       0.2313151       60.24727
2018    23      3       0.1667408       45.79123
2018    23      4       0.2351678       59.56179
2018    23      5       0.3447237       80.36653
2018    23      6       0.6990184       135.5649
2018    23      7       1.123449        183.2028
2018    24      0       1.593138        218.2905
2018    24      1       1.773206        227.726
2018    24      2       1.588186        218.5922
2018    24      3       1.422917        208.9715
2018    24      4       1.352323        205.094
2018    24      5       1.3786          207.0582
2018    24      6       1.153686        188.7481
2018    24      7       1.338206        203.9937
2018    25      0       1.379195        206.7764
2018    25      1       1.403508        208.1422
2018    25      2       1.391135        207.155
2018    25      3       1.433446        209.4432
2018    25      4       1.434939        209.4734
2018    25      5       1.365605        204.9705
2018    25      6       1.227181        194.5277
2018    25      7       1.067427        180.7078
2018    26      0       0.9351886       167.6789
2018    26      1       0.9290566       166.862
2018    26      2       1.023232        176.1059
2018    26      3       1.103268        182.7452
2018    26      4       1.195553        190.1301
2018    26      5       0.9760381       171.4073
2018    26      6       0.965255        168.9932
2018    26      7       0.872727        160.8242
2018    27      0       0.4346794       99.94395
2018    27      1       0.2815433       71.2986
2018    27      2       0.3649879       87.57545
2018    27      3       0.4359886       100.6627
2018    27      4       0.5019956       111.8084
2018    27      5       0.5541815       120.2663
2018    27      6       0.4941662       110.927
2018    27      7       0.4347291       100.7855
2018    28      0       0.4232281       98.61378
2018    28      1       0.4214547       98.05571
2018    28      2       0.3960334       93.53694
2018    28      3       0.3672852       88.13047
2018    28      4       0.3878882       92.01505
2018    28      5       0.4387098       100.9732
2018    28      6       0.46918         106.049
2018    28      7       0.4906181       109.0913
2018    29      0       0.5332787       114.8592
2018    29      1       0.6230366       128.1216
2018    29      2       0.6621506       134.5493
2018    29      3       0.570618        120.7254
2018    29      4       0.5983186       124.8594
2018    29      5       0.5963344       124.7951
2018    29      6       0.5595082       120.0605
2018    29      7       0.5727111       121.6402
2018    30      0       0.5588603       119.6928
2018    30      1       0.4941531       109.6407
2018    30      2       0.5013914       110.2068
2018    30      3       0.5241728       113.4229
2018    30      4       0.7396393       143.8018
2018    30      5       0.8829287       160.5398
2018    30      6       0.7980238       151.0776
2018    30      7       0.7497384       145.5067
