####################################################################################################
# Month: 08Aug                                                                                     #
# Station: OVRO                                                                                    #
# Frequency: 230 GHz                                                                               #
# Columns are: year    day     segment         tau     Tb (K)                                      #
####################################################################################################
2009    1       0       1.068129        187.1201
2009    1       1       0.9097954       171.0398
2009    1       2       0.8564599       165.0217
2009    1       3       0.887914        167.9983
2009    1       4       0.8866781       167.5155
2009    1       5       0.8449516       162.5502
2009    1       6       0.8512351       163.2851
2009    1       7       0.8127211       159.0473
2009    2       0       0.8517049       163.7399
2009    2       1       0.8083769       158.7047
2009    2       2       0.682784        142.6268
2009    2       3       0.5851055       127.9583
2009    2       4       0.5177655       116.7446
2009    2       5       0.487128        111.3396
2009    2       6       0.4486655       104.5197
2009    2       7       0.4477903       104.6937
2009    3       0       0.5179521       116.7571
2009    3       1       0.5581419       123.3298
2009    3       2       0.3799401       92.27926
2009    3       3       0.3126084       78.88438
2009    3       4       0.3439629       84.97836
2009    3       5       0.3874863       93.1311
2009    3       6       0.3718234       89.57962
2009    3       7       0.361692        88.00743
2009    4       0       0.4100675       97.00386
2009    4       1       0.4633374       104.7482
2009    4       2       0.5674536       122.2611
2009    4       3       0.7696775       151.1757
2009    4       4       0.9933874       176.8011
2009    4       5       1.102671        187.2292
2009    4       6       1.0444          182.6117
2009    4       7       1.013711        180.3005
2009    5       0       0.9554217       174.3437
2009    5       1       0.9482738       173.4213
2009    5       2       1.077671        186.2855
2009    5       3       1.181483        195.812
2009    5       4       1.064731        185.2774
2009    5       5       1.027797        180.847
2009    5       6       1.016946        180.2493
2009    5       7       1.059719        185.1356
2009    6       0       0.8456455       162.1165
2009    6       1       0.6764071       139.941
2009    6       2       0.5013755       113.0862
2009    6       3       0.4039015       95.86972
2009    6       4       0.2631811       67.69167
2009    6       5       0.4141883       96.2905
2009    6       6       0.4245163       97.73287
2009    6       7       0.4873757       108.7388
2009    7       0       0.5602518       120.8811
2009    7       1       0.5393307       117.6154
2009    7       2       0.4017576       94.26246
2009    7       3       0.3878402       91.43262
2009    7       4       0.4178773       96.56728
2009    7       5       0.5202504       113.2836
2009    7       6       0.5416272       116.6818
2009    7       7       0.5918325       124.95
2009    8       0       0.6867132       139.0304
2009    8       1       0.7467267       146.9897
2009    8       2       0.7226125       143.5968
2009    8       3       0.7696433       149.3145
2009    8       4       0.7762627       150.6212
2009    8       5       0.7565484       148.6621
2009    8       6       0.6927252       140.7816
2009    8       7       0.6777157       139.3274
2009    9       0       0.7179356       144.9235
2009    9       1       0.7436634       148.0931
2009    9       2       0.6258432       131.4721
2009    9       3       0.5981988       127.1817
2009    9       4       0.5874634       125.5055
2009    9       5       0.5960665       126.7573
2009    9       6       0.5943637       126.8418
2009    9       7       0.6181691       130.9464
2009    10      0       0.7393083       148.0198
2009    10      1       0.8454761       161.1523
2009    10      2       0.7174514       144.8383
2009    10      3       0.6629923       137.2885
2009    10      4       0.6449972       134.7911
2009    10      5       0.6214217       131.2947
2009    10      6       0.5732678       124.2901
2009    10      7       0.5778043       125.4513
2009    11      0       0.6935675       142.2446
2009    11      1       0.6848414       140.9644
2009    11      2       0.6287985       133.788
2009    11      3       0.5642978       123.8178
2009    11      4       0.5488813       121.3161
2009    11      5       0.5848904       127.4258
2009    11      6       0.5117794       115.7442
2009    11      7       0.5239315       117.5552
2009    12      0       0.5863041       127.5918
2009    12      1       0.6718259       140.6943
2009    12      2       0.6595904       138.8519
2009    12      3       0.6130429       131.821
2009    12      4       0.893332        169.0287
2009    12      5       0.46483         107.7604
2009    12      6       0.4806036       110.4652
2009    12      7       0.5216954       117.0629
2009    13      0       0.5993567       129.481
2009    13      1       0.6886696       142.2955
2009    13      2       0.6726438       139.8261
2009    13      3       0.6334639       133.8714
2009    13      4       0.6046138       129.557
2009    13      5       0.5818351       126.1402
2009    13      6       0.5379214       119.5041
2009    13      7       0.5156917       116.1246
2009    14      0       0.5235641       117.2883
2009    14      1       0.539529        119.5556
2009    14      2       0.4507146       104.2664
2009    14      3       0.3859891       92.33528
2009    14      4       0.3363816       82.89996
2009    14      5       0.3365358       82.98645
2009    14      6       0.333026        82.48347
2009    14      7       0.3426673       84.68699
2009    15      0       0.3600189       88.0566
2009    15      1       0.3470773       85.31784
2009    15      2       0.2536344       65.92239
2009    15      3       0.2313996       61.40686
2009    15      4       0.1953953       53.62743
2009    15      5       0.2537529       66.32355
2009    15      6       0.3006357       76.0499
2009    15      7       0.2776839       71.56439
2009    16      0       0.2976554       75.72929
2009    16      1       0.3477387       85.51742
2009    16      2       0.3389864       83.68372
2009    16      3       0.7499795       150.5678
2009    16      4       0.3115252       78.14592
2009    16      5       0.3068819       77.23071
2009    16      6       0.2934613       74.55943
2009    16      7       0.298768        76.07885
2009    17      0       0.3382141       84.24684
2009    17      1       0.377118        91.60574
2009    17      2       0.342214        84.85022
2009    17      3       0.3286343       82.11767
2009    17      4       0.327032        81.72495
2009    17      5       0.3284976       81.92838
2009    17      6       0.3183407       79.91711
2009    17      7       0.3319901       82.88295
2009    18      0       0.3640201       89.3422
2009    18      1       0.3914451       94.43387
2009    18      2       0.3901529       94.21917
2009    18      3       0.3958113       95.29697
2009    18      4       0.3811996       92.42664
2009    18      5       0.3634369       88.75056
2009    18      6       0.3654909       89.0116
2009    18      7       0.3902635       93.81227
2009    19      0       0.4349453       101.8087
2009    19      1       0.4624499       106.7459
2009    19      2       0.4517057       104.885
2009    19      3       0.4457605       103.8321
2009    19      4       0.4464102       103.7216
2009    19      5       0.4319136       100.9809
2009    19      6       0.4266069       100.0611
2009    19      7       0.4345627       101.8138
2009    20      0       0.4487989       104.7515
2009    20      1       0.4528024       105.7132
2009    20      2       0.4581906       106.7352
2009    20      3       0.4645302       107.6959
2009    20      4       0.46726         107.969
2009    20      5       0.5792988       126.6495
2009    20      6       0.6066531       130.8275
2009    20      7       0.6738966       141.043
2009    21      0       0.7064047       145.7376
2009    21      1       0.687159        143.2812
2009    21      2       0.6265117       134.7775
2009    21      3       0.6063636       131.506
2009    21      4       0.6076779       131.2925
2009    21      5       0.6214007       132.9809
2009    21      6       0.6472102       136.6416
2009    21      7       0.7175577       146.6833
2009    22      0       0.8536725       163.8058
2009    22      1       0.8847188       167.498
2009    22      2       0.8921617       168.6768
2009    22      3       0.9075754       169.5681
2009    22      4       0.9313332       170.9359
2009    22      5       0.9185683       169.0246
2009    22      6       1.114397        187.7854
2009    22      7       1.429831        212.3493
2009    23      0       1.761081        230.6683
2009    23      1       1.740901        230.394
2009    23      2       1.850378        235.2727
2009    23      3       1.771929        231.3905
2009    23      4       1.440213        212.9367
2009    23      5       1.177607        193.6736
2009    23      6       1.233142        198.0963
2009    23      7       1.125233        189.2514
2009    24      0       1.1613          192.0032
2009    24      1       1.434089        211.5837
2009    24      2       1.461047        213.3722
2009    24      3       1.287814        201.7708
2009    24      4       1.161566        191.7498
2009    24      5       1.013684        178.438
2009    24      6       0.9387481       171.2908
2009    24      7       0.9101541       168.8747
2009    25      0       0.9592322       174.058
2009    25      1       0.9857904       176.6311
2009    25      2       0.8677247       164.2016
2009    25      3       0.6921552       142.3375
2009    25      4       0.5965312       128.6066
2009    25      5       0.5427578       120.2162
2009    25      6       0.4679992       107.699
2009    25      7       0.4033276       96.30645
2009    26      0       0.3837701       92.76737
2009    26      1       0.3740978       90.81144
2009    26      2       0.336249        83.43666
2009    26      3       0.3176061       79.72803
2009    26      4       0.3216365       80.54189
2009    26      5       0.2769878       71.27926
2009    26      6       0.2698474       70.00908
2009    26      7       0.27436         70.94495
2009    27      0       0.3163624       79.80032
2009    27      1       0.3793051       92.4606
2009    27      2       0.3914621       94.7141
2009    27      3       0.3658979       89.84724
2009    27      4       0.3436178       85.48925
2009    27      5       0.3322831       83.2416
2009    27      6       0.3047392       77.75138
2009    27      7       0.3058922       78.26532
2009    28      0       0.3471055       86.75292
2009    28      1       0.4086197       98.52491
2009    28      2       0.4249171       101.5081
2009    28      3       0.4424646       104.5096
2009    28      4       0.5036123       114.6551
2009    28      5       0.5492571       122.022
2009    28      6       0.5995467       130.0898
2009    28      7       0.6586564       139.0467
2009    29      0       0.6628727       139.7452
2009    29      1       0.6299695       134.8584
2009    29      2       0.6697885       140.3646
2009    29      3       0.6639921       139.1275
2009    29      4       0.5432177       121.0787
2009    29      5       0.4734094       109.6935
2009    29      6       0.4922525       112.8703
2009    29      7       0.5576692       123.8316
2009    30      0       0.5845676       128.04
2009    30      1       0.5806043       127.3067
2009    30      2       0.6442533       137.0487
2009    30      3       0.7015374       145.1459
2009    30      4       0.6542507       138.3177
2009    30      5       0.5508177       122.4639
2009    30      6       0.4598811       107.0681
2009    30      7       0.5367441       120.1076
2009    31      0       0.6982938       144.3226
2009    31      1       0.7302496       148.3729
2009    31      2       0.6295658       133.8443
2009    31      3       0.6259392       132.8792
2009    31      4       0.6511756       136.3345
2009    31      5       0.6766097       139.9467
2009    31      6       0.7018795       143.4393
2009    31      7       0.7577456       151.0319
2010    1       0       0.4798281       111.2933
2010    1       1       0.4552481       106.6172
2010    1       2       0.4001365       96.01368
2010    1       3       0.3842097       92.83986
2010    1       4       0.3310398       82.66645
2010    1       5       0.3202301       80.58689
2010    1       6       0.3368275       84.03672
2010    1       7       0.3804046       92.909
2010    2       0       0.417414        100.0235
2010    2       1       0.4538827       106.3831
2010    2       2       0.4538442       106.0716
2010    2       3       0.7234094       148.7541
2010    2       4       0.3732568       91.35504
2010    2       5       0.3570616       88.07052
2010    2       6       0.3720931       90.95035
2010    2       7       0.3802101       92.71137
2010    3       0       0.3674127       90.2634
2010    3       1       0.3464927       85.80261
2010    3       2       0.2788605       71.78386
2010    3       3       0.2684004       69.64649
2010    3       4       0.2538427       66.79426
2010    3       5       0.2344681       62.72617
2010    3       6       0.2490139       65.92471
2010    3       7       0.2646055       69.42347
2010    4       0       0.2998056       76.91631
2010    4       1       0.3324741       83.43031
2010    4       2       0.2898241       74.82288
2010    4       3       0.2647244       69.73956
2010    4       4       0.2494687       66.42079
2010    4       5       0.2327604       62.70757
2010    4       6       0.2260059       61.18229
2010    4       7       0.2446272       65.27756
2010    5       0       0.2961203       76.10215
2010    5       1       0.3570689       88.30346
2010    5       2       0.3237148       81.82751
2010    5       3       0.3120265       79.45905
2010    5       4       0.2975226       76.40648
2010    5       5       0.2687052       70.36765
2010    5       6       0.2579732       67.92521
2010    5       7       0.2692586       70.3654
2010    6       0       0.3208418       81.00667
2010    6       1       0.3837625       93.31813
2010    6       2       0.2983414       76.44106
2010    6       3       0.3131104       79.30809
2010    6       4       0.346036        85.57795
2010    6       5       0.6429072       136.6118
2010    6       6       0.3290946       82.43558
2010    6       7       0.3413523       84.75578
2010    7       0       0.4109884       97.71478
2010    7       1       0.5194854       116.3721
2010    7       2       0.4572022       105.8157
2010    7       3       0.412123        97.8809
2010    7       4       0.4150968       98.47291
2010    7       5       0.4080797       97.22516
2010    7       6       0.4287353       100.9582
2010    7       7       0.5053983       114.0974
2010    8       0       0.6335469       133.0966
2010    8       1       0.7213879       145.6522
2010    8       2       0.6727123       139.5229
2010    8       3       0.5952736       128.3311
2010    8       4       0.542231        119.5757
2010    8       5       0.518115        115.2488
2010    8       6       0.4676427       106.769
2010    8       7       0.532276        117.2261
2010    9       0       0.7794513       151.9585
2010    9       1       0.8374773       158.8329
2010    9       2       0.8092535       156.0603
2010    9       3       0.7699546       151.2437
2010    9       4       0.7067817       142.8785
2010    9       5       0.6106762       129.4726
2010    9       6       0.4873587       110.0908
2010    9       7       0.4853373       109.9786
2010    10      0       0.5444771       119.9858
2010    10      1       0.5989826       128.5439
2010    10      2       0.5932987       127.683
2010    10      3       0.4656853       107.1159
2010    10      4       0.3617455       88.17032
2010    10      5       0.3808296       91.53349
2010    10      6       0.3747322       90.42412
2010    10      7       0.39504         94.43992
2010    11      0       0.4929138       111.8407
2010    11      1       0.5525699       121.5028
2010    11      2       0.3719901       90.40257
2010    11      3       0.3573679       87.4816
2010    11      4       0.4026498       95.67074
2010    11      5       0.4456747       103.1019
2010    11      6       0.4583433       105.1278
2010    11      7       0.49557         112.081
2010    12      0       0.5129459       115.2245
2010    12      1       0.4988382       113.0231
2010    12      2       0.5035497       113.7178
2010    12      3       0.5563868       122.1132
2010    12      4       0.5262625       117.1874
2010    12      5       0.5164724       115.6422
2010    12      6       0.5155361       115.7293
2010    12      7       0.5305556       118.8404
2010    13      0       0.5494124       122.2568
2010    13      1       0.5541762       123.0055
2010    13      2       0.5045924       114.795
2010    13      3       0.4913686       112.4797
2010    13      4       0.4664373       108.2202
2010    13      5       0.4279715       101.4513
2010    13      6       0.4021269       96.92916
2010    13      7       0.4189021       100.3454
2010    14      0       0.5005512       114.7491
2010    14      1       0.6136386       132.5663
2010    14      2       0.5912968       129.2125
2010    14      3       0.5092317       116.084
2010    14      4       0.4814262       111.2063
2010    14      5       0.4468999       105.0612
2010    14      6       0.4128321       98.87321
2010    14      7       0.4420119       104.4184
2010    15      0       0.495475        113.8884
2010    15      1       0.5421784       121.5079
2010    15      2       0.4772362       110.6088
2010    15      3       0.3940222       95.8521
2010    15      4       0.3169041       80.63652
2010    15      5       0.2833656       73.53665
2010    15      6       0.2676655       70.02274
2010    15      7       0.2796283       72.74697
2010    16      0       0.3117109       79.55389
2010    16      1       0.3051782       78.21419
2010    16      2       0.2915852       75.48589
2010    16      3       0.3483571       87.00799
2010    16      4       0.3243405       82.09083
2010    16      5       0.3112545       79.26927
2010    16      6       0.3424933       85.46155
2010    16      7       0.3667185       90.48514
2010    17      0       0.3885847       94.9613
2010    17      1       0.406247        98.2601
2010    17      2       0.3744681       92.08608
2010    17      3       0.3503651       87.31387
2010    17      4       0.3105442       79.24986
2010    17      5       0.2606447       68.82726
2010    17      6       0.2151719       58.83883
2010    17      7       0.1914883       53.49298
2010    18      0       0.2144776       58.86739
2010    18      1       0.2190545       59.96279
2010    18      2       0.2139757       58.6297
2010    18      3       0.3192576       80.91848
2010    18      4       0.5677067       124.6813
2010    18      5       0.841325        161.8289
2010    18      6       1.150077        193.2637
2010    18      7       1.367257        210.8916
2010    19      0       1.159036        195.4991
2010    19      1       0.8139426       159.5895
2010    19      2       0.5664596       124.8279
2010    19      3       0.479624        110.1637
2010    19      4       0.4740668       109.1398
2010    19      5       0.4526625       105.4358
2010    19      6       0.417422        99.30537
2010    19      7       0.4255624       101.2517
2010    20      0       0.458501        107.3172
2010    20      1       0.4832376       111.3712
2010    20      2       0.4346734       102.7016
2010    20      3       0.4181459       99.9555
2010    20      4       0.3907163       94.9915
2010    20      5       0.3459561       86.47918
2010    20      6       0.2894948       75.08522
2010    20      7       0.2552703       67.9123
2010    21      0       0.2416321       64.74964
2010    21      1       0.3333574       83.0681
2010    21      2       0.4859884       110.941
2010    21      3       0.6449341       136.0951
2010    21      4       0.7945437       156.1627
2010    21      5       0.9384954       172.9382
2010    21      6       0.9568952       174.9262
2010    21      7       0.8960772       168.6417
2010    22      0       0.89118         167.915
2010    22      1       0.8625643       164.4573
2010    22      2       0.8510664       163.539
2010    22      3       0.9153982       171.1311
2010    22      4       0.7854908       155.4979
2010    22      5       0.6254457       132.9611
2010    22      6       0.5182929       116.068
2010    22      7       0.3395345       84.49155
2010    23      0       0.259498        68.26865
2010    23      1       0.2799231       72.53914
2010    23      2       0.3004778       76.61672
2010    23      3       0.3150503       79.472
2010    23      4       0.3130244       79.23528
2010    23      5       0.293416        75.57034
2010    23      6       0.3294794       83.0075
2010    23      7       0.3317004       83.62312
2010    24      0       0.3255046       82.40715
2010    24      1       0.3266186       82.57801
2010    24      2       0.3653464       90.49811
2010    24      3       0.3948857       96.21598
2010    24      4       0.434736        103.613
2010    24      5       0.4589455       107.7462
2010    24      6       0.4247262       101.6356
2010    24      7       0.4285696       102.2137
2010    25      0       0.4416833       104.6739
2010    25      1       0.4244957       101.5314
2010    25      2       0.3896439       95.22255
2010    25      3       0.3921489       95.70365
2010    25      4       0.4173038       100.4859
2010    25      5       0.4272749       102.1669
2010    25      6       0.4880897       112.6589
2010    25      7       0.6291064       135.0935
2010    26      0       0.786185        156.8136
2010    26      1       0.9206791       172.5506
2010    26      2       0.9700399       178.4226
2010    26      3       0.9738631       178.7205
2010    26      4       1.300463        208.6774
2010    26      5       1.165722        196.3764
2010    26      6       1.17255         196.9898
2010    26      7       1.259819        203.8463
2010    27      0       1.101439        190.5847
2010    27      1       0.786206        156.4524
2010    27      2       0.6189696       133.2309
2010    27      3       0.6184013       132.9663
2010    27      4       0.6350244       135.3465
2010    27      5       0.5872373       128.1307
2010    27      6       0.5083834       115.3738
2010    27      7       0.4174472       99.65308
2010    28      0       0.3667888       90.10794
2010    28      1       0.2982485       76.54056
2010    28      2       0.174858        49.34304
2010    28      3       0.1780559       49.51069
2010    28      4       0.1512446       42.7829
2010    28      5       0.1134521       33.22115
2010    28      6       0.2159944       56.87902
2010    28      7       0.3985047       93.53098
2010    29      0       0.5840359       125.0343
2010    29      1       0.6590525       135.5195
2010    29      2       0.6452175       133.2133
2010    29      3       0.6782241       137.333
2010    29      4       0.6778358       136.8712
2010    29      5       0.6335557       130.2986
2010    29      6       0.5721565       121.3556
2010    29      7       0.611929        127.0297
2010    30      0       0.7316665       142.6286
2010    30      1       0.7148642       140.818
2010    30      2       0.6840874       137.0955
2010    30      3       0.6618127       134.1078
2010    30      4       0.5922562       124.4949
2010    30      5       0.542601        117.2429
2010    30      6       0.4990502       110.7045
2010    30      7       0.5121721       113.6395
2010    31      0       0.5326809       117.3702
2010    31      1       0.5284417       116.6681
2010    31      2       0.4791182       108.6934
2010    31      3       0.4691641       106.7251
2010    31      4       0.4788772       108.1565
2010    31      5       0.4506933       104.3293
2010    31      6       0.4233819       99.13795
2010    31      7       0.4259658       99.88824
2011    1       0       2.05942         250.8485
2011    1       1       1.887551        243.6659
2011    1       2       1.626643        231.3086
2011    1       3       1.500656        223.8692
2011    1       4       1.20916         202.3192
2011    1       5       1.001961        182.4262
2011    1       6       1.036414        187.1415
2011    1       7       1.137915        197.8996
2011    2       0       1.269923        209.3199
2011    2       1       1.285416        209.953
2011    2       2       1.204757        202.4142
2011    2       3       1.151655        197.7947
2011    2       4       1.146483        197.472
2011    2       5       1.145482        198.5623
2011    2       6       1.00035         184.5353
2011    2       7       0.8833884       171.5425
2011    3       0       0.8514821       165.0472
2011    3       1       0.6454865       138.8974
2011    3       2       0.5144057       118.1367
2011    3       3       0.3927338       95.08622
2011    3       4       0.3575776       88.28787
2011    3       5       0.3620621       89.10269
2011    3       6       0.3460544       86.06806
2011    3       7       0.3533091       87.6376
2011    4       0       0.3559054       88.15505
2011    4       1       0.3601844       88.95862
2011    4       2       0.2691738       70.49146
2011    4       3       0.2310057       62.23685
2011    4       4       0.2205575       59.70687
2011    4       5       0.2422084       64.34573
2011    4       6       0.2618016       68.56636
2011    4       7       0.3019534       77.17566
2011    5       0       0.3752224       91.84484
2011    5       1       0.4121775       98.72878
2011    5       2       0.3567104       88.20311
2011    5       3       0.3905123       94.59356
2011    5       4       0.4300234       101.6411
2011    5       5       0.4310969       101.6502
2011    5       6       0.4366026       102.707
2011    5       7       0.4751137       109.8049
2011    6       0       0.5541926       122.958
2011    6       1       0.6192503       132.8569
2011    6       2       0.5534088       122.7949
2011    6       3       0.5021811       114.4751
2011    6       4       0.4816935       110.918
2011    6       5       0.4490267       105.2609
2011    6       6       0.4323874       102.2755
2011    6       7       0.437145        103.3497
2011    7       0       0.4446796       104.7904
2011    7       1       0.4012663       96.82034
2011    7       2       0.2820036       73.25544
2011    7       3       0.2768848       72.0695
2011    7       4       0.3019158       77.09704
2011    7       5       0.2709179       70.60143
2011    7       6       0.2669619       69.84415
2011    7       7       0.3040389       77.9251
2011    8       0       0.3671093       90.72061
2011    8       1       0.3787939       92.97797
2011    8       2       0.3240476       82.08301
2011    8       3       0.2780665       72.31929
2011    8       4       0.2749135       71.46658
2011    8       5       0.2802487       72.54922
2011    8       6       0.287602        74.08911
2011    8       7       0.2911777       75.17278
2011    9       0       0.3289597       83.01172
2011    9       1       0.3463775       86.30107
2011    9       2       0.3050489       77.76188
2011    9       3       0.3186693       80.37718
2011    9       4       0.3209953       80.79317
2011    9       5       0.3058107       77.80972
2011    9       6       0.3010762       77.02267
2011    9       7       0.329825        83.1293
2011    10      0       0.3770504       92.46166
2011    10      1       0.3959519       95.78511
2011    10      2       0.3647391       89.58847
2011    10      3       0.3619477       88.95187
2011    10      4       0.360753        88.53854
2011    10      5       0.3636378       89.02043
2011    10      6       0.3663256       89.68996
2011    10      7       0.3922835       94.92904
2011    11      0       0.4373777       103.3836
2011    11      1       0.4658837       108.2595
2011    11      2       0.4606879       107.2619
2011    11      3       0.4362031       102.899
2011    11      4       0.4302838       101.7435
2011    11      5       0.4355292       102.6874
2011    11      6       0.433459        102.4524
2011    11      7       0.4643655       108.232
2011    12      0       0.5329816       119.8656
2011    12      1       0.5788614       127.0471
2011    12      2       0.5210305       117.6482
2011    12      3       0.4704454       109.2092
2011    12      4       0.4307678       102.0543
2011    12      5       0.4343047       102.6148
2011    12      6       0.4445502       104.2548
2011    12      7       0.5020416       114.3971
2011    13      0       0.5907661       128.8588
2011    13      1       0.6172841       132.5046
2011    13      2       0.5694918       124.6069
2011    13      3       0.5252509       117.1651
2011    13      4       0.4983765       112.6755
2011    13      5       0.529944        117.9032
2011    13      6       0.5849823       126.6852
2011    13      7       0.6825331       141.4425
2011    14      0       0.8677395       165.2041
2011    14      1       1.144898        193.8616
2011    14      2       1.05711         186.1822
2011    14      3       0.8097649       159.1588
2011    14      4       0.7844578       155.5305
2011    14      5       0.8831442       166.9463
2011    14      6       0.9749293       177.5281
2011    14      7       0.9176571       171.9686
2011    15      0       0.7439972       150.7229
2011    15      1       0.6216408       133.1579
2011    15      2       0.5447756       120.9767
2011    15      3       0.4567136       105.4375
2011    15      4       0.3582902       87.17541
2011    15      5       0.3210082       80.04703
2011    15      6       0.3129408       78.58432
2011    15      7       0.327253        81.91781
2011    16      0       0.3535102       87.34958
2011    16      1       0.3521527       87.0968
2011    16      2       0.3313036       82.87551
2011    16      3       0.3335694       83.3473
2011    16      4       0.3087815       78.34333
2011    16      5       0.3079291       78.19942
2011    16      6       0.3165039       80.07526
2011    16      7       0.3094058       78.89386
2011    17      0       0.3393059       85.01104
2011    17      1       0.3438201       85.8023
2011    17      2       0.2659531       69.80346
2011    17      3       0.2445233       64.89934
2011    17      4       0.2583954       67.6714
2011    17      5       0.2745717       71.09635
2011    17      6       0.2798428       72.18255
2011    17      7       0.3027947       77.09841
2011    18      0       0.3428657       85.34311
2011    18      1       0.3519456       87.18651
2011    18      2       0.3409642       84.90054
2011    18      3       0.366422        89.60329
2011    18      4       0.4854018       110.4988
2011    18      5       0.6909911       141.057
2011    18      6       0.8770711       164.4679
2011    18      7       0.8789388       166.0438
2011    19      0       0.8739672       166.2775
2011    19      1       0.8085207       158.2922
2011    19      2       0.7542112       151.467
2011    19      3       0.5024662       112.2241
2011    19      4       0.6870203       141.8579
2011    19      5       0.5645249       123.5947
2011    19      6       0.6438789       136.3018
2011    19      7       0.6874912       143.0948
2011    20      0       0.8687818       166.7805
2011    20      1       0.7669759       153.0964
2011    20      2       0.8471038       163.6275
2011    20      3       0.5936825       128.882
2011    20      4       0.5201022       117.3861
2011    20      5       0.4602742       107.2676
2011    20      6       0.4329275       102.2988
2011    20      7       0.4431035       103.878
2011    21      0       0.4435233       103.8731
2011    21      1       0.4732171       109.2466
2011    21      2       0.4240652       100.748
2011    21      3       0.3199819       80.63924
2011    21      4       0.2797172       72.17707
2011    21      5       0.3187849       80.00915
2011    21      6       0.3605732       88.20661
2011    21      7       0.3530174       86.7961
2011    22      0       0.3744565       90.94814
2011    22      1       0.3802221       91.93682
2011    22      2       0.3199849       79.93199
2011    22      3       0.3449759       84.17096
2011    22      4       0.4684929       106.1667
2011    22      5       0.5451045       118.2666
2011    22      6       0.7776774       150.2309
2011    22      7       1.081239        184.5798
2011    23      0       1.047202        182.9394
2011    23      1       0.9351539       171.691
2011    23      2       0.8075944       157.2819
2011    23      3       0.8272335       160.0228
2011    23      4       0.9863721       177.8343
2011    23      5       0.8970615       167.8651
2011    23      6       0.8414238       161.6753
2011    23      7       0.8176854       159.7889
2011    24      0       0.8445192       163.2291
2011    24      1       0.8517536       163.8943
2011    24      2       0.8205727       160.0909
2011    24      3       0.7513432       151.4049
2011    24      4       0.7138569       146.5197
2011    24      5       0.7690228       153.7745
2011    24      6       0.8615281       164.6932
2011    24      7       0.9348007       173.5236
2011    25      0       0.9270333       172.9793
2011    25      1       0.8481018       163.7456
2011    25      2       0.7251541       148.3762
2011    25      3       0.6415225       136.7374
2011    25      4       0.6040962       130.9109
2011    25      5       0.5591437       123.9027
2011    25      6       0.5393067       120.886
2011    25      7       0.5306713       119.8717
2011    26      0       0.5470304       122.6124
2011    26      1       0.5337951       120.3454
2011    26      2       0.4283663       102.0141
2011    26      3       0.4102176       98.59903
2011    26      4       0.5985804       130.0285
2011    26      5       0.9646923       176.0275
2011    26      6       1.189038        197.428
2011    26      7       1.387401        213.1646
2011    27      0       1.401001        214.0563
2011    27      1       1.313305        207.3641
2011    27      2       1.319229        207.4289
2011    27      3       1.371966        211.0366
2011    27      4       1.278466        204.6264
2011    27      5       1.248363        202.3208
2011    27      6       1.54459         223.835
2011    27      7       1.691573        231.8647
2011    28      0       1.470072        219.0128
2011    28      1       1.361144        211.4585
2011    28      2       1.283432        205.6054
2011    28      3       1.206529        199.4381
2011    28      4       1.156423        195.0239
2011    28      5       1.117606        191.4383
2011    28      6       1.070093        187.523
2011    28      7       1.063462        187.0428
2011    29      0       0.9984485       180.3472
2011    29      1       0.8396336       162.2968
2011    29      2       0.7856589       155.5276
2011    29      3       0.7815541       154.6651
2011    29      4       0.7159537       146.1228
2011    29      5       0.6693294       139.7944
2011    29      6       0.6444793       136.8334
2011    29      7       0.6023057       131.0434
2011    30      0       0.5432157       121.599
2011    30      1       0.4897628       112.3273
2011    30      2       0.3957351       95.47538
2011    30      3       0.3861786       94.01023
2011    30      4       0.3641634       89.87701
2011    30      5       0.3295741       83.08376
2011    30      6       0.302686        77.65068
2011    30      7       0.2784943       72.68437
2011    31      0       0.2797871       72.95658
2011    31      1       0.314788        80.19939
2011    31      2       0.2152142       58.87375
2011    31      3       0.1869794       52.33315
2011    31      4       0.2336397       62.72624
2011    31      5       0.2739008       71.30493
2011    31      6       0.2768558       71.86369
2011    31      7       0.3170316       80.21531
2012    1       0       1.146218        194.7604
2012    1       1       1.086304        189.0794
2012    1       2       0.881016        168.1034
2012    1       3       0.8075874       159.262
2012    1       4       0.82354         161.4197
2012    1       5       0.8238952       161.6025
2012    1       6       0.8602966       166.5655
2012    1       7       0.8407454       164.3187
2012    2       0       0.9466376       175.1976
2012    2       1       0.9943008       181.1429
2012    2       2       0.873597        168.4271
2012    2       3       0.7561003       154.132
2012    2       4       0.5773486       127.7133
2012    2       5       0.5919447       130.2716
2012    2       6       0.5433615       122.3926
2012    2       7       0.6261453       134.439
2012    3       0       0.8446113       162.5136
2012    3       1       0.9216094       171.3199
2012    3       2       0.8741201       166.4768
2012    3       3       0.8580737       164.6406
2012    3       4       0.9427803       174.5049
2012    3       5       0.8062381       157.8468
2012    3       6       0.8066746       158.3874
2012    3       7       0.9283873       173.1918
2012    4       0       0.8810463       166.839
2012    4       1       0.9492882       175.2999
2012    4       2       0.8619549       165.302
2012    4       3       0.9382256       173.8818
2012    4       4       1.071832        187.5734
2012    4       5       1.250317        202.795
2012    4       6       1.315532        207.4234
2012    4       7       1.216385        199.7238
2012    5       0       1.196644        197.7252
2012    5       1       1.344654        209.5911
2012    5       2       1.527121        222.1547
2012    5       3       1.076342        186.8836
2012    5       4       1.010067        180.1135
2012    5       5       0.9538338       174.0632
2012    5       6       0.914155        170.3852
2012    5       7       0.9449083       174.0889
2012    6       0       1.022161        181.4002
2012    6       1       0.9837238       177.3535
2012    6       2       0.8993698       168.77
2012    6       3       0.906411        170.4604
2012    6       4       0.851228        164.0631
2012    6       5       0.8555234       164.2848
2012    6       6       0.8877001       168.7011
2012    6       7       0.9126436       171.6631
2012    7       0       0.9621169       177.0768
2012    7       1       0.920019        172.1523
2012    7       2       0.8288559       161.7123
2012    7       3       0.7295664       149.3249
2012    7       4       0.6553518       138.9944
2012    7       5       0.6560334       139.2786
2012    7       6       0.7195713       148.4927
2012    7       7       0.8791492       168.1864
2012    8       0       1.172436        197.8141
2012    8       1       1.106257        190.606
2012    8       2       0.9764232       177.9815
2012    8       3       0.9872092       178.7147
2012    8       4       1.044716        183.9833
2012    8       5       1.112829        190.6952
2012    8       6       1.297318        208.2409
2012    8       7       1.342853        210.5141
2012    9       0       1.517772        222.0607
2012    9       1       1.449631        218.5306
2012    9       2       1.318994        210.2778
2012    9       3       1.262536        205.9019
2012    9       4       1.549271        226.3254
2012    9       5       1.213816        201.3404
2012    9       6       1.10495         192.5246
2012    9       7       1.148252        195.9147
2012    10      0       1.270821        205.9709
2012    10      1       1.25441         204.1961
2012    10      2       1.145344        195.1323
2012    10      3       1.226511        201.1058
2012    10      4       1.19053         198.0112
2012    10      5       1.111789        190.7137
2012    10      6       1.276071        205.4808
2012    10      7       1.455293        218.5595
2012    11      0       1.575267        225.7393
2012    11      1       1.334011        210.4191
2012    11      2       1.203539        199.3061
2012    11      3       1.307083        207.0301
2012    11      4       1.300443        206.5691
2012    11      5       1.312312        207.852
2012    11      6       1.339401        209.8408
2012    11      7       1.498056        221.0617
2012    12      0       1.476784        219.4038
2012    12      1       1.371517        212.4521
2012    12      2       1.252074        203.3241
2012    12      3       1.26319         204.0672
2012    12      4       1.310702        207.5532
2012    12      5       1.400394        213.6997
2012    12      6       1.675355        229.3081
2012    12      7       1.918231        240.7332
2012    13      0       1.918014        241.0855
2012    13      1       1.899122        239.985
2012    13      2       1.76593         234.6046
2012    13      3       1.607417        226.9066
2012    13      4       1.463955        218.4771
2012    13      5       1.456251        217.7464
2012    13      6       1.579121        224.5361
2012    13      7       1.883328        239.6628
2012    14      0       2.082125        246.6277
2012    14      1       1.877654        238.0905
2012    14      2       1.574516        223.1337
2012    14      3       1.3659          210.4821
2012    14      4       1.318952        207.2545
2012    14      5       1.344795        209.0135
2012    14      6       1.441894        215.8699
2012    14      7       1.695252        230.5475
2012    15      0       1.833554        236.7329
2012    15      1       1.658599        227.9404
2012    15      2       1.510892        220.3488
2012    15      3       1.331791        208.8759
2012    15      4       1.158635        194.9889
2012    15      5       1.032456        183.2991
2012    15      6       0.944662        174.4034
2012    15      7       0.9835403       178.4679
2012    16      0       1.153052        194.466
2012    16      1       1.236548        201.5174
2012    16      2       1.014699        181.769
2012    16      3       0.9282789       172.9276
2012    16      4       0.9511344       175.358
2012    16      5       0.9879199       179.1986
2012    16      6       1.014736        182.0105
2012    16      7       1.084399        188.8068
2012    17      0       1.185883        197.5325
2012    17      1       1.060897        185.6632
2012    17      2       0.9876935       178.456
2012    17      3       0.9996917       179.1276
2012    17      4       1.049686        183.7002
2012    17      5       1.304205        205.0104
2012    17      6       1.296287        204.2474
2012    17      7       1.340959        208.7492
2012    18      0       1.516492        221.1894
2012    18      1       1.461141        217.3532
2012    18      2       1.388131        212.7223
2012    18      3       1.39165         212.6064
2012    18      4       1.633491        227.1102
2012    18      5       1.881449        238.8689
2012    18      6       2.032038        244.9389
2012    18      7       2.113717        248.4419
2012    19      0       2.327756        254.563
2012    19      1       2.155238        248.7499
2012    19      2       1.862531        238.4905
2012    19      3       1.784796        235.0024
2012    19      4       1.704392        231.2493
2012    19      5       1.670356        229.504
2012    19      6       1.877808        239.1319
2012    19      7       1.968805        243.0203
2012    20      0       1.694877        231.283
2012    20      1       1.332696        209.748
2012    20      2       1.296331        207.1915
2012    20      3       1.308702        207.7136
2012    20      4       1.322062        208.1052
2012    20      5       1.302527        206.2737
2012    20      6       1.280508        205.1714
2012    20      7       1.310221        208.1206
2012    21      0       1.234465        202.4893
2012    21      1       1.204547        199.5904
2012    21      2       1.169507        196.2456
2012    21      3       0.9940242       179.9493
2012    21      4       0.9771316       177.8862
2012    21      5       1.013882        181.0688
2012    21      6       1.101199        189.8823
2012    21      7       1.306621        206.6736
2012    22      0       1.432346        214.8763
2012    22      1       1.232642        199.9486
2012    22      2       1.198601        197.1766
2012    22      3       1.327421        206.782
2012    22      4       1.41161         212.2104
2012    22      5       1.396192        210.9533
2012    22      6       1.467543        215.6736
2012    22      7       1.573299        220.6795
2012    23      0       1.563872        220.0087
2012    23      1       1.355695        208.0703
2012    23      2       1.295002        204.3487
2012    23      3       1.105835        189.1125
2012    23      4       1.026216        181.8993
2012    23      5       1.048206        184.2204
2012    23      6       1.061758        186.0009
2012    23      7       1.138917        193.716
2012    24      0       1.188774        198.2711
2012    24      1       1.092483        189.6418
2012    24      2       0.9789251       178.3373
2012    24      3       0.9726246       177.64
2012    24      4       1.531719        223.6013
2012    24      5       0.9407678       173.7816
2012    24      6       0.9569357       175.8983
2012    24      7       1.074032        188.0481
2012    25      0       1.211087        200.0523
2012    25      1       1.1637          195.4821
2012    25      2       0.9587377       175.8575
2012    25      3       0.8527986       164.1688
2012    25      4       0.830552        161.3682
2012    25      5       1.613872        228.3898
2012    25      6       0.8746068       166.9299
2012    25      7       1.004018        181.2738
2012    26      0       1.244723        203.806
2012    26      1       1.034009        183.8363
2012    26      2       0.7848855       156.0796
2012    26      3       0.6881474       143.1645
2012    26      4       0.7833965       155.4634
2012    26      5       0.6856068       142.4606
2012    26      6       0.441433        103.9438
2012    26      7       0.3475655       86.58043
2012    27      0       0.3332744       83.8491
2012    27      1       0.3230492       81.60767
2012    27      2       0.2379886       63.72813
2012    27      3       0.1613653       46.1956
2012    27      4       0.1413138       41.3416
2012    27      5       0.1293933       38.39122
2012    27      6       0.1301325       38.52051
2012    27      7       0.1463687       42.50753
2012    28      0       0.1934272       53.65941
2012    28      1       0.2447631       65.16074
2012    28      2       0.2584876       68.02004
2012    28      3       0.226144        60.87849
2012    28      4       0.2048401       56.0367
2012    28      5       0.2095216       57.12985
2012    28      6       0.201997        55.47193
2012    28      7       0.2432198       64.73252
2012    29      0       0.2745811       71.37958
2012    29      1       0.2791351       72.25427
2012    29      2       0.3244718       80.75528
2012    29      3       0.4328218       100.2754
2012    29      4       0.5195603       114.8914
2012    29      5       0.6368638       132.9398
2012    29      6       0.8458495       161.1993
2012    29      7       1.14996         192.9701
2012    30      0       1.169122        194.4132
2012    30      1       1.006134        178.3812
2012    30      2       1.053062        182.6026
2012    30      3       1.293205        202.7984
2012    30      4       1.257093        201.0803
2012    30      5       1.102712        188.7059
2012    30      6       1.03065         182.2249
2012    30      7       1.072278        186.4646
2012    31      0       1.050654        184.065
2012    31      1       0.9436045       172.4519
2012    31      2       0.8109151       157.3119
2012    31      3       0.7813186       153.7359
2012    31      4       0.8276193       158.965
2012    31      5       0.8720797       163.8129
2012    31      6       0.9579329       173.9696
2012    31      7       0.9247194       171.0348
2013    1       0       0.4678241       108.5893
2013    1       1       0.43967         103.4683
2013    1       2       0.3239906       81.47101
2013    1       3       0.2837232       73.09619
2013    1       4       0.3375386       83.77673
2013    1       5       0.3882609       93.47212
2013    1       6       0.376551        91.49546
2013    1       7       0.3185704       80.3709
2013    2       0       0.2680868       69.74862
2013    2       1       0.2510213       65.98264
2013    2       2       0.2520901       66.13676
2013    2       3       0.2726514       70.35454
2013    2       4       0.2668663       69.11282
2013    2       5       0.2594302       67.52154
2013    2       6       0.2688384       69.58706
2013    2       7       0.3014498       76.60904
2013    3       0       0.3645619       89.03644
2013    3       1       0.3912121       93.861
2013    3       2       0.3447714       84.8833
2013    3       3       0.3304329       82.06606
2013    3       4       0.3222633       80.34151
2013    3       5       0.3370222       83.00667
2013    3       6       0.3534737       85.9764
2013    3       7       0.3786389       90.7249
2013    4       0       0.3826098       91.81624
2013    4       1       0.3744733       90.50528
2013    4       2       0.3487303       85.62907
2013    4       3       0.3167945       79.23398
2013    4       4       0.3077488       77.35407
2013    4       5       0.3013452       76.13227
2013    4       6       0.296248        75.00014
2013    4       7       0.3305086       81.96121
2013    5       0       0.384166        92.44042
2013    5       1       0.4328369       101.3086
2013    5       2       0.4411827       102.5747
2013    5       3       0.4316086       100.3913
2013    5       4       0.4292275       99.62938
2013    5       5       0.414465        96.99341
2013    5       6       0.3946562       93.53764
2013    5       7       0.3876972       92.4709
2013    6       0       0.4225485       98.69206
2013    6       1       0.4396644       102.2387
2013    6       2       0.4257469       99.98611
2013    6       3       0.4339144       101.2442
2013    6       4       0.4614766       105.672
2013    6       5       0.4577402       104.9276
2013    6       6       0.4373695       101.7688
2013    6       7       0.4440583       103.1275
2013    7       0       0.5119463       114.541
2013    7       1       0.6039443       129.3778
2013    7       2       0.5404556       119.3327
2013    7       3       0.4912177       111.0312
2013    7       4       0.4756457       107.8708
2013    7       5       0.4378464       101.8814
2013    7       6       0.4786694       108.9988
2013    7       7       0.5533769       121.3794
2013    8       0       0.6581922       136.9147
2013    8       1       0.7060543       143.4879
2013    8       2       0.6576473       137.1999
2013    8       3       0.6504279       136.1388
2013    8       4       0.6359357       133.3113
2013    8       5       0.5917527       126.5239
2013    8       6       0.565579        122.704
2013    8       7       0.6121549       129.8917
2013    9       0       0.6063823       129.1163
2013    9       1       0.5900472       127.0682
2013    9       2       0.6196835       132.0763
2013    9       3       0.6252043       132.6396
2013    9       4       0.6153267       131.0671
2013    9       5       0.552877        121.4768
2013    9       6       0.5007436       112.9687
2013    9       7       0.402471        95.49142
2013    10      0       0.4743075       107.8466
2013    10      1       0.5584752       121.6204
2013    10      2       0.4652581       106.3151
2013    10      3       0.4154943       97.47723
2013    10      4       0.4107714       96.5358
2013    10      5       0.4384756       101.2274
2013    10      6       0.4483675       103.0294
2013    10      7       0.4828486       109.537
2013    11      0       0.547826        120.2099
2013    11      1       0.6004785       128.2057
2013    11      2       0.5416526       119.2725
2013    11      3       0.5368742       118.5393
2013    11      4       0.5605127       122.0502
2013    11      5       0.5821177       127.3256
2013    11      6       0.5296946       119.5472
2013    11      7       0.5113133       116.9798
2013    12      0       0.5719767       126.8529
2013    12      1       0.6363148       136.0777
2013    12      2       0.6034204       128.9977
2013    12      3       0.5775167       124.971
2013    12      4       0.5408387       119.2882
2013    12      5       0.5003946       112.7875
2013    12      6       0.4530231       104.7759
2013    12      7       0.4758565       111.2498
2013    13      0       0.5356866       119.7722
2013    13      1       0.5267453       119.8516
2013    13      2       0.4409284       104.7641
2013    13      3       0.4182832       100.8926
2013    13      4       0.4506422       106.9943
2013    13      5       0.4901274       113.8875
2013    13      6       0.5003802       115.9785
2013    13      7       0.4885236       114.0705
2013    14      0       0.5285952       120.8519
2013    14      1       0.5699762       127.3365
2013    14      2       0.564631        126.7096
2013    14      3       0.5401799       122.9984
2013    14      4       0.4832164       113.2646
2013    14      5       0.4505924       107.5492
2013    14      6       0.4005772       96.85398
2013    14      7       0.3782124       94.20851
2013    15      0       0.4091473       98.18321
2013    15      1       0.4442562       104.5038
2013    15      2       0.4117021       98.73988
2013    15      3       0.3527649       87.55918
2013    15      4       0.3276781       82.39182
2013    15      5       0.9807537       179.2211
2013    15      6       0.457219        106.5606
2013    15      7       0.518119        117.1437
2013    16      0       0.5580483       123.6813
2013    16      1       0.546411        121.5373
2013    16      2       0.4996971       113.9188
2013    16      3       0.487922        111.9099
2013    16      4       0.6442909       136.4192
2013    16      5       0.8010124       157.4823
2013    16      6       0.9293704       173.1846
2013    16      7       1.190114        198.9684
2013    17      0       1.671615        231.7183
2013    17      1       1.471208        218.8539
2013    17      2       1.247796        203.5383
2013    17      3       1.174554        196.9769
2013    17      4       1.199835        198.6441
2013    17      5       1.175066        196.1864
2013    17      6       1.10694         189.854
2013    17      7       1.144317        193.2168
2013    18      0       1.195142        197.4784
2013    18      1       1.13684         192.9408
2013    18      2       1.068926        186.6993
2013    18      3       0.8274729       160.2947
2013    18      4       0.7439441       148.6603
2013    18      5       0.9096716       169.0071
2013    18      6       0.9825758       177.3552
2013    18      7       1.101063        189.709
2013    19      0       1.601905        227.4397
2013    19      1       1.482621        218.8271
2013    19      2       1.765478        232.5229
2013    19      3       1.381604        211.3891
2013    19      4       1.239269        201.6481
2013    19      5       1.35636         210.4748
2013    19      6       1.358646        210.5119
2013    19      7       1.609029        225.8324
2013    20      0       1.780396        234.4889
2013    20      1       1.930033        240.8134
2013    20      2       1.701242        230.9378
2013    20      3       1.458603        217.7303
2013    20      4       1.268209        204.0463
2013    20      5       1.16993         195.8548
2013    20      6       1.077476        187.714
2013    20      7       1.242032        201.6958
2013    21      0       1.653203        228.7247
2013    21      1       1.352135        210.1891
2013    21      2       1.293958        205.8838
2013    21      3       1.35947         209.302
2013    21      4       1.221959        199.2413
2013    21      5       1.273818        202.9353
2013    21      6       1.385933        210.8387
2013    21      7       1.560279        221.9755
2013    22      0       1.394492        212.0061
2013    22      1       1.087386        188.0201
2013    22      2       0.8610326       164.5171
2013    22      3       0.7413269       149.2734
2013    22      4       0.7864014       154.8186
2013    22      5       0.7932603       155.7495
2013    22      6       0.6167426       131.8799
2013    22      7       0.5267979       117.9612
2013    23      0       0.4655635       107.6228
2013    23      1       0.430132        101.1175
2013    23      2       0.3931539       94.24726
2013    23      3       0.3887717       93.34045
2013    23      4       0.3862064       92.55888
2013    23      5       0.3941607       93.86829
2013    23      6       0.3934408       93.89652
2013    23      7       0.4073429       96.76302
2013    24      0       0.4348196       101.8237
2013    24      1       0.4557969       105.4242
2013    24      2       0.3522067       86.27464
2013    24      3       0.3044341       76.83441
2013    24      4       0.3032677       76.56081
2013    24      5       0.2993513       75.59815
2013    24      6       0.311761        78.02715
2013    24      7       0.3290431       81.6737
2013    25      0       0.3730439       90.16923
2013    25      1       0.4274042       100.2372
2013    25      2       0.35984         87.58468
2013    25      3       0.3155345       78.71955
2013    25      4       0.3436376       83.88879
2013    25      5       0.3759141       89.70991
2013    25      6       0.371902        89.18343
2013    25      7       0.3788875       91.04699
2013    26      0       0.462383        106.2915
2013    26      1       0.5690753       123.542
2013    26      2       0.7351442       147.3902
2013    26      3       0.710556        144.1786
2013    26      4       0.4864291       110.2241
2013    26      5       0.3948651       93.95067
2013    26      6       0.5404538       119.2921
2013    26      7       0.66637         138.7348
2013    27      0       0.9219716       170.6639
2013    27      1       1.093622        187.7316
2013    27      2       1.122149        190.4118
2013    27      3       1.045945        183.6021
2013    27      4       1.153124        193.0119
2013    27      5       1.435323        213.4906
2013    27      6       1.728003        230.1129
2013    27      7       2.028938        243.2337
2013    28      0       2.145895        247.6752
2013    28      1       2.150957        247.9772
2013    28      2       1.755873        232.7352
2013    28      3       1.47837         217.5038
2013    28      4       1.164916        194.4759
2013    28      5       1.005723        179.6638
2013    28      6       1.150165        193.2718
2013    28      7       1.291504        205.3709
2013    29      0       1.177389        196.7927
2013    29      1       1.133047        192.9577
2013    29      2       1.036259        183.961
2013    29      3       0.8440459       163.1982
2013    29      4       0.7837837       155.6357
2013    29      5       0.7529567       151.5406
2013    29      6       0.7437054       150.6656
2013    29      7       0.8524974       164.5898
2013    30      0       0.951862        175.7655
2013    30      1       1.019091        182.7016
2013    30      2       1.056799        187.0264
2013    30      3       1.281204        207.6153
2013    30      4       0.759692        153.0921
2013    30      5       0.7539736       152.1103
2013    30      6       0.8935055       170.2407
2013    30      7       1.151742        196.2649
2013    31      0       1.720412        233.6133
2013    31      1       1.793887        236.4298
2013    31      2       1.51222         221.5843
2013    31      3       1.726381        234.1075
2013    31      4       1.323076        207.908
2013    31      5       1.391592        212.8131
2013    31      6       1.513763        221.0366
2013    31      7       1.888533        240.5355
2014    1       0       1.497506        219.9675
2014    1       1       1.847599        238.7064
2014    1       2       1.493769        219.2837
2014    1       3       1.424089        215.0494
2014    1       4       1.330075        208.5859
2014    1       5       1.27632         204.3391
2014    1       6       1.312615        208.1008
2014    1       7       1.287668        205.7353
2014    2       0       1.326469        209.0524
2014    2       1       1.421552        215.5576
2014    2       2       1.305163        206.4843
2014    2       3       1.275028        203.97
2014    2       4       1.020368        182.0725
2014    2       5       0.9459128       174.6421
2014    2       6       0.994445        180.2244
2014    2       7       1.075053        187.8995
2014    3       0       1.313156        207.1921
2014    3       1       0.7800478       152.1168
2014    3       2       0.90242         167.5317
2014    3       3       1.173672        194.2379
2014    3       4       1.574908        222.1281
2014    3       5       1.424879        212.4535
2014    3       6       1.687853        226.5047
2014    3       7       1.879281        235.1213
2014    4       0       1.98288         239.0001
2014    4       1       1.867135        234.153
2014    4       2       1.728001        228.1836
2014    4       3       1.66025         225.1029
2014    4       4       1.719902        228.0056
2014    4       5       1.735539        228.5709
2014    4       6       1.9543          238.2239
2014    4       7       1.910154        236.7075
2014    5       0       1.726318        228.9355
2014    5       1       1.438712        213.1702
2014    5       2       1.22057         197.2962
2014    5       3       1.072134        184.6457
2014    5       4       0.9520622       173.0863
2014    5       5       0.8908411       166.5875
2014    5       6       0.853193        162.6625
2014    5       7       0.9258621       171.2023
2014    6       0       0.9941653       178.3749
2014    6       1       1.000096        178.8395
2014    6       2       0.9886569       176.7395
2014    6       3       0.8587971       162.8302
2014    6       4       0.8099684       156.8557
2014    6       5       0.8492587       161.2743
2014    6       6       0.8767171       164.8267
2014    6       7       0.9554872       173.5566
2014    7       0       1.051611        182.836
2014    7       1       1.055486        183.0405
2014    7       2       0.9453576       172.2316
2014    7       3       0.9415108       172.1183
2014    7       4       0.9249388       170.2714
2014    7       5       0.8979118       167.0996
2014    7       6       0.8363621       159.949
2014    7       7       0.8374281       160.3801
2014    8       0       0.9624464       174.0085
2014    8       1       1.000108        177.9312
2014    8       2       1.013102        179.5235
2014    8       3       1.011419        178.93
2014    8       4       0.9029465       167.5008
2014    8       5       0.8021606       155.8141
2014    8       6       0.706584        143.3341
2014    8       7       0.8130416       157.2543
2014    9       0       1.066581        185.1309
2014    9       1       1.096409        188.104
2014    9       2       1.045379        182.8702
2014    9       3       0.9849134       176.8599
2014    9       4       0.8692548       164.1664
2014    9       5       0.7648305       151.6405
2014    9       6       0.6888449       141.6934
2014    9       7       0.7306891       147.1903
2014    10      0       0.8982349       167.5941
2014    10      1       0.9756376       175.4174
2014    10      2       0.8890044       166.3272
2014    10      3       0.7206261       146.1754
2014    10      4       0.6535111       136.9917
2014    10      5       0.6433726       135.3139
2014    10      6       0.5973989       128.4624
2014    10      7       0.6332416       133.7788
2014    11      0       0.7601097       150.9422
2014    11      1       0.8074632       156.9933
2014    11      2       0.8059794       157.0036
2014    11      3       0.9031267       167.9719
2014    11      4       1.375529        209.3236
2014    11      5       1.725885        229.5182
2014    11      6       1.76861         231.8303
2014    11      7       1.858657        236.5519
2014    12      0       1.894152        238.1595
2014    12      1       1.882775        237.5376
2014    12      2       1.633382        225.8829
2014    12      3       1.499524        218.1655
2014    12      4       1.488517        217.6134
2014    12      5       1.616139        224.8319
2014    12      6       1.614426        224.8383
2014    12      7       1.524542        220.455
2014    13      0       1.254588        202.5489
2014    13      1       1.15544         193.9887
2014    13      2       1.117617        190.4997
2014    13      3       1.065539        186.0759
2014    13      4       0.9885755       178.0295
2014    13      5       0.7668761       152.3688
2014    13      6       0.7459784       149.5621
2014    13      7       0.7085642       145.4482
2014    14      0       0.6550766       138.261
2014    14      1       0.6059272       130.6261
2014    14      2       0.4760389       109.0687
2014    14      3       0.4898139       111.2918
2014    14      4       0.5001991       113.0315
2014    14      5       0.5061995       114.0241
2014    14      6       0.5217773       116.7014
2014    14      7       0.5773957       126.0008
2014    15      0       0.5990154       129.6123
2014    15      1       0.6175746       132.4698
2014    15      2       0.5752543       125.9706
2014    15      3       0.5297872       118.7457
2014    15      4       0.5229097       117.6057
2014    15      5       0.5481533       121.6808
2014    15      6       0.53265         119.334
2014    15      7       0.5046255       115.0821
2014    16      0       0.5218704       117.9426
2014    16      1       0.5386361       120.3506
2014    16      2       0.5061875       114.9553
2014    16      3       0.4470072       104.9751
2014    16      4       0.420829        100.1969
2014    16      5       0.4191378       99.81845
2014    16      6       0.4124042       98.87163
2014    16      7       0.4185619       99.71341
2014    17      0       0.4378831       103.2677
2014    17      1       0.4176358       99.41888
2014    17      2       0.3552999       87.46538
2014    17      3       0.3464028       85.77583
2014    17      4       0.3689344       90.15564
2014    17      5       0.4066107       97.159
2014    17      6       0.4328066       101.9453
2014    17      7       0.4560075       106.2948
2014    18      0       0.4967008       113.4774
2014    18      1       0.5002753       114.0042
2014    18      2       0.3923639       94.77067
2014    18      3       0.3400709       84.55042
2014    18      4       0.4038812       96.28701
2014    18      5       0.4944668       111.9273
2014    18      6       0.6085743       130.5606
2014    18      7       0.588308        127.72
2014    19      0       0.5911235       127.9306
2014    19      1       0.5441542       119.8329
2014    19      2       0.4094951       97.0384
2014    19      3       0.3157749       79.34924
2014    19      4       0.3262932       81.12223
2014    19      5       0.3273893       81.09714
2014    19      6       0.401162        95.13343
2014    19      7       0.5587302       121.4919
2014    20      0       0.7498077       148.1107
2014    20      1       0.8656318       162.7455
2014    20      2       0.8480671       161.4085
2014    20      3       0.817284        157.4374
2014    20      4       0.7878714       153.248
2014    20      5       0.7444961       147.4052
2014    20      6       0.6633071       136.7667
2014    20      7       0.6457493       134.9048
2014    21      0       0.701918        142.9155
2014    21      1       0.8543017       161.7685
2014    21      2       0.8810756       164.9057
2014    21      3       0.7800806       153.1163
2014    21      4       0.7712301       151.9491
2014    21      5       0.8226937       158.0329
2014    21      6       0.7819413       153.1553
2014    21      7       0.8507229       161.7513
2014    22      0       0.9784619       176.1358
2014    22      1       1.065403        184.9685
2014    22      2       1.0305          181.3942
2014    22      3       0.9453715       172.5022
2014    22      4       0.8926106       166.4481
2014    22      5       0.8272404       158.7345
2014    22      6       0.7790021       153.2229
2014    22      7       0.7701076       153.0693
2014    23      0       0.7083227       145.0268
2014    23      1       0.6812526       141.3387
2014    23      2       0.5302258       120.5985
2014    23      3       0.4144383       98.54223
2014    23      4       0.4551925       105.5388
2014    23      5       0.5282914       117.4276
2014    23      6       0.5636635       122.895
2014    23      7       0.5997195       129.1146
2014    24      0       0.6637145       138.8897
2014    24      1       0.7229259       146.6661
2014    24      2       0.7304097       147.4214
2014    24      3       1.389324        212.9057
2014    24      4       0.7306518       147.1536
2014    24      5       0.7157952       144.7513
2014    24      6       0.6972633       142.5222
2014    24      7       0.7428379       149.2218
2014    25      0       0.7946137       156.0632
2014    25      1       0.7946269       156.1541
2014    25      2       0.6624669       138.3684
2014    25      3       0.4977947       113.196
2014    25      4       0.4610438       106.5524
2014    25      5       0.4971913       112.3607
2014    25      6       0.4882449       110.3641
2014    25      7       0.5097431       113.2895
2014    26      0       0.5441763       117.9768
2014    26      1       0.5679854       122.0683
2014    26      2       0.6009307       127.5768
2014    26      3       0.6235911       131.2818
2014    26      4       0.652914        135.4027
2014    26      5       0.7226103       144.8786
2014    26      6       0.7656854       150.4708
2014    26      7       0.7872167       153.5718
2014    27      0       0.836795        159.9666
2014    27      1       0.8472493       161.2613
2014    27      2       0.8022619       155.9294
2014    27      3       0.7830847       153.6212
2014    27      4       0.7622799       151.016
2014    27      5       0.7307561       146.8876
2014    27      6       0.6754093       140.2265
2014    27      7       0.6508043       136.9396
2014    28      0       0.6675576       139.8191
2014    28      1       0.6968015       143.9381
2014    28      2       0.7021465       145.1084
2014    28      3       0.7111452       146.2569
2014    28      4       0.7233942       147.661
2014    28      5       0.7190672       146.8236
2014    28      6       0.6395696       136.0649
2014    28      7       0.6062229       131.3936
2014    29      0       0.6573987       138.984
2014    29      1       0.7245977       147.8078
2014    29      2       0.6629242       139.3639
2014    29      3       0.582425        127.7714
2014    29      4       0.543431        121.3196
2014    29      5       0.5007207       113.6699
2014    29      6       0.5053801       114.0751
2014    29      7       0.5138967       115.8665
2014    30      0       0.590553        127.2959
2014    30      1       0.608146        129.8685
2014    30      2       0.6978788       141.7148
2014    30      3       0.7726378       150.9631
2014    30      4       0.7448725       148.3731
2014    30      5       0.8256999       157.9161
2014    30      6       0.8778229       166.2819
2014    30      7       0.6167214       132.316
2014    31      0       0.4810405       110.529
2014    31      1       0.4800005       110.1602
2014    31      2       0.3870453       92.95178
2014    31      3       0.3334416       82.33823
2014    31      4       0.346159        84.94011
2014    31      5       0.3631925       88.3296
2014    31      6       0.3973849       94.91908
2014    31      7       0.4104523       97.99576
2015    1       0       2.241666        252.8336
2015    1       1       2.32171         254.3029
2015    1       2       2.167883        249.4147
2015    1       3       2.450844        258.1748
2015    1       4       2.334141        254.1033
2015    1       5       1.779065        233.5647
2015    1       6       1.633186        226.5322
2015    1       7       1.354161        209.3261
2015    2       0       1.564308        222.7822
2015    2       1       1.448536        216.4977
2015    2       2       1.353683        210.0263
2015    2       3       1.407956        213.6816
2015    2       4       1.264074        203.0511
2015    2       5       1.367091        210.1243
2015    2       6       1.323757        207.2683
2015    2       7       1.118432        191.5129
2015    3       0       1.132447        192.361
2015    3       1       0.9973964       179.2601
2015    3       2       1.046468        184.5922
2015    3       3       1.07429         187.6214
2015    3       4       0.9644251       176.7183
2015    3       5       0.8859186       167.8615
2015    3       6       0.7150412       146.2558
2015    3       7       0.6140745       131.0177
2015    4       0       0.5522825       121.4721
2015    4       1       0.5556858       121.9304
2015    4       2       0.5836605       125.5629
2015    4       3       0.6785783       138.8484
2015    4       4       0.774712        152.3326
2015    4       5       0.7414792       148.3022
2015    4       6       0.7647555       151.3088
2015    4       7       0.8582911       163.4847
2015    5       0       0.9476003       173.4306
2015    5       1       0.9240689       170.6038
2015    5       2       0.7889395       155.767
2015    5       3       0.6294487       132.6151
2015    5       4       0.5706567       123.1251
2015    5       5       0.556794        120.2357
2015    5       6       0.4915035       110.1798
2015    5       7       0.4098854       96.98461
2015    6       0       0.4990576       112.5398
2015    6       1       0.5840904       125.1091
2015    6       2       0.6225558       130.6195
2015    6       3       0.6645185       136.2369
2015    6       4       0.5678051       122.4048
2015    6       5       0.4731861       106.5661
2015    6       6       0.4933091       109.4108
2015    6       7       0.8771378       161.5587
2015    7       0       1.128389        188.4437
2015    7       1       1.174831        192.341
2015    7       2       1.295161        201.4268
2015    7       3       1.342639        205.3365
2015    7       4       1.128927        188.9778
2015    7       5       1.133159        188.8579
2015    7       6       0.9212737       167.6809
2015    7       7       0.6704311       137.6044
2015    8       0       0.71482         144.1722
2015    8       1       0.9698449       174.4596
2015    8       2       1.045861        181.7692
2015    8       3       0.9695222       174.204
2015    8       4       0.9078441       167.3043
2015    8       5       0.8985166       166.2521
2015    8       6       0.8147122       156.9354
2015    8       7       0.8313728       159.4603
2015    9       0       0.9438894       171.8711
2015    9       1       0.9963729       177.3349
2015    9       2       0.9124041       168.8317
2015    9       3       0.7750647       153.0839
2015    9       4       0.6761585       139.9488
2015    9       5       0.5807516       125.941
2015    9       6       0.4673181       107.4496
2015    9       7       0.4670812       107.3145
2015    10      0       0.5588743       122.103
2015    10      1       0.6170028       131.1859
2015    10      2       0.6102397       130.4777
2015    10      3       0.5587055       122.3217
2015    10      4       0.6153421       130.6768
2015    10      5       0.5844383       126.3479
2015    10      6       0.4810624       109.7129
2015    10      7       0.4775637       109.5073
2015    11      0       0.5896684       127.9503
2015    11      1       0.687065        142.2886
2015    11      2       0.52179         117.391
2015    11      3       0.3875189       93.09293
2015    11      4       0.382285        92.0353
2015    11      5       0.4000544       95.1808
2015    11      6       0.4168806       98.22152
2015    11      7       0.4749963       108.9239
2015    12      0       0.5225087       116.9308
2015    12      1       0.5390277       119.6096
2015    12      2       0.487804        110.7976
2015    12      3       0.4178782       98.53131
2015    12      4       0.3665467       89.13949
2015    12      5       0.3558492       87.17093
2015    12      6       0.4021433       96.08016
2015    12      7       0.5079171       115.1748
2015    13      0       0.5535051       122.8818
2015    13      1       0.500333        114.0883
2015    13      2       0.5352985       120.1049
2015    13      3       0.9522047       175.1626
2015    13      4       1.056656        185.7577
2015    13      5       1.117784        191.2282
2015    13      6       1.534044        221.4719
2015    13      7       1.741113        233.1443
2015    14      0       1.543387        222.443
2015    14      1       1.204611        198.8725
2015    14      2       0.9626216       176.0308
2015    14      3       0.9044317       168.7478
2015    14      4       1.095873        188.2569
2015    14      5       1.162213        194.937
2015    14      6       1.019191        182.1039
2015    14      7       0.9234          172.2063
2015    15      0       0.7910763       156.3677
2015    15      1       0.6632188       138.8665
2015    15      2       0.5605311       123.1442
2015    15      3       0.5538832       121.8903
2015    15      4       0.5958061       128.4027
2015    15      5       0.6231705       132.4686
2015    15      6       0.624631        132.7576
2015    15      7       0.6609466       138.4766
2015    16      0       0.6990877       143.8739
2015    16      1       0.6942063       142.5249
2015    16      2       0.7709474       152.1793
2015    16      3       0.7979939       155.0819
2015    16      4       0.7368519       147.7765
2015    16      5       0.7435787       149.1366
2015    16      6       0.7836996       154.5699
2015    16      7       0.8502685       163.5558
2015    17      0       0.8984829       169.7579
2015    17      1       0.8325904       161.719
2015    17      2       0.7577288       152.0388
2015    17      3       0.6553888       137.548
2015    17      4       0.6286441       133.476
2015    17      5       0.6412358       135.3983
2015    17      6       0.6605621       138.653
2015    17      7       0.6633021       139.4132
2015    18      0       0.7042374       145.1598
2015    18      1       0.699947        144.6304
2015    18      2       0.6019214       129.6934
2015    18      3       0.5104115       114.2552
2015    18      4       0.4863878       110.1239
2015    18      5       0.487447        110.4734
2015    18      6       0.5057419       114.0904
2015    18      7       0.5664774       124.8349
2015    19      0       0.6304892       134.7213
2015    19      1       0.5856854       127.6888
2015    19      2       0.418748        99.34075
2015    19      3       0.3442017       84.86969
2015    19      4       0.3339828       82.37257
2015    19      5       0.4562521       105.5925
2015    19      6       0.4666712       107.2601
2015    19      7       0.5504146       121.7821
2015    20      0       0.6142451       131.7898
2015    20      1       0.5863103       127.1033
2015    20      2       0.5516403       121.7027
2015    20      3       0.5716879       125.2818
2015    20      4       0.5634944       123.5524
2015    20      5       0.5685346       124.169
2015    20      6       0.557156        122.6759
2015    20      7       0.5796117       126.5531
2015    21      0       0.6443344       136.5086
2015    21      1       0.6357021       135.2008
2015    21      2       0.5474226       121.2291
2015    21      3       0.4890618       111.0863
2015    21      4       0.4775969       108.6508
2015    21      5       0.4940059       111.0957
2015    21      6       0.5346785       117.9828
2015    21      7       0.6000965       128.9858
2015    22      0       0.6734544       140.3153
2015    22      1       0.6609463       138.3966
2015    22      2       0.6277674       133.3608
2015    22      3       0.669848        139.5138
2015    22      4       0.6211268       132.0277
2015    22      5       0.6163919       131.2467
2015    22      6       0.6050747       130.0079
2015    22      7       0.6051931       130.7024
2015    23      0       0.6509362       137.5578
2015    23      1       0.6906193       143.0216
2015    23      2       0.6489037       136.8143
2015    23      3       0.581423        126.5742
2015    23      4       0.519476        116.723
2015    23      5       0.4760988       109.3435
2015    23      6       0.4586051       106.3373
2015    23      7       0.4918027       112.1306
2015    24      0       0.5842114       126.8013
2015    24      1       0.5851049       126.98
2015    24      2       0.4587064       105.6347
2015    24      3       0.4855771       110.4868
2015    24      4       0.5104415       114.9254
2015    24      5       0.5139654       115.7498
2015    24      6       0.4704921       108.468
2015    24      7       0.4819667       110.6134
2015    25      0       0.5731705       125.5874
2015    25      1       0.642162        136.0285
2015    25      2       0.5822023       127.046
2015    25      3       0.515451        116.6205
2015    25      4       0.4580713       106.7328
2015    25      5       0.4190313       99.63447
2015    25      6       0.4519478       105.0512
2015    25      7       0.5584005       122.1494
2015    26      0       0.6882072       141.5273
2015    26      1       0.7389453       148.5523
2015    26      2       0.7108059       144.401
2015    26      3       0.878151        164.0331
2015    26      4       1.134946        188.7707
2015    26      5       1.205076        194.7548
2015    26      6       0.9558417       173.9444
2015    26      7       0.9050173       168.4712
2015    27      0       0.9768655       176.5757
2015    27      1       1.053495        184.2493
2015    27      2       1.020761        181.1192
2015    27      3       1.037964        183.2072
2015    27      4       1.08359         187.6509
2015    27      5       1.057947        185.1105
2015    27      6       1.060388        185.2383
2015    27      7       1.138107        192.6
2015    28      0       1.21069         198.2307
2015    28      1       1.050954        184.7422
2015    28      2       1.036784        183.3962
2015    28      3       1.028937        182.0583
2015    28      4       0.9486677       173.7538
2015    28      5       0.9597217       174.7811
2015    28      6       1.31113         207.3157
2015    28      7       1.344438        209.5882
2015    29      0       1.50243         221.3909
2015    29      1       1.274797        204.2756
2015    29      2       1.022437        182.3128
2015    29      3       0.9419025       174.0265
2015    29      4       0.9047805       169.8461
2015    29      5       0.8040248       157.8397
2015    29      6       0.801516        157.4275
2015    29      7       0.7738075       154.2732
2015    30      0       0.7585189       152.1244
2015    30      1       0.7269          147.4384
2015    30      2       0.9263955       171.5869
2015    30      3       1.0823          187.4513
2015    30      4       0.7304792       147.9252
2015    30      5       0.5400618       119.7602
2015    30      6       0.5540456       121.906
2015    30      7       0.5459082       121.1048
2015    31      0       0.5905577       128.0632
2015    31      1       0.6655824       138.7963
2015    31      2       0.7192024       146.1008
2015    31      3       0.7114775       144.6932
2015    31      4       0.684895        140.7767
2015    31      5       0.669446        138.8385
2015    31      6       0.5709749       124.6349
2015    31      7       0.5347053       119.2266
2016    1       0       1.209953        200.8892
2016    1       1       1.103088        189.7413
2016    1       2       0.9984904       179.5549
2016    1       3       1.028068        182.0246
2016    1       4       1.034644        181.8344
2016    1       5       0.91745         170.2087
2016    1       6       0.8703936       165.5623
2016    1       7       0.913328        171.4545
2016    2       0       1.008394        181.7868
2016    2       1       1.030794        183.8539
2016    2       2       0.9947982       179.886
2016    2       3       0.9590153       176.0252
2016    2       4       0.9054406       170.2964
2016    2       5       0.8207007       160.6458
2016    2       6       0.8638068       166.0407
2016    2       7       0.9125103       172.0367
2016    3       0       0.9352503       174.5909
2016    3       1       0.8829833       168.285
2016    3       2       0.8038844       158.6558
2016    3       3       0.7219207       147.6487
2016    3       4       0.6788293       141.4607
2016    3       5       0.6668018       139.5242
2016    3       6       0.6023667       129.9189
2016    3       7       0.7211204       147.8649
2016    4       0       0.8214733       160.5254
2016    4       1       0.902212        168.9812
2016    4       2       0.9135502       169.9122
2016    4       3       1.024501        181.8811
2016    4       4       1.046213        184.1466
2016    4       5       1.08392         187.6867
2016    4       6       1.253678        202.5217
2016    4       7       1.494952        218.8623
2016    5       0       1.600244        225.4679
2016    5       1       1.211853        198.0884
2016    5       2       1.012525        180.7319
2016    5       3       0.9531428       174.8486
2016    5       4       0.7158339       146.509
2016    5       5       0.5862054       127.6556
2016    5       6       0.5272287       118.4023
2016    5       7       0.4151756       99.1679
2016    6       0       0.337382        84.41742
2016    6       1       0.2887924       74.46655
2016    6       2       0.2023766       55.47137
2016    6       3       0.1651777       46.80939
2016    6       4       0.1793206       50.17742
2016    6       5       0.1817689       50.69823
2016    6       6       0.1648312       46.63118
2016    6       7       0.1690428       47.82751
2016    7       0       0.2046129       56.27272
2016    7       1       0.209432        57.28767
2016    7       2       0.1848597       51.69256
2016    7       3       0.2084888       57.00585
2016    7       4       0.2610243       68.42914
2016    7       5       0.2488974       65.68835
2016    7       6       0.2148958       58.24752
2016    7       7       0.2169975       58.84717
2016    8       0       0.2551573       67.21722
2016    8       1       0.279957        72.53628
2016    8       2       0.2348741       62.70172
2016    8       3       0.2180872       58.86522
2016    8       4       0.2245976       60.09977
2016    8       5       0.2320853       61.44975
2016    8       6       0.2141065       57.54692
2016    8       7       0.2128437       57.48895
2016    9       0       0.2338078       62.24602
2016    9       1       0.2524716       66.31684
2016    9       2       0.1949338       53.52248
2016    9       3       0.2296305       61.3509
2016    9       4       0.28287         72.61447
2016    9       5       0.2985133       75.60961
2016    9       6       0.3358631       82.81805
2016    9       7       0.3781707       90.97672
2016    10      0       0.3377501       83.08838
2016    10      1       0.2778805       71.53488
2016    10      2       0.2261376       60.7592
2016    10      3       0.2007514       55.16655
2016    10      4       0.2393123       63.46561
2016    10      5       0.2813235       72.26142
2016    10      6       0.2614675       68.0951
2016    10      7       0.2510084       65.99992
2016    11      0       0.2858248       73.5694
2016    11      1       0.3488459       86.20748
2016    11      2       0.3509161       86.49329
2016    11      3       0.342765        84.99548
2016    11      4       0.327058        81.85989
2016    11      5       0.3171276       79.88638
2016    11      6       0.313226        79.08955
2016    11      7       0.3432358       85.27372
2016    12      0       0.3963151       95.44773
2016    12      1       0.4260419       100.8496
2016    12      2       0.3719511       90.69846
2016    12      3       0.3563076       87.55181
2016    12      4       0.334672        83.22361
2016    12      5       0.3306147       82.77812
2016    12      6       0.3322424       83.16227
2016    12      7       0.3662662       90.03483
2016    13      0       0.395252        95.48394
2016    13      1       0.4119776       98.75213
2016    13      2       0.42597         101.7281
2016    13      3       0.4917534       113.3306
2016    13      4       0.5000845       114.6007
2016    13      5       0.4470803       105.2009
2016    13      6       0.4003071       96.65988
2016    13      7       0.4101607       98.34658
2016    14      0       0.4291537       101.9762
2016    14      1       0.4450159       104.9496
2016    14      2       0.4524545       106.4783
2016    14      3       0.4826553       111.8534
2016    14      4       0.5085336       116.1725
2016    14      5       0.4879257       112.6161
2016    14      6       0.4684447       109.27
2016    14      7       0.5017562       115.1112
2016    15      0       0.5963805       130.5198
2016    15      1       0.6791264       142.6151
2016    15      2       0.592824        129.8254
2016    15      3       0.5323923       120.0675
2016    15      4       0.5552963       123.3366
2016    15      5       0.5624153       124.1035
2016    15      6       0.5034721       114.432
2016    15      7       0.4563709       106.6264
2016    16      0       0.4832247       111.2976
2016    16      1       0.5370041       120.0152
2016    16      2       0.5052924       114.8358
2016    16      3       0.4163985       99.2206
2016    16      4       0.3718082       90.93857
2016    16      5       0.3534056       87.32057
2016    16      6       0.328505        82.46131
2016    16      7       0.3176635       80.36215
2016    17      0       0.3765289       91.70136
2016    17      1       0.4106624       97.62701
2016    17      2       0.3809396       92.15555
2016    17      3       0.3494434       86.04399
2016    17      4       0.2966027       75.35401
2016    17      5       0.2618665       68.04495
2016    17      6       0.2455434       64.55507
2016    17      7       0.2627835       68.39488
2016    18      0       0.3075757       77.60376
2016    18      1       0.3528003       86.53381
2016    18      2       0.35742         87.43899
2016    18      3       0.3222339       80.17171
2016    18      4       0.3024806       76.07716
2016    18      5       0.3034497       76.35437
2016    18      6       0.3211665       80.0116
2016    18      7       0.3566403       87.06027
2016    19      0       0.3954143       94.3375
2016    19      1       0.4606082       106.2266
2016    19      2       0.5265653       117.3295
2016    19      3       0.5609397       122.6582
2016    19      4       0.5764296       124.6972
2016    19      5       0.5980342       127.8742
2016    19      6       0.6980912       142.6534
2016    19      7       0.7181267       145.8688
2016    20      0       0.7385131       148.6031
2016    20      1       0.7462099       149.3922
2016    20      2       0.7443691       148.798
2016    20      3       0.6885708       141.6168
2016    20      4       0.6902075       141.6755
2016    20      5       0.6500317       136.1908
2016    20      6       0.6256846       133.361
2016    20      7       0.5779974       126.3963
2016    21      0       0.5880778       127.5808
2016    21      1       0.6215567       132.2544
2016    21      2       0.6354378       133.9793
2016    21      3       0.6211337       131.9309
2016    21      4       0.6123875       130.7203
2016    21      5       0.6388762       134.6604
2016    21      6       0.6439616       135.0716
2016    21      7       0.6643519       137.9582
2016    22      0       0.7752035       152.8781
2016    22      1       0.8432014       160.9291
2016    22      2       1.120163        189.6203
2016    22      3       1.393781        211.1077
2016    22      4       1.435509        213.7921
2016    22      5       1.305892        203.6346
2016    22      6       1.409794        210.231
2016    22      7       1.314924        203.6474
2016    23      0       1.18565         194.1114
2016    23      1       1.117566        188.3864
2016    23      2       1.089081        185.8128
2016    23      3       0.9908479       176.2887
2016    23      4       0.9934007       176.5875
2016    23      5       1.030815        180.761
2016    23      6       1.127209        190.265
2016    23      7       1.345836        206.8263
2016    24      0       1.27049         201.9143
2016    24      1       1.019807        181.0389
2016    24      2       0.8492477       162.3434
2016    24      3       0.7340432       147.6985
2016    24      4       0.6569218       137.2875
2016    24      5       0.5991185       129.1106
2016    24      6       0.5662672       124.3622
2016    24      7       0.6133725       130.8245
2016    25      0       0.709609        143.8235
2016    25      1       0.6872861       140.3622
2016    25      2       0.6390471       133.3921
2016    25      3       0.6097803       128.5343
2016    25      4       0.5911788       125.7437
2016    25      5       0.5545945       120.6679
2016    25      6       0.5024187       112.5833
2016    25      7       0.5157066       115.0671
2016    26      0       0.5834505       125.3744
2016    26      1       0.5650218       122.7708
2016    26      2       0.5380994       118.4878
2016    26      3       0.5456173       119.5973
2016    26      4       0.520534        115.4088
2016    26      5       0.5055054       112.8618
2016    26      6       0.4732679       107.6322
2016    26      7       0.4977624       112.0461
2016    27      0       0.7046569       143.0182
2016    27      1       0.7465863       148.3083
2016    27      2       0.7519869       149.3108
2016    27      3       0.7902529       154.2872
2016    27      4       0.8879371       166.677
2016    27      5       0.7084438       143.8976
2016    27      6       0.6793194       140.1054
2016    27      7       0.6848505       141.2244
2016    28      0       0.8193701       158.1698
2016    28      1       0.8543092       162.3211
2016    28      2       0.7394134       148.5329
2016    28      3       0.6365152       134.5546
2016    28      4       0.5898144       127.3564
2016    28      5       0.5596603       122.3115
2016    28      6       0.5643983       123.4524
2016    28      7       0.5856262       126.6365
2016    29      0       0.664825        138.423
2016    29      1       0.6402587       135.0901
2016    29      2       0.6193132       132.9038
2016    29      3       0.5997927       129.9753
2016    29      4       0.6040294       130.4214
2016    29      5       0.6251847       133.5209
2016    29      6       0.6038298       130.5144
2016    29      7       0.635007        134.5449
2016    30      0       0.7493352       150.2785
2016    30      1       0.6901576       142.3625
2016    30      2       0.677165        140.5319
2016    30      3       0.7056281       144.3474
2016    30      4       0.7211868       146.4428
2016    30      5       0.7180575       145.7914
2016    30      6       0.6820325       140.6807
2016    30      7       0.6604237       137.9924
2016    31      0       0.6706961       139.6007
2016    31      1       0.6955479       142.8867
2016    31      2       0.7228277       146.1031
2016    31      3       0.7730089       152.703
2016    31      4       0.7686667       152.3828
2016    31      5       0.794121        155.5428
2016    31      6       0.8061739       157.37
2016    31      7       0.7187364       146.3205
2017    1       0       1.141582        195.721
2017    1       1       1.166999        197.8594
2017    1       2       1.26818         206.9716
2017    1       3       1.536122        224.6398
2017    1       4       1.40369         216.3672
2017    1       5       1.281485        208.9381
2017    1       6       1.109542        193.5728
2017    1       7       0.9900903       181.4732
2017    2       0       1.026402        184.4868
2017    2       1       1.056565        188.2296
2017    2       2       1.162605        198.5855
2017    2       3       1.267112        207.4681
2017    2       4       1.323809        211.189
2017    2       5       1.39688         216.8493
2017    2       6       1.611617        231.0633
2017    2       7       1.716079        237.3784
2017    3       0       2.178681        256.2153
2017    3       1       2.394479        262.1435
2017    3       2       2.341908        259.9062
2017    3       3       1.751895        238.304
2017    3       4       1.578138        229.389
2017    3       5       1.959738        247.2933
2017    3       6       1.761108        238.7022
2017    3       7       2.023564        250.4429
2017    4       0       1.828731        241.4316
2017    4       1       1.861873        242.0658
2017    4       2       1.933243        245.6041
2017    4       3       2.110007        252.0224
2017    4       4       2.368144        259.425
2017    4       5       2.407404        260.6638
2017    4       6       2.35775         259.0801
2017    4       7       2.074034        249.3473
2017    5       0       1.6207          229.1291
2017    5       1       1.563605        226.5235
2017    5       2       1.676253        232.8045
2017    5       3       1.745039        235.8637
2017    5       4       2.01306         246.6539
2017    5       5       2.02047         245.7468
2017    5       6       1.728374        232.7203
2017    5       7       1.971801        243.5669
2017    6       0       1.659607        230.5426
2017    6       1       1.410775        216.4424
2017    6       2       1.370847        213.1947
2017    6       3       1.398317        214.2719
2017    6       4       1.353077        211.0881
2017    6       5       1.408358        215.8404
2017    6       6       1.375597        213.8285
2017    6       7       1.440916        217.3713
2017    7       0       1.640039        229.6883
2017    7       1       1.402188        216.139
2017    7       2       1.274623        206.6643
2017    7       3       1.274007        206.3986
2017    7       4       1.106668        191.9565
2017    7       5       1.198511        200.0442
2017    7       6       1.178419        198.9068
2017    7       7       1.057141        187.6052
2017    8       0       0.9661927       178.3094
2017    8       1       0.8120124       160.0284
2017    8       2       0.7108795       147.128
2017    8       3       0.530141        120.0149
2017    8       4       0.4997583       114.5668
2017    8       5       0.6645925       140.0892
2017    8       6       0.9024049       171.6509
2017    8       7       0.8769531       168.7776
2017    9       0       0.8762977       168.5704
2017    9       1       0.8126464       160.1231
2017    9       2       0.697409        145.1426
2017    9       3       0.5811504       128.4503
2017    9       4       1.461032        222.543
2017    9       5       0.6452207       137.8497
2017    9       6       0.6631427       140.7423
2017    9       7       0.7081397       147.4457
2017    10      0       0.6838567       143.7773
2017    10      1       0.5898018       129.5376
2017    10      2       0.6122522       133.458
2017    10      3       0.567601        126.7463
2017    10      4       0.5163705       118.4545
2017    10      5       0.4940711       114.7286
2017    10      6       0.4753001       111.5736
2017    10      7       0.478748        111.6746
2017    11      0       0.5283338       119.8586
2017    11      1       0.5588647       124.6275
2017    11      2       0.5050407       116.0721
2017    11      3       0.4046026       98.703
2017    11      4       0.3665792       91.40716
2017    11      5       0.3683862       91.92392
2017    11      6       0.3317632       84.21344
2017    11      7       0.417393        100.8893
2017    12      0       0.5549674       125.0489
2017    12      1       0.5640162       126.3282
2017    12      2       0.4707283       110.3124
2017    12      3       0.3826457       94.38421
2017    12      4       0.3709014       92.30751
2017    12      5       0.4274612       102.8022
2017    12      6       0.3108072       79.98036
2017    12      7       0.2579185       68.68589
2017    13      0       0.2699302       71.22021
2017    13      1       0.3007718       78.00822
2017    13      2       0.3235909       82.49889
2017    13      3       0.3655353       90.72223
2017    13      4       0.4051104       97.87239
2017    13      5       0.41906         100.2169
2017    13      6       0.3853939       93.89384
2017    13      7       0.4166693       99.80178
2017    14      0       0.4660427       108.475
2017    14      1       0.4859258       111.6461
2017    14      2       0.5200599       117.2995
2017    14      3       0.5228645       117.2023
2017    14      4       0.5136669       115.5175
2017    14      5       0.5667335       124.1561
2017    14      6       0.6802553       140.027
2017    14      7       0.7364543       148.2018
2017    15      0       0.7618233       152.1485
2017    15      1       1.045084        184.1971
2017    15      2       1.078743        187.8806
2017    15      3       1.088385        189.3132
2017    15      4       1.079886        188.2963
2017    15      5       1.064874        186.7339
2017    15      6       0.8854554       168.0292
2017    15      7       0.7978035       157.3118
2017    16      0       0.8031156       158.1198
2017    16      1       0.8161107       159.9123
2017    16      2       0.846972        163.7283
2017    16      3       0.9158514       171.7486
2017    16      4       1.004638        180.8065
2017    16      5       1.014527        181.0899
2017    16      6       0.9968785       179.591
2017    16      7       0.9872243       178.999
2017    17      0       1.005032        180.7976
2017    17      1       1.00823         181.1603
2017    17      2       1.034809        184.3861
2017    17      3       1.07597         188.3002
2017    17      4       1.112394        191.9276
2017    17      5       1.101385        191.1383
2017    17      6       0.9727642       178.5099
2017    17      7       0.915766        172.3465
2017    18      0       0.9239852       173.3175
2017    18      1       0.9574901       177.2604
2017    18      2       0.96006         177.3031
2017    18      3       0.9914909       180.1239
2017    18      4       0.9733604       178.2822
2017    18      5       0.9669725       177.4272
2017    18      6       0.8991868       170.2806
2017    18      7       0.8258963       161.7267
2017    19      0       0.7918264       157.6741
2017    19      1       0.7906568       157.4276
2017    19      2       0.8403516       163.0521
2017    19      3       0.7775349       155.2732
2017    19      4       0.802141        158.0771
2017    19      5       0.8143547       159.3431
2017    19      6       0.7218265       148.1398
2017    19      7       0.7162949       147.1327
2017    20      0       0.7806496       155.6951
2017    20      1       0.9677907       179.1212
2017    20      2       0.8348861       163.5815
2017    20      3       0.8662572       167.2215
2017    20      4       0.8262845       161.993
2017    20      5       0.852335        164.8724
2017    20      6       0.8778237       168.1289
2017    20      7       0.953285        176.2853
2017    21      0       0.9696336       177.6765
2017    21      1       0.8351427       162.7337
2017    21      2       0.7836477       156.1314
2017    21      3       0.7366926       149.3667
2017    21      4       0.8107378       157.8455
2017    21      5       0.9542134       174.1315
2017    21      6       1.59285         224.0924
2017    21      7       1.148321        194.4237
2017    22      0       1.06533         186.7898
2017    22      1       0.941663        175.2627
2017    22      2       1.036019        185.266
2017    22      3       1.255314        204.3434
2017    22      4       1.289505        207.077
2017    22      5       1.266517        205.2598
2017    22      6       1.179891        197.9824
2017    22      7       1.162622        196.6392
2017    23      0       1.063787        187.6958
2017    23      1       0.9611374       176.7509
2017    23      2       0.6949034       143.9142
2017    23      3       0.5878018       128.6256
2017    23      4       0.6045531       130.7032
2017    23      5       0.6674598       139.3786
2017    23      6       0.8004604       158.2587
2017    23      7       0.8794387       167.2345
2017    24      0       0.9764536       177.2131
2017    24      1       0.973198        177.075
2017    24      2       0.8931729       169.2255
2017    24      3       0.8728956       167.163
2017    24      4       0.9047658       170.8406
2017    24      5       1.109079        191.3902
2017    24      6       1.114589        193.0168
2017    24      7       1.001435        182.1633
2017    25      0       0.9470433       176.6069
2017    25      1       1.008096        183.4479
2017    25      2       1.064548        189.2491
2017    25      3       1.073731        189.8186
2017    25      4       1.05199         187.4616
2017    25      5       1.042321        186.3318
2017    25      6       0.9502718       176.9109
2017    25      7       0.8687651       167.8948
2017    26      0       0.8393278       164.4547
2017    26      1       0.8387092       164.1974
2017    26      2       0.8748648       168.4353
2017    26      3       1.020321        184.4556
2017    26      4       0.9401933       175.3286
2017    26      5       0.9644636       177.8593
2017    26      6       0.9897201       180.639
2017    26      7       0.9833779       180.0392
2017    27      0       0.9386045       175.0083
2017    27      1       0.7855037       157.1571
2017    27      2       0.7374013       150.3633
2017    27      3       0.7515051       151.458
2017    27      4       0.6994908       144.8977
2017    27      5       0.7010983       145.5834
2017    27      6       0.8238879       162.0776
2017    27      7       0.8912491       170.2358
2017    28      0       0.9442236       176.2464
2017    28      1       1.0195          184.1641
2017    28      2       0.8579054       166.4091
2017    28      3       0.7809837       156.8824
2017    28      4       0.8052196       159.8722
2017    28      5       0.9152474       172.3977
2017    28      6       0.97039         178.4471
2017    28      7       1.065677        188.0815
2017    29      0       1.237884        202.5568
2017    29      1       1.262542        205.202
2017    29      2       1.209359        201.8849
2017    29      3       1.204499        201.5674
2017    29      4       1.201323        201.2518
2017    29      5       1.158015        197.754
2017    29      6       1.052505        187.7453
2017    29      7       1.076431        189.3629
2017    30      0       1.401732        214.926
2017    30      1       1.573067        226.619
2017    30      2       1.61745         229.6664
2017    30      3       1.851407        239.8441
2017    30      4       1.718809        233.4083
2017    30      5       1.720421        232.3496
2017    30      6       1.500438        220.4415
2017    30      7       1.569267        225.1106
2017    31      0       2.276058        256.875
2017    31      1       1.526716        222.9221
2017    31      2       1.339351        210.7656
2017    31      3       1.316736        209.5406
2017    31      4       1.169758        198.5227
2017    31      5       1.05289         187.7892
2017    31      6       1.120144        193.8392
2017    31      7       1.445738        217.5604
2018    1       0       2.276108        259.9553
2018    1       1       2.185603        257.096
2018    1       2       1.891868        245.5728
2018    1       3       1.87513         244.2431
2018    1       4       1.877433        244.2701
2018    1       5       1.749026        238.8243
2018    1       6       1.758343        239.8952
2018    1       7       1.973783        249.3138
2018    2       0       1.900344        245.2737
2018    2       1       1.748608        239.1635
2018    2       2       2.191962        256.1191
2018    2       3       1.98475         248.2235
2018    2       4       2.134362        253.2306
2018    2       5       2.171714        253.8234
2018    2       6       2.228014        254.3259
2018    2       7       1.76204         236.5518
2018    3       0       1.387055        215.8028
2018    3       1       1.20395         202.5216
2018    3       2       1.126949        196.0032
2018    3       3       1.091711        192.687
2018    3       4       1.204778        202.6699
2018    3       5       1.049691        188.3517
2018    3       6       0.8100991       162.47
2018    3       7       0.7861436       159.2969
2018    4       0       0.9218679       176.3948
2018    4       1       0.9387628       178.1291
2018    4       2       0.8369157       165.7901
2018    4       3       0.5900523       130.1089
2018    4       4       0.4128393       99.09427
2018    4       5       0.3962477       96.41089
2018    4       6       0.3976259       96.68822
2018    4       7       0.4191195       100.9746
2018    5       0       0.5470803       124.5333
2018    5       1       0.4140765       100.4957
2018    5       2       0.4425536       105.2784
2018    5       3       0.4230977       101.1478
2018    5       4       0.3759607       91.86986
2018    5       5       0.3830586       93.30969
2018    5       6       0.314444        79.76708
2018    5       7       0.2919362       75.0368
2018    6       0       0.3015647       77.09978
2018    6       1       0.28764         74.62755
2018    6       2       0.2932256       76.0542
2018    6       3       0.3253471       82.96114
2018    6       4       0.3168148       81.11119
2018    6       5       0.32142         81.95616
2018    6       6       0.3056293       78.83893
2018    6       7       0.3052537       78.78376
2018    7       0       0.3254313       82.84255
2018    7       1       0.3300713       83.66456
2018    7       2       0.3120913       80.30678
2018    7       3       0.2863324       74.76133
2018    7       4       0.3086742       79.73081
2018    7       5       0.2976987       77.33546
2018    7       6       0.2767484       72.75768
2018    7       7       0.285147        74.38873
2018    8       0       0.3334054       84.7783
2018    8       1       0.3892111       95.91202
2018    8       2       0.3667406       91.74045
2018    8       3       0.318324        82.02299
2018    8       4       0.4294698       103.1404
2018    8       5       0.4870606       113.9079
2018    8       6       0.4775903       112.8176
2018    8       7       0.3468085       87.75881
2018    9       0       0.3099752       79.85772
2018    9       1       0.3147697       81.01246
2018    9       2       0.3434197       86.77504
2018    9       3       0.4465415       105.9456
2018    9       4       0.6369933       136.1589
2018    9       5       0.5775744       127.4795
2018    9       6       0.5612898       125.7424
2018    9       7       0.6871265       145.3676
2018    10      0       0.8184654       162.9059
2018    10      1       0.8035264       161.2603
2018    10      2       0.6923644       146.1546
2018    10      3       0.7325206       150.6548
2018    10      4       0.7483315       150.5248
2018    10      5       0.8164          160.1147
2018    10      6       0.7662851       154.422
2018    10      7       0.811027        160.5885
2018    11      0       0.8601385       166.4661
2018    11      1       0.8270175       163.4347
2018    11      2       0.8100995       161.3392
2018    11      3       0.8522608       165.7505
2018    11      4       0.9334028       173.68
2018    11      5       0.870576        166.5573
2018    11      6       0.8021294       159.1498
2018    11      7       0.8649895       167.3116
2018    12      0       0.9681563       178.6046
2018    12      1       0.8849652       170.2022
2018    12      2       0.9067173       173.0144
2018    12      3       1.045974        186.6319
2018    12      4       1.131093        193.6926
2018    12      5       1.134885        193.9545
2018    12      6       1.305539        209.8438
2018    12      7       2.005918        250.1452
2018    13      0       1.575509        226.4366
2018    13      1       1.577578        227.8053
2018    13      2       1.376927        215.3616
2018    13      3       1.230019        203.5971
2018    13      4       1.315868        210.933
2018    13      5       1.28671         208.1544
2018    13      6       1.166455        198.3505
2018    13      7       1.204386        200.8118
2018    14      0       1.308886        208.6559
2018    14      1       1.242487        204.1889
2018    14      2       1.533717        225.3425
2018    14      3       1.514119        224.2994
2018    14      4       1.517864        224.4288
2018    14      5       1.434746        218.3843
2018    14      6       1.3062          208.677
2018    14      7       1.349709        211.6353
2018    15      0       1.323402        209.8338
2018    15      1       1.169252        198.1543
2018    15      2       1.091476        191.4292
2018    15      3       1.008046        183.0011
2018    15      4       1.079157        189.7624
2018    15      5       1.072094        188.7351
2018    15      6       1.427969        218.2304
2018    15      7       1.246483        203.7503
2018    16      0       1.402055        214.9614
2018    16      1       1.311185        208.9371
2018    16      2       1.331728        212.4885
2018    16      3       1.48843         222.9921
2018    16      4       1.237822        204.7288
2018    16      5       1.18513         200.5163
2018    16      6       1.10868         194.213
2018    16      7       1.274528        208.2394
2018    17      0       1.497522        223.2877
2018    17      1       1.577303        227.433
2018    17      2       1.439446        219.632
2018    17      3       1.390323        216.7604
2018    17      4       1.459032        221.1267
2018    17      5       1.453245        220.1405
2018    17      6       1.418424        218.0271
2018    17      7       1.428896        219.3426
2018    18      0       1.608805        231.2161
2018    18      1       1.584056        229.7367
2018    18      2       1.354516        214.4917
2018    18      3       1.22369         204.1603
2018    18      4       1.152821        197.3673
2018    18      5       0.9520494       176.9206
2018    18      6       1.266569        208.8309
2018    18      7       1.115401        195.8346
2018    19      0       1.049899        189.5832
2018    19      1       1.150529        199.4893
2018    19      2       1.187746        202.2417
2018    19      3       1.389289        218.6384
2018    19      4       1.131642        196.3748
2018    19      5       1.007399        183.2192
2018    19      6       1.181805        200.8944
2018    19      7       1.216732        203.5859
2018    20      0       1.109122        193.3262
2018    20      1       0.8353306       164.1732
2018    20      2       0.7376102       152.0315
2018    20      3       0.6201269       135.1579
2018    20      4       0.595818        130.7107
2018    20      5       0.6016406       130.9737
2018    20      6       0.6032427       131.2003
2018    20      7       0.6018532       131.546
2018    21      0       0.5882901       129.4607
2018    21      1       0.5787407       127.557
2018    21      2       0.5742934       126.316
2018    21      3       0.5554216       122.8272
2018    21      4       0.5211599       116.7871
2018    21      5       0.520524        116.0819
2018    21      6       0.6378616       134.6322
2018    21      7       0.6589444       138.1514
2018    22      0       0.5482685       120.9065
2018    22      1       0.4913926       111.077
2018    22      2       0.4508019       104.279
2018    22      3       0.439754        102.5761
2018    22      4       0.4571885       105.5736
2018    22      5       0.5190509       116.0855
2018    22      6       0.5256391       117.1967
2018    22      7       0.5520125       122.2798
2018    23      0       0.5759368       126.5248
2018    23      1       0.5221703       118.3424
2018    23      2       0.4465337       105.0573
2018    23      3       0.4266905       101.4646
2018    23      4       0.4448343       104.6683
2018    23      5       0.4709368       108.8816
2018    23      6       0.4724466       109.3242
2018    23      7       0.4939342       113.1969
2018    24      0       0.489709        112.6521
2018    24      1       0.5095174       116.1866
2018    24      2       0.5125468       116.5254
2018    24      3       0.4785626       110.8266
2018    24      4       0.4197115       100.2918
2018    24      5       0.3624662       89.60496
2018    24      6       0.3574027       88.40722
2018    24      7       0.3309018       83.38208
2018    25      0       0.3071091       78.76012
2018    25      1       0.2888853       75.00947
2018    25      2       0.2620836       68.38271
2018    25      3       0.3189082       79.53032
2018    25      4       0.327166        81.02082
2018    25      5       0.3238223       79.9076
2018    25      6       0.4525616       102.8651
2018    25      7       0.4772807       108.3735
2018    26      0       0.4361          102.4605
2018    26      1       0.4315705       101.8713
2018    26      2       0.4315036       101.3266
2018    26      3       0.4274148       100.2976
2018    26      4       0.4078567       97.02662
2018    26      5       0.3865024       93.53307
2018    26      6       0.3585997       88.45838
2018    26      7       0.3583106       88.51494
2018    27      0       0.3259906       82.56535
2018    27      1       0.2813088       73.35452
2018    27      2       0.2224244       59.85639
2018    27      3       0.1987636       54.44256
2018    27      4       0.2212013       59.48315
2018    27      5       0.2434196       64.24697
2018    27      6       0.2479959       65.23066
2018    27      7       0.250897        66.10263
2018    28      0       0.2950872       75.63453
2018    28      1       0.3568954       88.46159
2018    28      2       0.3551198       88.22225
2018    28      3       0.3500783       87.31864
2018    28      4       0.402972        97.28845
2018    28      5       0.4597995       107.598
2018    28      6       0.4208378       100.5439
2018    28      7       0.4062105       97.75844
2018    29      0       0.4347302       102.9892
2018    29      1       0.5222917       118.6086
2018    29      2       0.4667023       108.8303
2018    29      3       0.4792583       110.7915
2018    29      4       0.5251985       116.9513
2018    29      5       0.6329226       132.6825
2018    29      6       0.7241851       147.0179
2018    29      7       0.7872128       155.3788
2018    30      0       0.7750477       154.6425
2018    30      1       0.6694568       141.3694
2018    30      2       0.5411189       121.2566
2018    30      3       0.59628         128.1887
2018    30      4       0.6623527       137.2812
2018    30      5       0.6746746       140.1647
2018    30      6       0.6131172       132.0564
2018    30      7       0.4776448       109.9886
2018    31      0       0.4070239       96.52757
2018    31      1       0.3925228       94.06873
2018    31      2       0.3486371       85.52395
2018    31      3       0.4297275       101.6547
2018    31      4       0.4442667       104.3066
2018    31      5       0.4130316       98.8946
2018    31      6       0.3704626       90.97413
2018    31      7       0.3507683       86.90159
