####################################################################################################
# Month: 05May                                                                                     #
# Station: GAM                                                                                     #
# Frequency: 230 GHz                                                                               #
# Columns are: year    day     tau     Tb (K)                                                      #
####################################################################################################
2009    1       0.46035841      103.10957875
2009    2       0.39601776      90.26121375
2009    3       0.40815938      94.239865
2009    4       0.37169374      87.50112125
2009    5       0.35658372      84.89571375
2009    6       0.34053596      81.66632
2009    7       0.18823249      51.19072125
2009    8       0.17012565      47.0639775
2009    9       0.2897881       73.10021875
2009    10      0.32442859      78.90651375
2009    11      0.2216082       58.306665
2009    12      0.3145809       76.8267175
2009    13      0.651334        132.5305625
2009    14      0.67355399      134.5942125
2009    15      0.60441054      125.6099875
2009    16      0.16092815      43.322475
2009    17      0.15057791      42.74322875
2009    18      0.14155576      40.7635575
2009    19      0.20709506      55.10887625
2009    20      0.36843925      86.2944975
2009    21      0.33644609      80.67149375
2009    22      0.28176528      70.619545
2009    23      0.39313396      92.19001125
2009    24      0.38428388      90.91544875
2009    25      0.28932646      73.19676375
2009    26      0.31134784      76.48808125
2009    27      0.39404632      91.336125
2009    28      0.35351816      84.10705125
2009    29      0.18378659      49.821135
2009    30      0.14515942      41.19734
2009    31      0.1647064       45.976695
2010    1       0.9107345       166.1485875
2010    2       0.86265686      159.6372
2010    3       0.24094256      61.9368975
2010    4       0.14725522      41.37463
2010    5       0.1739721       47.998165
2010    6       0.21343714      57.0484125
2010    7       0.23724418      62.3987
2010    8       0.5152177       111.16998
2010    9       0.53020186      115.31065125
2010    10      0.13402814      38.67631875
2010    11      0.07595241      24.21952625
2010    12      0.14415306      40.698675
2010    13      0.35809355      86.45725
2010    14      0.5703451       121.8146375
2010    15      0.71720612      142.143375
2010    16      0.48599621      108.05370875
2010    17      0.48522632      107.48036625
2010    18      0.55887157      119.40115
2010    19      0.46070307      103.64413125
2010    20      0.33898709      81.04238875
2010    21      0.32325789      78.776965
2010    22      0.30112816      75.2510075
2010    23      0.36321291      87.08425625
2010    24      0.4011196       93.88666
2010    25      0.35699628      85.823885
2010    26      0.38971412      91.8277725
2010    27      0.31010161      76.8946675
2010    28      0.23478261      61.0529025
2010    29      0.22686764      59.66081
2010    30      0.32283927      79.3459375
2010    31      0.34014219      82.3016175
2011    1       0.78481789      151.545975
2011    2       0.86392216      160.0383
2011    3       0.7474864       146.302975
2011    4       0.92860439      166.4974875
2011    5       0.7549418       146.701225
2011    6       0.45544934      102.50377375
2011    7       0.19351931      52.62420875
2011    8       0.44254995      100.832845
2011    9       0.46889238      105.80830625
2011    10      0.48282174      108.69580875
2011    11      0.63555767      130.9280875
2011    12      0.57005338      121.6396875
2011    13      0.43126099      98.6814725
2011    14      0.18980234      51.38906625
2011    15      0.31437671      77.194435
2011    16      0.25221716      65.00503125
2011    17      0.15343666      43.31678625
2011    18      0.1383412       38.78021
2011    19      0.16162144      44.961165
2011    20      0.23369642      61.3344375
2011    21      0.28650516      72.42299
2011    22      0.30788845      76.420435
2011    23      0.31387945      78.00640875
2011    24      0.17475932      48.07486125
2011    25      0.08243043      25.05180125
2011    26      0.0692099       22.36814
2011    27      0.17371645      46.77585
2011    28      0.12172932      35.1680675
2011    29      0.1053671       31.2359925
2011    30      0.11204943      32.70063625
2011    31      0.08003324      24.59423875
2012    1       0.32339071      79.7250925
2012    2       0.33306974      81.571975
2012    3       0.30720485      76.83234375
2012    4       0.1948837       53.45726875
2012    5       0.24310131      63.4296375
2012    6       0.3565612       86.4590825
2012    7       0.28426775      72.25477875
2012    8       0.24121605      63.28232
2012    9       0.27094257      69.49108
2012    10      0.24553457      63.91754625
2012    11      0.3010298       74.6144425
2012    12      0.42089084      96.28838875
2012    13      0.42121448      96.592535
2012    14      0.33081715      80.858365
2012    15      0.33931568      82.1864475
2012    16      0.3508977       84.3002475
2012    17      0.31835135      77.93861875
2012    18      0.23949852      62.05149625
2012    19      0.11081143      33.18534375
2012    20      0.11359365      33.47942875
2012    21      0.14325394      40.82297875
2012    22      0.17956968      49.5984575
2012    23      0.17563649      48.68671625
2012    24      0.16469834      45.9127825
2012    25      0.17231204      47.5871925
2012    26      0.19824018      53.21447875
2012    27      0.26910278      68.093775
2012    28      0.26863459      67.843315
2012    29      0.25033166      64.25439125
2012    30      0.28373535      70.970245
2012    31      0.28478945      71.10282375
2013    1       0.1899126       52.1233175
2013    2       0.20374962      55.0192775
2013    3       0.23317543      61.11451
2013    4       0.18603428      50.79023125
2013    5       0.09009986      27.85506
2013    6       0.12901429      37.41144375
2013    7       0.27476611      69.0277625
2013    8       0.29213786      72.86507625
2013    9       0.2473866       63.37547125
2013    10      0.10797749      32.24540375
2013    11      0.09365628      28.64031375
2013    12      0.16693175      46.802295
2013    13      0.20798965      56.0333475
2013    14      0.23966802      62.5016475
2013    15      0.33184706      80.8028775
2013    16      0.36839886      85.94574
2013    17      0.25893908      66.23061
2013    18      0.43549114      98.78826125
2013    19      0.56374555      119.9446625
2013    20      0.56373432      119.1794725
2013    21      0.66894828      134.9205125
2013    22      0.51364631      112.396425
2013    23      0.41797582      96.73658625
2013    24      0.43484861      99.64461
2013    25      0.39397578      92.29352375
2013    26      0.31641331      77.8516225
2013    27      0.26820575      68.0027025
2013    28      0.21429024      56.8286375
2013    29      0.19575604      52.92523625
2013    30      0.1485434       42.15465125
2013    31      0.19332706      51.92209
2014    1       0.36687892      88.0095225
2014    2       0.35543641      85.6046425
2014    3       0.35503444      86.08557
2014    4       0.50105619      111.538895
2014    5       0.63506336      130.79165
2014    6       0.45123906      102.63633125
2014    7       0.52820918      115.401575
2014    8       0.54845071      116.52080625
2014    9       0.22174936      58.59056375
2014    10      0.48910112      109.846175
2014    11      0.33118377      81.642705
2014    12      0.39430552      91.5642225
2014    13      0.29651891      74.88760875
2014    14      0.2814224       71.63091375
2014    15      0.294359        73.86755
2014    16      0.27669481      70.14367
2014    17      0.27418346      69.3112125
2014    18      0.39979816      92.63373
2014    19      0.53916706      115.46098
2014    20      0.06945775      22.4951025
2014    21      0.09703329      29.2060125
2014    22      0.24475446      62.54811875
2014    23      0.48972226      109.17992625
2014    24      0.62369229      130.0902375
2014    25      0.51822338      113.69972625
2014    26      0.30484079      76.39780125
2014    27      0.24110041      63.59858125
2014    28      0.22554895      60.14231375
2014    29      0.2745066       70.302675
2014    30      0.22475558      60.0514425
2014    31      0.20272054      55.3259125
2015    1       0.58364609      123.398775
2015    2       0.74885472      146.894225
2015    3       0.49979978      111.276635
2015    4       0.28953716      73.11134625
2015    5       0.25702354      66.3809825
2015    6       0.24506985      64.01170625
2015    7       0.30784545      76.569305
2015    8       0.35559814      85.58526625
2015    9       0.42895176      98.97921375
2015    10      0.26177611      66.84387125
2015    11      0.17066465      47.30663
2015    12      0.15683811      44.60183875
2015    13      0.17177271      47.666555
2015    14      0.1518889       43.2189925
2015    15      0.20772558      55.467765
2015    16      0.26219605      67.41093375
2015    17      0.22932629      60.56848125
2015    18      0.19509536      53.17900375
2015    19      0.14202534      40.97895875
2015    20      0.14849991      42.53679125
2015    21      0.14837191      42.41780125
2015    22      0.1277098       37.36708375
2015    23      0.17598168      48.7617775
2015    24      0.21134394      56.5702675
2015    25      0.30555955      75.2043125
2015    26      0.31760885      77.74646125
2015    27      0.30838265      76.47625375
2015    28      0.24765895      64.42029625
2015    29      0.15463636      43.91133875
2015    30      0.17398822      48.0803525
2015    31      0.22407362      59.14690875
2016    1       0.20349832      54.984705
2016    2       0.31049004      77.64456875
2016    3       0.31290684      78.37475125
2016    4       0.37567165      90.04452375
2016    5       0.44285875      101.10142875
2016    6       0.52119765      113.2817875
2016    7       0.66453315      133.0475
2016    8       0.37827614      90.1577375
2016    9       0.3820527       91.3697175
2016    10      0.38897765      92.367305
2016    11      0.58526185      123.591825
2016    12      0.42721645      96.38752625
2016    13      0.08406005      26.35232625
2016    14      0.07222199      23.54254125
2016    15      0.07985711      25.66880125
2016    16      0.09257633      28.979
2016    17      0.12375081      36.6030575
2016    18      0.16995401      47.44852
2016    19      0.21162701      56.54593875
2016    20      0.22857105      60.26672
2016    21      0.15037808      42.6127
2016    22      0.10460031      31.390325
2016    23      0.15861328      44.04006875
2016    24      0.14955885      42.17667375
2016    25      0.10562771      31.9564475
2016    26      0.13829587      39.702975
2016    27      0.173072        47.60432875
2016    28      0.10940189      32.95929125
2016    29      0.12836525      37.46197375
2016    30      0.17941759      49.08973375
2016    31      0.25692128      65.47450875
2017    1       0.52360977      115.2059625
2017    2       0.48279639      108.50049125
2017    3       0.53386622      115.142755
2017    4       0.50548958      111.81268625
2017    5       0.47668359      107.093955
2017    6       0.52489399      114.7977375
2017    7       0.56116286      120.678375
2017    8       0.42940074      98.351995
2017    9       0.39188472      91.9222475
2017    10      0.55139609      118.60621875
2017    11      0.346197        83.5858275
2017    12      0.27003995      68.46606875
2017    13      0.34575466      84.1506825
2017    14      0.32208042      79.48517125
2017    15      0.29791423      74.6612375
2017    16      0.25069656      65.030735
2017    17      0.22540086      59.7409525
2017    18      0.26039188      67.2070525
2017    19      0.25862234      66.89762375
2017    20      0.18556897      50.91446375
2017    21      0.2114546       56.67430125
2017    22      0.15782781      44.513425
2017    23      0.13026294      38.16883875
2017    24      0.24483446      64.5156075
2017    25      0.22036338      59.03862375
2017    26      0.28683014      72.9750525
2017    27      0.15967849      44.7097525
2017    28      0.14980007      41.99206375
2017    29      0.21424465      57.42523125
2017    30      0.16362044      45.77879
2017    31      0.143447        41.28292875
2018    1       0.5218046       114.10464
2018    2       0.63053579      130.7137875
2018    3       0.51181934      112.74222125
2018    4       0.3851759       91.418425
2018    5       0.26005974      67.16043
2018    6       0.22064618      58.63871
2018    7       0.32281476      79.4591975
2018    8       0.26172861      67.6760125
2018    9       0.24476629      63.97526375
2018    10      0.26556708      68.26513
2018    11      0.33460865      81.72108
2018    12      0.32277326      79.2771575
2018    13      0.3485318       83.94674625
2018    14      0.08589031      26.87671875
2018    15      0.14637185      41.289395
2018    16      0.39169828      92.5320825
2018    17      0.5426684       117.26441875
2018    18      0.76845558      148.498275
2018    19      0.26396926      64.0188925
2018    20      0.15509229      43.4129875
2018    21      0.12848501      37.48494
2018    22      0.19084849      51.94503375
2018    23      0.43338908      99.4883125
2018    24      0.43459527      99.6320475
2018    25      0.35254665      85.1442125
2018    26      0.30286345      75.612025
2018    27      0.30322811      75.63542
2018    28      0.37268868      89.10208
2018    29      0.14020877      39.5644875
2018    30      0.2005904       53.58272625
2018    31      0.09466199      29.10815375
