####################################################################################################
# Month: 02Feb                                                                                     #
# Station: BRZ                                                                                     #
# Frequency: 230 GHz                                                                               #
# Columns are: year    day     tau     Tb (K)                                                      #
####################################################################################################
2009    1       1.3336455       203.925575
2009    2       1.11387681      184.9471375
2009    3       0.68543509      138.2219375
2009    4       0.38992305      89.9896825
2009    5       0.26812885      68.00718375
2009    6       0.63059933      124.191515
2009    7       1.03476789      177.728075
2009    8       0.88015935      162.069525
2009    9       1.01360316      176.6682875
2009    10      0.93309139      169.668525
2009    11      0.55445806      118.54794125
2009    12      0.82190274      153.3851625
2009    13      1.50214088      212.394925
2009    14      1.08130548      181.173875
2009    15      0.58427011      116.61297625
2009    16      0.31655896      73.30900875
2009    17      0.40701688      94.165215
2009    18      0.47660624      106.521785
2009    19      0.4383324       98.93733
2009    20      0.48960028      108.0880675
2009    21      0.69647823      138.8062625
2009    22      0.57580411      118.95760625
2009    23      0.55472814      119.4206125
2009    24      0.43331369      98.798375
2009    25      0.56739714      119.8534075
2009    26      0.67628881      136.320225
2009    27      0.37688195      88.386165
2009    28      0.07793484      24.90403375
2010    1       0.47710109      106.58798125
2010    2       0.44265191      99.90706875
2010    3       0.44823401      100.23204875
2010    4       0.52312984      112.61538
2010    5       0.64211798      131.25255
2010    6       0.80360404      151.9283375
2010    7       0.80861561      150.6283625
2010    8       0.4980772       109.4853625
2010    9       0.64227365      129.08226125
2010    10      0.93772836      167.81785
2010    11      0.71082609      132.61314625
2010    12      0.25670446      63.01036375
2010    13      0.19952344      53.02299125
2010    14      0.29219036      72.57424625
2010    15      0.58010091      122.1327875
2010    16      0.41906816      95.7506475
2010    17      0.46674235      105.32462375
2010    18      0.62474056      128.3995
2010    19      0.67659592      134.2047
2010    20      0.70046818      138.4758625
2010    21      0.65708935      132.12163
2010    22      0.8134866       154.1682875
2010    23      0.52659638      114.0215575
2010    24      0.69681679      136.282705
2010    25      1.12490104      182.23335
2010    26      1.6324885       220.7023
2010    27      1.10235068      182.9494375
2010    28      1.0777981       182.508425
2011    1       0.17468392      48.33344
2011    2       0.12648932      36.1410075
2011    3       0.13442494      37.7878025
2011    4       0.13433394      37.89297125
2011    5       0.24993158      63.9698225
2011    6       0.4014583       92.21177375
2011    7       0.34535295      82.56566375
2011    8       0.49296231      107.63275875
2011    9       0.29624311      73.61637375
2011    10      0.4382149       100.58700375
2011    11      0.57017412      122.478525
2011    12      0.37455224      87.81913625
2011    13      0.36205014      83.87427375
2011    14      0.27335921      68.68368625
2011    15      0.36394154      87.26389125
2011    16      0.55770764      118.8508725
2011    17      0.8001311       153.08525
2011    18      0.31921257      74.87380875
2011    19      0.59627872      119.2071725
2011    20      0.6969965       139.4801625
2011    21      0.5831174       122.8432875
2011    22      0.48420655      107.85705
2011    23      0.89038871      161.7929875
2011    24      1.39063738      206.5850125
2011    25      1.31623246      201.057925
2011    26      1.20787928      191.8342875
2011    27      0.9827968       173.3514875
2011    28      1.01595794      176.0161
2012    1       0.75265282      145.8724125
2012    2       0.28420786      70.89654625
2012    3       0.24217975      59.40840875
2012    4       0.0785233       24.74225375
2012    5       0.18308624      48.39828625
2012    6       0.28671468      72.87671875
2012    7       0.73346843      143.0204275
2012    8       0.4523617       103.44757375
2012    9       0.64880311      129.395275
2012    10      0.92015191      166.9470875
2012    11      0.79358358      150.994825
2012    12      0.76010432      147.0936375
2012    13      0.52868185      112.85956625
2012    14      0.52239119      112.4250375
2012    15      0.56242591      113.43795125
2012    16      0.54664855      112.8759475
2012    17      0.47364881      104.47272875
2012    18      0.56256094      119.69465
2012    19      0.410497        93.35597375
2012    20      0.16961981      45.57824625
2012    21      0.27409916      66.91455625
2012    22      0.43437098      97.47596
2012    23      0.83127448      156.708325
2012    24      0.50044522      111.70980625
2012    25      0.09096351      28.2578275
2012    26      0.08175581      26.2458475
2012    27      0.12488169      36.9215675
2012    28      0.08721069      27.28421875
2012    29      0.05574878      19.36623875
2013    1       1.19073979      187.7337
2013    2       0.85257629      157.9435875
2013    3       0.48657308      106.23794
2013    4       0.5389708       108.96655875
2013    5       1.20177712      191.4031625
2013    6       0.98860229      171.9568
2013    7       0.37457559      83.8074925
2013    8       0.41902095      92.1594525
2013    9       0.44617388      101.91631125
2013    10      0.34909048      84.3724075
2013    11      0.20088328      53.70838625
2013    12      0.23407051      60.88517125
2013    13      0.28577381      71.7564775
2013    14      0.42013402      97.05231125
2013    15      0.41450834      96.78987125
2013    16      0.35381368      85.42305125
2013    17      0.30397405      74.68819375
2013    18      0.28830252      71.37355875
2013    19      0.40099542      93.8732175
2013    20      0.26091472      65.91632625
2013    21      0.23342206      60.68256
2013    22      0.4083084       91.7901525
2013    23      0.52498681      114.06031875
2013    24      0.70425082      141.6654125
2013    25      0.42672069      98.78046375
2013    26      0.44574041      100.60565
2013    27      0.90825189      163.4619625
2013    28      1.35953187      204.69735
2014    1       0.36646692      87.73032625
2014    2       0.2982419       75.36617
2014    3       0.27013308      69.09506
2014    4       0.35896098      86.23933375
2014    5       0.1841361       49.655285
2014    6       0.1964141       51.2136425
2014    7       0.46696069      105.85282875
2014    8       0.24779884      64.75533875
2014    9       0.18344055      49.97502125
2014    10      0.439489        99.49524125
2014    11      0.33169334      80.48905625
2014    12      0.37683846      87.28929875
2014    13      0.57964196      123.13658125
2014    14      0.76040398      148.432975
2014    15      0.74952719      145.237625
2014    16      0.78905021      151.1694125
2014    17      1.24049598      195.1025
2014    18      1.1183451       185.072675
2014    19      0.85255426      155.21595
2014    20      0.43940595      97.99306
2014    21      0.60754051      123.183845
2014    22      0.67780171      134.2267625
2014    23      0.32118266      76.39822625
2014    24      0.31999181      77.1532825
2014    25      0.32466898      78.4098475
2014    26      0.42852813      97.63346125
2014    27      0.41549881      96.4745275
2014    28      0.38914226      90.41154125
2015    1       0.52396994      113.30258875
2015    2       0.42883098      99.31870625
2015    3       0.33570992      78.54153
2015    4       1.00851874      171.47825
2015    5       1.4600459       208.85165
2015    6       1.43206338      208.15085
2015    7       1.24363955      194.5737625
2015    8       1.19194688      192.22375
2015    9       1.24031675      194.3514375
2015    10      1.2149653       192.3868125
2015    11      0.37994944      82.132965
2015    12      0.1436817       41.17828875
2015    13      0.30194545      74.71191
2015    14      0.3959837       93.28264375
2015    15      0.41656275      95.13447625
2015    16      0.51464084      113.06005
2015    17      0.587761        123.32621
2015    18      0.63073001      128.1170375
2015    19      0.69699048      137.793625
2015    20      0.28834775      71.656725
2015    21      0.25705762      65.420735
2015    22      0.41609385      93.29909
2015    23      0.49542216      103.41433
2015    24      0.75654124      144.232275
2015    25      0.87302525      160.9314125
2015    26      0.97213538      169.677975
2015    27      1.29137825      198.74965
2015    28      1.08408845      180.8538625
2016    1       0.26411044      68.0279925
2016    2       0.22298324      58.64656375
2016    3       0.42928406      99.34933125
2016    4       0.53769757      114.74099875
2016    5       0.51113783      107.61892
2016    6       0.21521862      56.99119125
2016    7       0.35784156      84.80999625
2016    8       0.17002222      46.1501575
2016    9       0.09845596      30.1633825
2016    10      0.09663013      29.8038725
2016    11      0.25054913      61.77353
2016    12      1.49714538      212.2472625
2016    13      1.11876476      183.237375
2016    14      0.6990499       140.401825
2016    15      0.77694815      147.9954
2016    16      0.85307491      159.6633625
2016    17      0.64156811      131.956725
2016    18      0.70234065      138.846225
2016    19      0.33084639      79.66398375
2016    20      0.39976896      93.14694875
2016    21      0.67060084      133.69000875
2016    22      0.47296196      105.49155625
2016    23      0.56426304      115.58001375
2016    24      0.66597334      135.3860375
2016    25      0.69984562      140.0314625
2016    26      0.97345534      170.722275
2016    27      1.11560039      184.5539875
2016    28      1.03093894      178.289425
2016    29      0.65142127      133.1968
2017    1       0.82205374      150.2056375
2017    2       1.35203865      202.0984375
2017    3       1.344903        202.4118875
2017    4       1.69753725      224.9212625
2017    5       1.47342325      212.1969625
2017    6       1.28696812      198.98405
2017    7       1.02930702      175.606275
2017    8       1.35862775      202.4891125
2017    9       0.86469719      159.91525
2017    10      0.59768926      123.12397
2017    11      0.56562119      119.65584125
2017    12      0.56450058      119.28604125
2017    13      0.38549872      90.59373
2017    14      0.35023975      81.2641775
2017    15      0.2195197       57.48477125
2017    16      0.19362929      51.51557625
2017    17      0.3373977       82.37216875
2017    18      0.28236732      71.3999675
2017    19      0.3063211       75.8770125
2017    20      0.45370354      101.31409875
2017    21      0.60080698      124.35662125
2017    22      0.55782912      117.5059925
2017    23      0.30826128      76.4785575
2017    24      0.24414638      62.5047125
2017    25      0.31170116      75.4953675
2017    26      0.68844679      135.3600625
2017    27      1.24792988      194.6956875
2017    28      1.232953        193.7742125
2018    1       1.16709894      187.5491
2018    2       1.50470012      215.6417375
2018    3       1.00969271      171.82085
2018    4       1.11191201      178.2857125
2018    5       1.653721        221.64125
2018    6       1.3230125       200.4956
2018    7       1.2351525       194.632275
2018    8       0.96876492      162.28962375
2018    9       0.82918214      155.9796625
2018    10      0.59937704      123.77094625
2018    11      0.15706442      43.58311
2018    12      0.09355339      28.9419125
2018    13      0.08595607      26.96212875
2018    14      0.11479316      33.89178625
2018    15      0.31517684      77.88642875
2018    16      0.40674391      93.78895125
2018    17      0.68556824      135.6147525
2018    18      0.84189966      157.615275
2018    19      1.00119084      169.817725
2018    20      1.29269588      199.4559875
2018    21      1.18050675      190.407975
2018    22      1.26438212      198.09625
2018    23      1.298255        200.0027625
2018    24      1.10879776      182.8654875
2018    25      1.04262235      178.1484375
2018    26      0.789365        150.3862
2018    27      0.57235376      121.746175
2018    28      0.88684635      163.039875
