####################################################################################################
# Month: 04Apr                                                                                     #
# Station: HES                                                                                     #
# Frequency: 345 GHz                                                                               #
# Columns are: year    day     segment         tau     Tb (K)                                      #
####################################################################################################
2009    1       0       2.212404        253.162
2009    1       1       1.956655        243.5669
2009    1       2       1.642529        228.8797
2009    1       3       1.646807        229.5215
2009    1       4       2.140475        251.0897
2009    1       5       2.507978        261.5587
2009    1       6       2.906681        269.2711
2009    1       7       3.146905        272.7295
2009    2       0       3.050782        270.6283
2009    2       1       3.038383        270.3363
2009    2       2       2.74848         265.3392
2009    2       3       2.389852        257.7524
2009    2       4       2.311695        256.2987
2009    2       5       2.500018        261.2898
2009    2       6       2.68118         264.6931
2009    2       7       2.821717        266.7945
2009    3       0       2.798223        266.2929
2009    3       1       2.667675        263.4872
2009    3       2       2.292313        254.5024
2009    3       3       2.120149        249.6845
2009    3       4       2.458312        259.7806
2009    3       5       3.001469        270.2475
2009    3       6       3.064177        270.4978
2009    3       7       2.766679        265.5472
2009    4       0       2.544384        260.9769
2009    4       1       2.355199        256.3622
2009    4       2       2.218195        252.229
2009    4       3       2.123115        249.5601
2009    4       4       2.158258        250.9234
2009    4       5       2.296178        255.2713
2009    4       6       2.259403        253.9712
2009    4       7       2.132785        249.9481
2009    5       0       2.116007        249.1886
2009    5       1       2.134438        249.5738
2009    5       2       2.059195        247.0284
2009    5       3       1.976177        244.6687
2009    5       4       1.875458        240.8708
2009    5       5       1.954019        244.1271
2009    5       6       2.096347        249.1935
2009    5       7       2.108135        249.0948
2009    6       0       1.917939        241.7858
2009    6       1       1.792809        236.3542
2009    6       2       1.66129         229.7274
2009    6       3       1.75458         234.6886
2009    6       4       1.892481        241.4059
2009    6       5       2.099114        249.727
2009    6       6       2.102773        249.48
2009    6       7       1.911585        242.2283
2009    7       0       1.767122        235.6165
2009    7       1       1.672228        230.6512
2009    7       2       1.540169        222.9674
2009    7       3       1.435269        216.4966
2009    7       4       1.471369        218.7308
2009    7       5       1.602501        226.8873
2009    7       6       1.762761        235.1285
2009    7       7       1.936336        242.5359
2009    8       0       1.932682        242.1548
2009    8       1       1.827581        237.6834
2009    8       2       1.790449        235.7302
2009    8       3       1.817167        236.9857
2009    8       4       1.922036        241.987
2009    8       5       2.039655        246.8651
2009    8       6       2.208344        252.3254
2009    8       7       2.331929        255.8303
2009    9       0       2.441234        258.4596
2009    9       1       2.514997        259.9094
2009    9       2       2.492975        259.0875
2009    9       3       2.412087        257.2247
2009    9       4       2.291824        254.4024
2009    9       5       2.28072         254.0075
2009    9       6       2.355406        255.8279
2009    9       7       2.46474         258.5278
2009    10      0       2.421991        257.6009
2009    10      1       2.272873        253.542
2009    10      2       2.1919          250.8726
2009    10      3       2.240301        251.9297
2009    10      4       2.395403        256.4171
2009    10      5       2.507284        259.3751
2009    10      6       2.473765        258.3186
2009    10      7       2.446935        257.5026
2009    11      0       2.476986        258.1547
2009    11      1       2.38044         255.9651
2009    11      2       2.394041        256.194
2009    11      3       2.361083        255.363
2009    11      4       2.640145        262.7228
2009    11      5       3.062877        270.0036
2009    11      6       2.983102        268.6288
2009    11      7       2.64258         262.7416
2009    12      0       2.188537        251.0586
2009    12      1       1.873829        239.4605
2009    12      2       1.659236        229.6753
2009    12      3       1.452689        217.8699
2009    12      4       1.316948        208.5538
2009    12      5       1.409166        215.2931
2009    12      6       1.501225        221.2317
2009    12      7       1.562212        225.1929
2009    13      0       1.586985        226.6454
2009    13      1       1.566787        225.4503
2009    13      2       1.556883        225.0664
2009    13      3       1.535341        224.2814
2009    13      4       1.590077        227.4937
2009    13      5       1.660763        231.5572
2009    13      6       1.751191        235.4215
2009    13      7       1.793091        236.8874
2009    14      0       1.767264        235.3138
2009    14      1       1.687465        231.4179
2009    14      2       1.580906        225.8639
2009    14      3       1.357849        211.5767
2009    14      4       1.531688        222.7537
2009    14      5       1.904608        241.2868
2009    14      6       2.090751        247.6071
2009    14      7       2.076039        246.8934
2009    15      0       2.194814        251.1118
2009    15      1       2.157366        249.2326
2009    15      2       2.218627        250.9248
2009    15      3       2.252687        252.0088
2009    15      4       2.443238        257.7271
2009    15      5       2.907449        267.8858
2009    15      6       2.76632         264.6507
2009    15      7       2.766869        264.419
2009    16      0       3.331153        273.23
2009    16      1       2.828371        265.0088
2009    16      2       2.844958        265.1287
2009    16      3       2.894242        266.1072
2009    16      4       2.993537        268.5472
2009    16      5       3.221515        271.8922
2009    16      6       3.32526         272.733
2009    16      7       3.114683        270.08
2009    17      0       2.683214        262.5655
2009    17      1       2.446743        256.7909
2009    17      2       2.20781         250.2553
2009    17      3       2.307005        253.3133
2009    17      4       2.363853        256.0436
2009    17      5       2.614699        262.4483
2009    17      6       3.682216        277.3749
2009    17      7       2.476473        258.4979
2009    18      0       4.802433        282.3515
2009    18      1       2.416862        256.4402
2009    18      2       2.440556        256.7628
2009    18      3       2.489509        258.1243
2009    18      4       2.547113        260.4564
2009    18      5       2.716612        264.5748
2009    18      6       2.807955        266.0524
2009    18      7       2.820983        266.0426
2009    19      0       2.778496        265.2191
2009    19      1       2.749646        264.4691
2009    19      2       2.683523        263.0352
2009    19      3       2.490483        259.181
2009    19      4       2.433937        259.2912
2009    19      5       2.430131        259.7098
2009    19      6       2.256109        254.5134
2009    19      7       2.229001        253.1273
2009    20      0       2.177199        251.4734
2009    20      1       2.006476        245.7548
2009    20      2       1.905751        241.996
2009    20      3       1.923412        242.7061
2009    20      4       2.182741        252.8589
2009    20      5       2.402054        259.5602
2009    20      6       2.351837        257.3939
2009    20      7       2.171626        251.3324
2009    21      0       1.995309        244.9539
2009    21      1       1.823235        237.8231
2009    21      2       1.787393        235.88
2009    21      3       1.847769        237.6464
2009    21      4       1.979928        243.4191
2009    21      5       2.114724        248.5597
2009    21      6       2.364293        255.7506
2009    21      7       2.606739        261.1226
2009    22      0       2.661253        261.6384
2009    22      1       2.684148        261.5481
2009    22      2       2.864412        265.2385
2009    22      3       3.235957        270.5277
2009    22      4       3.35519         272.6709
2009    22      5       3.847603        276.7132
2009    22      6       3.928271        277.0418
2009    22      7       3.980493        277.2526
2009    23      0       4.615391        279.4071
2009    23      1       4.641624        278.9723
2009    23      2       3.653291        274.8648
2009    23      3       3.812795        275.9241
2009    23      4       3.717511        275.6753
2009    23      5       3.09323         269.2292
2009    23      6       2.441488        257.4915
2009    23      7       1.8308          237.3994
2009    24      0       1.552313        222.9109
2009    24      1       1.285162        204.8651
2009    24      2       1.102422        189.6248
2009    24      3       1.18194         196.9048
2009    24      4       1.119611        191.7508
2009    24      5       0.9776663       178.1481
2009    24      6       0.9898345       179.122
2009    24      7       1.143543        193.7002
2009    25      0       1.306256        206.6774
2009    25      1       1.374222        211.2111
2009    25      2       1.404377        213.1847
2009    25      3       1.341578        209.0399
2009    25      4       1.333071        208.8768
2009    25      5       1.203078        198.5888
2009    25      6       1.190294        197.4894
2009    25      7       1.288249        206.1645
2009    26      0       1.348009        210.7355
2009    26      1       1.265721        204.4698
2009    26      2       1.133037        193.2913
2009    26      3       1.145105        194.6069
2009    26      4       1.254188        203.55
2009    26      5       1.254344        203.808
2009    26      6       1.285688        206.3525
2009    26      7       1.307732        207.9175
2009    27      0       1.213674        200.5132
2009    27      1       1.256991        203.508
2009    27      2       1.606642        226.1982
2009    27      3       1.865106        239.2113
2009    27      4       2.125018        249.7375
2009    27      5       2.363591        256.7425
2009    27      6       2.145587        249.7513
2009    27      7       2.193161        251.0803
2009    28      0       2.322027        254.7994
2009    28      1       2.490829        259.2447
2009    28      2       2.523291        259.7299
2009    28      3       2.436399        257.8564
2009    28      4       2.596634        262.3947
2009    28      5       2.668764        264.1081
2009    28      6       2.507494        260.5009
2009    28      7       2.383503        257.823
2009    29      0       2.516343        261.0201
2009    29      1       2.528931        260.7646
2009    29      2       2.658916        262.6373
2009    29      3       2.627286        261.6926
2009    29      4       2.504253        259.5814
2009    29      5       2.536834        260.271
2009    29      6       2.450019        258.2214
2009    29      7       2.3708          256.4649
2009    30      0       2.434952        258.1305
2009    30      1       2.624985        261.7503
2009    30      2       2.672233        261.6321
2009    30      3       2.77177         263.4347
2009    30      4       2.86113         265.3501
2009    30      5       2.557389        259.947
2009    30      6       2.38153         255.8875
2009    30      7       2.176239        249.7223
2010    1       0       4.107905        280.4651
2010    1       1       3.910883        279.3162
2010    1       2       3.768789        278.3165
2010    1       3       3.4965          276.762
2010    1       4       3.595018        278.6843
2010    1       5       3.373042        277.2234
2010    1       6       3.27026         275.7737
2010    1       7       3.254404        275.3005
2010    2       0       3.444085        277.0478
2010    2       1       3.288839        275.4918
2010    2       2       3.164327        273.9609
2010    2       3       3.205612        274.3735
2010    2       4       3.659356        279.4923
2010    2       5       4.019491        282.1353
2010    2       6       4.861402        286.124
2010    2       7       3.600988        278.783
2010    3       0       3.497412        277.9781
2010    3       1       3.888618        280.3264
2010    3       2       3.475246        276.9423
2010    3       3       3.090861        273.0539
2010    3       4       3.151756        274.3355
2010    3       5       3.269727        275.693
2010    3       6       3.071282        272.4357
2010    3       7       2.851182        268.7399
2010    4       0       2.86822         268.8096
2010    4       1       2.94287         269.6975
2010    4       2       2.773074        266.9716
2010    4       3       2.678322        265.4537
2010    4       4       2.749717        267.7734
2010    4       5       2.926904        270.8683
2010    4       6       2.975497        270.6449
2010    4       7       2.894441        269.0202
2010    5       0       2.884926        268.3497
2010    5       1       3.497455        276.0094
2010    5       2       3.008272        269.2304
2010    5       3       3.222877        272.4524
2010    5       4       3.728945        278.0587
2010    5       5       4.459152        282.0339
2010    5       6       4.511111        281.6906
2010    5       7       4.335157        281.2745
2010    6       0       4.384143        281.1741
2010    6       1       4.148249        279.8485
2010    6       2       3.551459        276.2661
2010    6       3       3.198731        273.5497
2010    6       4       2.609784        265.3014
2010    6       5       2.124143        252.2807
2010    6       6       1.597532        228.4079
2010    6       7       1.431531        218.3364
2010    7       0       1.622373        229.3935
2010    7       1       1.585324        227.4972
2010    7       2       1.493556        222.7402
2010    7       3       1.507589        223.3747
2010    7       4       1.593578        228.7725
2010    7       5       1.792615        238.8941
2010    7       6       1.892122        242.7836
2010    7       7       1.853823        240.2679
2010    8       0       1.973984        245.099
2010    8       1       2.557307        263.344
2010    8       2       3.014681        271.2857
2010    8       3       3.184961        273.3343
2010    8       4       3.52728         277.227
2010    8       5       4.333449        282.1185
2010    8       6       4.316015        281.4662
2010    8       7       3.993946        279.7081
2010    9       0       3.789786        278.3623
2010    9       1       3.517064        276.1989
2010    9       2       3.137777        272.2246
2010    9       3       3.03425         271.3201
2010    9       4       3.484349        276.7318
2010    9       5       3.693232        278.5534
2010    9       6       3.140392        273.1414
2010    9       7       2.700188        266.5797
2010    10      0       2.700643        266.1757
2010    10      1       2.586534        262.9347
2010    10      2       2.33473         256.5034
2010    10      3       1.920746        243.3812
2010    10      4       1.817863        239.8658
2010    10      5       1.956272        245.572
2010    10      6       1.911266        243.5108
2010    10      7       1.815944        239.1297
2010    11      0       1.717627        234.7728
2010    11      1       1.71695         234.9246
2010    11      2       1.769944        237.1436
2010    11      3       1.829148        239.9003
2010    11      4       1.933145        244.459
2010    11      5       2.091246        250.7124
2010    11      6       2.145839        252.0641
2010    11      7       2.157971        251.8877
2010    12      0       2.497267        260.843
2010    12      1       2.720276        265.2842
2010    12      2       2.771528        266.0187
2010    12      3       3.195795        272.5209
2010    12      4       4.089904        280.2803
2010    12      5       4.771576        282.7905
2010    12      6       4.696457        282.2345
2010    12      7       4.599881        281.61
2010    13      0       4.222369        280.2699
2010    13      1       3.550713        276.1586
2010    13      2       3.039463        270.361
2010    13      3       2.53068         261.1873
2010    13      4       2.301124        255.6369
2010    13      5       2.592515        262.8965
2010    13      6       2.964904        269.1661
2010    13      7       3.309466        273.1307
2010    14      0       3.346778        273.2476
2010    14      1       3.278475        272.3478
2010    14      2       2.858848        266.4443
2010    14      3       2.318777        254.8782
2010    14      4       2.18925         251.4704
2010    14      5       2.329775        255.7237
2010    14      6       2.574962        261.4449
2010    14      7       2.858084        266.257
2010    15      0       2.945261        267.0914
2010    15      1       2.964004        267.288
2010    15      2       3.124843        269.3209
2010    15      3       3.347502        271.7483
2010    15      4       3.520089        274.1158
2010    15      5       3.731664        276.4772
2010    15      6       3.975559        278.0798
2010    15      7       3.967525        277.8566
2010    16      0       3.736965        276.3606
2010    16      1       3.653388        275.5284
2010    16      2       3.530671        274.1724
2010    16      3       3.506005        273.8989
2010    16      4       3.673565        276.2361
2010    16      5       3.726735        277.3956
2010    16      6       3.719921        276.9622
2010    16      7       3.516784        274.9029
2010    17      0       3.456731        273.9545
2010    17      1       3.176194        270.9292
2010    17      2       2.874096        266.4036
2010    17      3       2.681035        263.1534
2010    17      4       2.66835         263.8138
2010    17      5       2.693935        264.5167
2010    17      6       2.69051         264.039
2010    17      7       2.711396        263.9992
2010    18      0       2.59131         261.2392
2010    18      1       2.56717         260.5018
2010    18      2       2.628203        261.7991
2010    18      3       2.320043        254.6465
2010    18      4       2.193971        251.2224
2010    18      5       2.224541        252.1772
2010    18      6       2.100474        247.7772
2010    18      7       1.899856        239.874
2010    19      0       1.879075        238.9116
2010    19      1       1.798401        235.2067
2010    19      2       1.733162        231.6027
2010    19      3       1.718556        230.6619
2010    19      4       1.441466        215.5051
2010    19      5       1.139911        192.8526
2010    19      6       0.7989041       156.8917
2010    19      7       0.4043802       97.08597
2010    20      0       0.3339922       83.42571
2010    20      1       0.3673782       89.8964
2010    20      2       0.3643097       89.29322
2010    20      3       0.4654462       107.8091
2010    20      4       0.479182        110.6735
2010    20      5       0.4490683       104.7277
2010    20      6       0.4382305       102.1343
2010    20      7       0.4443517       103.2275
2010    21      0       0.4700257       107.6905
2010    21      1       0.524726        116.971
2010    21      2       0.6623762       138.0756
2010    21      3       0.7247282       145.878
2010    21      4       0.835404        160.1398
2010    21      5       0.9820098       176.8759
2010    21      6       0.967502        175.806
2010    21      7       1.08796         188.3458
2010    22      0       1.086924        187.8049
2010    22      1       1.112743        189.8802
2010    22      2       1.030813        181.5058
2010    22      3       1.040987        182.5853
2010    22      4       1.164718        193.22
2010    22      5       1.241159        199.3959
2010    22      6       1.100397        187.3641
2010    22      7       1.08569         186.6055
2010    23      0       1.136748        190.5788
2010    23      1       1.179296        193.2066
2010    23      2       1.06764         183.0108
2010    23      3       1.008748        177.4872
2010    23      4       0.9511454       172.0223
2010    23      5       0.8742814       164.4715
2010    23      6       0.7816626       153.9392
2010    23      7       0.7568013       151.3683
2010    24      0       0.8010046       156.9272
2010    24      1       0.9387936       172.7698
2010    24      2       1.149673        193.3627
2010    24      3       1.51203         219.8463
2010    24      4       1.694989        230.586
2010    24      5       1.42615         214.9102
2010    24      6       0.9858297       178.3023
2010    24      7       0.8212246       159.785
2010    25      0       0.9012893       169.3177
2010    25      1       1.00274         180.0634
2010    25      2       1.157952        194.4405
2010    25      3       1.251089        202.6936
2010    25      4       1.283899        205.4816
2010    25      5       1.235515        201.3116
2010    25      6       1.058932        185.6495
2010    25      7       0.9843757       178.7782
2010    26      0       1.17112         196.6132
2010    26      1       1.222938        200.8569
2010    26      2       1.14931         194.8982
2010    26      3       1.124557        192.6467
2010    26      4       1.143861        194.2634
2010    26      5       0.9946934       180.1617
2010    26      6       0.8366936       162.081
2010    26      7       0.7360826       149.7204
2010    27      0       0.8063206       158.2571
2010    27      1       0.8426915       162.0729
2010    27      2       0.826775        160.151
2010    27      3       1.068209        186.7888
2010    27      4       1.192005        197.9587
2010    27      5       1.287906        205.5141
2010    27      6       1.257947        204.0485
2010    27      7       1.530534        223.6325
2010    28      0       1.837584        239.3612
2010    28      1       1.986571        245.4783
2010    28      2       2.115058        249.668
2010    28      3       2.155382        251.2153
2010    28      4       2.230225        254.3777
2010    28      5       2.401963        259.325
2010    28      6       2.397301        259.2307
2010    28      7       2.840691        268.3962
2010    29      0       3.242328        273.8124
2010    29      1       3.596361        277.1882
2010    29      2       3.670164        277.4274
2010    29      3       3.610304        277.2004
2010    29      4       3.683704        278.5737
2010    29      5       4.162237        281.6149
2010    29      6       4.004283        280.6364
2010    29      7       4.149855        281.2092
2010    30      0       4.323466        281.7359
2010    30      1       4.102782        280.7487
2010    30      2       4.098877        280.5935
2010    30      3       4.320925        281.1917
2010    30      4       4.664254        282.7203
2010    30      5       5.089065        283.7433
2010    30      6       4.768519        282.9942
2010    30      7       4.162265        281.0467
2011    1       0       3.08994         271.8789
2011    1       1       3.213567        273.0993
2011    1       2       3.287803        273.7944
2011    1       3       3.794891        277.8878
2011    1       4       4.338618        281.3221
2011    1       5       4.775451        283.0859
2011    1       6       4.805462        282.733
2011    1       7       4.614321        281.9185
2011    2       0       4.285199        280.5525
2011    2       1       3.880354        278.5678
2011    2       2       3.587849        276.3432
2011    2       3       3.722861        277.6207
2011    2       4       3.957224        279.7704
2011    2       5       4.115162        280.8794
2011    2       6       3.830061        279.2656
2011    2       7       3.502361        276.8479
2011    3       0       3.314058        274.6728
2011    3       1       3.038307        271.1849
2011    3       2       2.888888        268.6958
2011    3       3       2.786082        267.3493
2011    3       4       2.846902        268.7342
2011    3       5       3.013374        270.8741
2011    3       6       2.565931        262.5331
2011    3       7       2.294507        255.568
2011    4       0       2.343509        256.6438
2011    4       1       2.403183        257.9962
2011    4       2       2.477487        259.8942
2011    4       3       2.450229        259.1474
2011    4       4       2.99585         269.9026
2011    4       5       3.55129         276.1519
2011    4       6       3.520266        276.0159
2011    4       7       3.339396        274.7011
2011    5       0       3.37362         275.0917
2011    5       1       3.764677        277.5374
2011    5       2       3.89619         277.7177
2011    5       3       4.090305        278.8578
2011    5       4       4.420115        281.1194
2011    5       5       4.442357        281.2692
2011    5       6       4.015258        279.1896
2011    5       7       3.717763        277.2975
2011    6       0       3.50561         275.3586
2011    6       1       3.257722        272.7947
2011    6       2       2.884056        267.9859
2011    6       3       2.859941        268.1781
2011    6       4       2.916067        269.9433
2011    6       5       2.886021        269.5207
2011    6       6       2.571615        263.323
2011    6       7       2.430943        259.759
2011    7       0       2.266845        255.2676
2011    7       1       2.105995        250.2387
2011    7       2       2.283159        255.5961
2011    7       3       2.496718        261.6581
2011    7       4       2.972751        271.1631
2011    7       5       4.16701         280.8299
2011    7       6       4.679196        282.302
2011    7       7       4.696514        282.1822
2011    8       0       4.594247        281.5342
2011    8       1       4.479003        280.3562
2011    8       2       4.38986         279.5604
2011    8       3       5.111447        281.3459
2011    8       4       5.532059        282.4476
2011    8       5       5.69715         282.4345
2011    8       6       5.212751        281.7549
2011    8       7       4.965096        281.4656
2011    9       0       4.82829         281.1274
2011    9       1       4.549212        280.2545
2011    9       2       4.383964        279.4955
2011    9       3       4.482817        279.8737
2011    9       4       4.437247        281.109
2011    9       5       4.480701        281.5426
2011    9       6       4.301386        280.4308
2011    9       7       4.163989        279.4361
2011    10      0       4.404556        279.8612
2011    10      1       4.573422        280.1072
2011    10      2       4.188309        278.6711
2011    10      3       4.005992        277.36
2011    10      4       4.12556         278.5234
2011    10      5       3.972704        278.4651
2011    10      6       3.852217        277.9543
2011    10      7       3.843032        277.9324
2011    11      0       3.807894        277.448
2011    11      1       3.904127        277.6536
2011    11      2       3.891523        277.3287
2011    11      3       3.840873        276.7429
2011    11      4       4.435981        280.5082
2011    11      5       4.961023        281.9308
2011    11      6       4.528925        280.7826
2011    11      7       4.27113         280.053
2011    12      0       4.097661        279.1716
2011    12      1       4.030527        278.4839
2011    12      2       3.937803        277.7919
2011    12      3       3.836107        277.3306
2011    12      4       4.213472        280.0108
2011    12      5       4.298835        280.7044
2011    12      6       3.801131        278.15
2011    12      7       3.611394        276.8546
2011    13      0       3.567298        276.3889
2011    13      1       3.480443        275.6294
2011    13      2       3.251751        273.2013
2011    13      3       3.215763        272.7932
2011    13      4       3.095237        271.7579
2011    13      5       2.980481        270.2115
2011    13      6       2.775359        266.5756
2011    13      7       2.799713        267.2742
2011    14      0       3.181934        272.7953
2011    14      1       3.324356        274.1287
2011    14      2       3.053789        270.9244
2011    14      3       3.226401        273.0271
2011    14      4       3.677441        277.0406
2011    14      5       3.957354        278.5674
2011    14      6       3.523528        275.7065
2011    14      7       3.232461        272.8432
2011    15      0       3.176705        272.1037
2011    15      1       3.367702        273.9969
2011    15      2       3.677691        276.4878
2011    15      3       4.271882        280.1185
2011    15      4       4.717363        281.7019
2011    15      5       4.544684        281.1122
2011    15      6       4.259118        279.7683
2011    15      7       3.772079        276.9389
2011    16      0       3.357594        273.3513
2011    16      1       3.086363        270.0927
2011    16      2       2.927039        267.5505
2011    16      3       3.361981        272.4796
2011    16      4       3.713796        275.608
2011    16      5       3.856065        276.5429
2011    16      6       3.393099        273.0672
2011    16      7       3.059057        269.3916
2011    17      0       3.125226        270.16
2011    17      1       3.378367        272.8734
2011    17      2       3.278946        272.0176
2011    17      3       3.537161        274.1399
2011    17      4       4.189166        278.2931
2011    17      5       4.572363        279.6155
2011    17      6       4.301199        278.3666
2011    17      7       3.657353        274.716
2011    18      0       3.371381        272.6693
2011    18      1       3.367076        272.5673
2011    18      2       3.68306         274.8956
2011    18      3       4.361247        277.8531
2011    18      4       4.952109        280.0632
2011    18      5       5.2086          280.7605
2011    18      6       4.940111        280.2759
2011    18      7       4.159144        278.0569
2011    19      0       4.033443        277.2612
2011    19      1       4.01596         276.7318
2011    19      2       3.823123        275.7473
2011    19      3       3.774808        275.732
2011    19      4       3.8991          277.0057
2011    19      5       4.06582         277.8322
2011    19      6       4.056922        277.7881
2011    19      7       3.771592        276.202
2011    20      0       3.825325        275.6695
2011    20      1       3.303524        270.5372
2011    20      2       3.05527         267.7796
2011    20      3       3.523311        271.9088
2011    20      4       3.796479        274.2857
2011    20      5       4.467617        276.7068
2011    20      6       4.142909        275.1905
2011    20      7       4.045631        275.066
2011    21      0       4.014454        273.1798
2011    21      1       3.754568        271.0066
2011    21      2       3.464657        268.8873
2011    21      3       2.803001        261.5678
2011    21      4       2.462852        256.2418
2011    21      5       2.542592        258.2259
2011    21      6       2.224829        250.233
2011    21      7       1.889755        238.9189
2011    22      0       2.017234        244.4675
2011    22      1       2.342283        254.9065
2011    22      2       2.633971        261.6334
2011    22      3       2.63903         261.5126
2011    22      4       2.826721        265.5223
2011    22      5       2.763202        265.1664
2011    22      6       2.461588        259.1368
2011    22      7       2.455434        258.931
2011    23      0       2.471074        259.4703
2011    23      1       2.413929        258.1474
2011    23      2       2.223153        252.8696
2011    23      3       2.685991        263.8934
2011    23      4       2.53797         261.7991
2011    23      5       2.807755        267.0109
2011    23      6       2.784499        265.9715
2011    23      7       2.582942        261.9956
2011    24      0       2.674653        263.575
2011    24      1       2.710132        264.2624
2011    24      2       2.695799        263.716
2011    24      3       3.288533        271.933
2011    24      4       3.594977        275.4647
2011    24      5       3.818215        277.1059
2011    24      6       3.785913        276.4485
2011    24      7       3.806252        276.6434
2011    25      0       3.78374         276.5602
2011    25      1       3.475096        274.101
2011    25      2       3.3798          272.8643
2011    25      3       3.537136        274.4918
2011    25      4       3.696646        276.7309
2011    25      5       3.521089        275.5086
2011    25      6       3.49967         274.7063
2011    25      7       3.637816        275.9401
2011    26      0       3.81377         277.0877
2011    26      1       3.491345        274.6124
2011    26      2       3.403413        273.0306
2011    26      3       3.110466        269.3093
2011    26      4       2.586767        261.3104
2011    26      5       2.170206        249.9527
2011    26      6       1.723555        231.4549
2011    26      7       1.386426        211.7047
2011    27      0       1.098114        188.0219
2011    27      1       0.9920041       177.1969
2011    27      2       0.9466114       172.4032
2011    27      3       1.070401        185.1281
2011    27      4       1.347271        208.7315
2011    27      5       1.542092        221.9112
2011    27      6       1.665206        228.5095
2011    27      7       1.854634        238.0552
2011    28      0       2.415915        257.1956
2011    28      1       2.941865        267.4612
2011    28      2       3.5093          273.6027
2011    28      3       4.430671        278.7075
2011    28      4       4.209942        278.7123
2011    28      5       4.069382        278.4853
2011    28      6       3.718322        276.6149
2011    28      7       3.598973        275.9963
2011    29      0       3.95351         278.5617
2011    29      1       4.193483        279.7928
2011    29      2       4.198206        279.7556
2011    29      3       4.393807        279.9996
2011    29      4       4.106086        279.0196
2011    29      5       3.914285        278.3303
2011    29      6       3.80081         277.8649
2011    29      7       3.817695        278.1336
2011    30      0       4.19108         279.6214
2011    30      1       4.153359        279.186
2011    30      2       3.692969        276.6628
2011    30      3       3.754195        276.8571
2011    30      4       3.796804        277.763
2011    30      5       4.011355        279.2222
2011    30      6       4.087476        279.1482
2011    30      7       3.902391        278.0046
2012    1       0       1.060696        186.5583
2012    1       1       1.015862        181.9542
2012    1       2       0.9778294       178.138
2012    1       3       1.166487        195.843
2012    1       4       1.195189        199.2881
2012    1       5       1.354001        211.5811
2012    1       6       1.409236        215.2733
2012    1       7       1.303881        208.0076
2012    2       0       1.257502        204.8011
2012    2       1       1.296838        207.7851
2012    2       2       1.333503        210.2338
2012    2       3       1.3163          208.9739
2012    2       4       1.289205        206.8553
2012    2       5       1.351934        211.4483
2012    2       6       1.330521        209.805
2012    2       7       1.248923        203.5343
2012    3       0       1.196387        199.1771
2012    3       1       1.200697        199.225
2012    3       2       1.195478        198.6234
2012    3       3       1.24324         202.6095
2012    3       4       1.373795        212.7137
2012    3       5       1.583092        225.9723
2012    3       6       1.633406        228.3523
2012    3       7       1.587138        225.7394
2012    4       0       1.613513        227.1609
2012    4       1       1.653006        229.121
2012    4       2       1.671258        229.9747
2012    4       3       1.760996        234.6252
2012    4       4       1.953364        243.1437
2012    4       5       2.199879        252.1599
2012    4       6       2.296282        254.4998
2012    4       7       2.1426          249.4929
2012    5       0       2.071799        246.9637
2012    5       1       6.462838        283.9536
2012    5       2       2.126511        247.7452
2012    5       3       2.20558         250.3938
2012    5       4       2.328954        254.9118
2012    5       5       2.508807        259.7626
2012    5       6       3.170284        271.8776
2012    5       7       2.137771        248.5758
2012    6       0       1.989517        242.8962
2012    6       1       1.912968        239.5259
2012    6       2       1.911633        239.1002
2012    6       3       1.986675        242.0728
2012    6       4       2.24653         251.35
2012    6       5       2.871155        266.5441
2012    6       6       3.338453        272.816
2012    6       7       2.245398        251.0994
2012    7       0       2.293513        252.3104
2012    7       1       2.463272        256.1876
2012    7       2       2.225786        249.8237
2012    7       3       2.181022        248.6141
2012    7       4       2.213201        250.3287
2012    7       5       1.877317        238.3256
2012    7       6       1.462236        216.532
2012    7       7       1.328744        207.6872
2012    8       0       1.323344        207.101
2012    8       1       1.41871         213.6255
2012    8       2       1.337788        207.8363
2012    8       3       1.338393        208.656
2012    8       4       1.481538        219.1673
2012    8       5       1.647987        228.8357
2012    8       6       1.701568        231.3385
2012    8       7       1.957075        242.6536
2012    9       0       2.037774        245.1881
2012    9       1       1.865468        238.1235
2012    9       2       1.74398         233.1745
2012    9       3       1.807354        236.1251
2012    9       4       1.912387        241.1799
2012    9       5       1.878656        240.0922
2012    9       6       1.74381         233.8612
2012    9       7       1.692959        231.4006
2012    10      0       1.740143        233.3157
2012    10      1       1.848935        238.0023
2012    10      2       1.824479        236.8557
2012    10      3       1.839201        237.5065
2012    10      4       2.126341        249.452
2012    10      5       2.517592        260.4825
2012    10      6       2.700714        263.7116
2012    10      7       2.460485        258.4899
2012    11      0       2.282203        253.8501
2012    11      1       2.139335        249.6147
2012    11      2       2.098316        248.4129
2012    11      3       2.017203        245.8216
2012    11      4       2.116985        249.562
2012    11      5       2.364027        256.6547
2012    11      6       2.638805        262.4197
2012    11      7       2.574044        260.5879
2012    12      0       2.440507        257.3493
2012    12      1       2.464466        257.5595
2012    12      2       2.580324        260.2367
2012    12      3       2.641822        261.5825
2012    12      4       2.923015        267.3081
2012    12      5       3.331922        272.5262
2012    12      6       3.492295        273.58
2012    12      7       3.639764        275.9748
2012    13      0       2.702341        262.1373
2012    13      1       2.380071        254.0454
2012    13      2       2.207072        248.6883
2012    13      3       2.159293        247.6703
2012    13      4       2.216604        250.4878
2012    13      5       2.434256        257.247
2012    13      6       2.54783         259.2931
2012    13      7       2.747321        263.004
2012    14      0       2.979918        267.0345
2012    14      1       2.815324        263.9
2012    14      2       2.915234        265.6749
2012    14      3       3.05611         268.0612
2012    14      4       3.302418        271.6148
2012    14      5       3.206849        271.053
2012    14      6       2.702866        263.7056
2012    14      7       2.612616        261.7509
2012    15      0       2.760196        264.2877
2012    15      1       2.604844        261.4993
2012    15      2       2.451118        258.3387
2012    15      3       2.868868        266.4717
2012    15      4       3.071517        269.6999
2012    15      5       2.976992        268.4402
2012    15      6       2.7398          264.8543
2012    15      7       2.585579        262.1277
2012    16      0       2.820437        266.3235
2012    16      1       2.90204         267.3789
2012    16      2       2.686405        263.4653
2012    16      3       2.619831        262.0904
2012    16      4       2.807434        265.6362
2012    16      5       2.989996        268.7357
2012    16      6       3.610639        274.5945
2012    16      7       3.936516        276.1706
2012    17      0       3.548049        273.3864
2012    17      1       2.978605        267.24
2012    17      2       3.188397        268.6594
2012    17      3       2.658076        261.1876
2012    17      4       2.406958        256.7277
2012    17      5       2.532366        259.6556
2012    17      6       2.520615        259.3318
2012    17      7       2.382136        255.9456
2012    18      0       2.281597        252.8917
2012    18      1       2.2169          250.5753
2012    18      2       1.969194        242.0014
2012    18      3       1.886152        238.9322
2012    18      4       2.032143        245.0812
2012    18      5       2.152387        249.3456
2012    18      6       2.244791        251.8606
2012    18      7       2.471929        258.2094
2012    19      0       2.15113         248.3611
2012    19      1       2.13903         247.6669
2012    19      2       2.246537        251.1743
2012    19      3       2.449667        256.8512
2012    19      4       2.878694        266.4476
2012    19      5       3.321817        272.7629
2012    19      6       3.482834        273.9684
2012    19      7       3.368268        272.7532
2012    20      0       3.248015        271.4415
2012    20      1       3.116181        269.6091
2012    20      2       3.026138        268.0231
2012    20      3       3.804905        276.2528
2012    20      4       3.595012        273.9216
2012    20      5       3.425184        273.2394
2012    20      6       3.206148        271.3198
2012    20      7       3.45406         273.4662
2012    21      0       3.432819        272.5387
2012    21      1       3.231945        269.7748
2012    21      2       2.682572        261.6091
2012    21      3       2.468915        257.3892
2012    21      4       2.220441        250.9763
2012    21      5       1.383253        211.5888
2012    21      6       0.8325176       160.7751
2012    21      7       0.5060917       114.8043
2012    22      0       0.4094065       98.05807
2012    22      1       0.278979        72.61716
2012    22      2       0.2194366       59.7571
2012    22      3       0.4262985       100.9945
2012    22      4       0.4720244       109.1892
2012    22      5       0.4993358       113.7322
2012    22      6       0.4654514       108.0858
2012    22      7       0.3698902       90.63587
2012    23      0       0.3260931       81.92742
2012    23      1       0.2726811       70.70277
2012    23      2       0.2981318       75.85323
2012    23      3       0.6036572       129.271
2012    23      4       0.9230739       170.3294
2012    23      5       1.719842        231.6397
2012    23      6       1.598447        224.0215
2012    23      7       1.94255         239.7787
2012    24      0       2.156793        247.204
2012    24      1       3.189514        270.5166
2012    24      2       2.240246        251.1938
2012    24      3       2.270135        252.4003
2012    24      4       2.575872        260.854
2012    24      5       3.389026        273.8586
2012    24      6       3.4085          272.3428
2012    24      7       3.668636        274.3751
2012    25      0       3.809885        275.0534
2012    25      1       3.205218        270.1579
2012    25      2       3.458247        273.8182
2012    25      3       2.463878        256.6086
2012    25      4       2.331386        254.2084
2012    25      5       2.41718         256.9286
2012    25      6       2.320217        254.5689
2012    25      7       2.215435        251.5289
2012    26      0       2.21276         251.0573
2012    26      1       2.168426        249.328
2012    26      2       2.018168        244.185
2012    26      3       1.988018        243.4703
2012    26      4       2.099432        248.3538
2012    26      5       2.151677        250.7992
2012    26      6       1.987611        245.3813
2012    26      7       1.822048        238.9324
2012    27      0       1.789285        237.2937
2012    27      1       1.795521        237.2919
2012    27      2       1.862878        239.9248
2012    27      3       1.94216         243.3625
2012    27      4       2.127555        250.2961
2012    27      5       1.977351        245.107
2012    27      6       1.670686        231.334
2012    27      7       1.5506          224.7322
2012    28      0       1.619743        227.7462
2012    28      1       1.541684        223.6369
2012    28      2       1.477752        219.0316
2012    28      3       1.509812        220.7157
2012    28      4       1.36416         211.7821
2012    28      5       1.352726        210.3924
2012    28      6       1.320897        208.1492
2012    28      7       1.437648        216.431
2012    29      0       1.577825        225.3072
2012    29      1       1.66651         230.299
2012    29      2       1.702425        232.2818
2012    29      3       1.834016        238.6493
2012    29      4       1.94837         243.9672
2012    29      5       1.9979          245.8411
2012    29      6       2.016473        245.955
2012    29      7       2.057557        247.9019
2012    30      0       2.17062         251.9714
2012    30      1       2.223557        253.0936
2012    30      2       2.163103        251.0276
2012    30      3       2.123679        249.5534
2012    30      4       2.053805        248.0325
2012    30      5       2.032283        247.5797
2012    30      6       1.918125        242.7181
2012    30      7       1.85891         239.9237
2013    1       0       0.3351436       82.44895
2013    1       1       0.5840694       126.5947
2013    1       2       0.7739391       153.2727
2013    1       3       0.6307577       132.9902
2013    1       4       0.618765        131.2786
2013    1       5       0.6294371       133.0671
2013    1       6       0.6721437       139.0871
2013    1       7       0.9032263       169.2347
2013    2       0       1.170773        196.4604
2013    2       1       1.209232        199.8113
2013    2       2       1.30689         207.5371
2013    2       3       1.354917        210.8553
2013    2       4       1.27115         204.3852
2013    2       5       1.171401        196.1287
2013    2       6       1.081962        187.9715
2013    2       7       0.9600258       175.9421
2013    3       0       0.8446055       162.8581
2013    3       1       0.7899698       156.0563
2013    3       2       0.6490564       137.5884
2013    3       3       0.8628656       165.7625
2013    3       4       1.005956        181.8816
2013    3       5       1.200576        199.4571
2013    3       6       1.356017        211.5128
2013    3       7       1.318117        208.8021
2013    4       0       1.177295        197.6967
2013    4       1       1.006032        181.6811
2013    4       2       0.7570657       152.9132
2013    4       3       0.8011217       158.1572
2013    4       4       0.7466792       151.5447
2013    4       5       0.6959736       144.9211
2013    4       6       0.6748375       142.0488
2013    4       7       0.6448736       137.8994
2013    5       0       0.6429407       137.4178
2013    5       1       0.6118205       132.4855
2013    5       2       0.5356949       120.2887
2013    5       3       0.5662621       125.0093
2013    5       4       0.5371022       120.5641
2013    5       5       0.5922123       129.1895
2013    5       6       0.6090786       131.9723
2013    5       7       0.6232377       134.2771
2013    6       0       0.6608403       139.6847
2013    6       1       0.6774073       142.0201
2013    6       2       0.6744078       141.3838
2013    6       3       0.806728        158.9733
2013    6       4       0.8438297       163.2444
2013    6       5       1.014991        181.716
2013    6       6       1.093587        189.6044
2013    6       7       1.049783        185.6855
2013    7       0       0.9912451       179.9048
2013    7       1       0.9234917       172.9607
2013    7       2       0.9081244       171.2892
2013    7       3       0.8973555       170.3154
2013    7       4       1.058276        186.8553
2013    7       5       1.28989         206.702
2013    7       6       1.349768        210.9972
2013    7       7       1.262383        204.4357
2013    8       0       1.251396        203.4226
2013    8       1       1.204831        199.499
2013    8       2       1.152047        195.1015
2013    8       3       1.156278        195.2894
2013    8       4       1.297927        206.9654
2013    8       5       1.439165        216.3706
2013    8       6       1.394422        212.1811
2013    8       7       1.41936         214.7233
2013    9       0       1.474159        218.1259
2013    9       1       1.485666        218.4442
2013    9       2       1.376859        210.3944
2013    9       3       1.224628        198.3662
2013    9       4       1.24512         199.7045
2013    9       5       1.34884         206.4572
2013    9       6       1.347015        206.5723
2013    9       7       1.373967        209.0829
2013    10      0       1.203461        196.3891
2013    10      1       1.150584        191.3821
2013    10      2       1.137551        190.2603
2013    10      3       1.266976        201.4736
2013    10      4       1.401999        212.0092
2013    10      5       1.476547        216.8706
2013    10      6       1.490313        217.5655
2013    10      7       1.586269        223.1096
2013    11      0       1.675124        227.9595
2013    11      1       1.640245        226.3499
2013    11      2       1.597799        224.2313
2013    11      3       1.735083        231.8895
2013    11      4       1.795768        235.3328
2013    11      5       1.819209        236.5233
2013    11      6       1.772758        234.382
2013    11      7       1.851858        237.9136
2013    12      0       1.897537        239.7796
2013    12      1       1.930643        241.2391
2013    12      2       1.966452        242.4538
2013    12      3       1.998863        243.891
2013    12      4       2.125763        249.1981
2013    12      5       2.237328        252.7414
2013    12      6       2.14331         249.4751
2013    12      7       2.04629         245.8458
2013    13      0       2.019999        244.6076
2013    13      1       1.994987        243.6564
2013    13      2       2.097654        246.9894
2013    13      3       2.263129        252.194
2013    13      4       2.299776        254.6616
2013    13      5       2.299888        255.139
2013    13      6       2.31807         255.4198
2013    13      7       2.423869        257.9469
2013    14      0       2.495121        260.108
2013    14      1       2.539406        261.8365
2013    14      2       2.642655        263.8335
2013    14      3       2.704837        265.0401
2013    14      4       2.920334        269.1209
2013    14      5       3.556991        277.1352
2013    14      6       4.064727        280.4469
2013    14      7       4.115059        281.2881
2013    15      0       3.034767        270.6317
2013    15      1       3.141472        271.6929
2013    15      2       3.271004        272.7899
2013    15      3       3.29591         273.202
2013    15      4       3.480809        276.2077
2013    15      5       4.216646        282.5493
2013    15      6       4.570344        283.3926
2013    15      7       3.661292        277.0846
2013    16      0       3.525001        275.8347
2013    16      1       3.291446        273.5672
2013    16      2       4.283861        282.0163
2013    16      3       3.425834        274.8011
2013    16      4       3.615782        276.8631
2013    16      5       4.256341        281.8789
2013    16      6       3.04464         269.9415
2013    16      7       2.814584        265.645
2013    17      0       2.907278        266.2523
2013    17      1       2.904299        265.3721
2013    17      2       2.814767        263.5359
2013    17      3       2.85988         264.3088
2013    17      4       2.962044        266.422
2013    17      5       2.620758        260.7148
2013    17      6       2.424361        254.8717
2013    17      7       2.210074        248.802
2013    18      0       1.983941        241.5604
2013    18      1       1.445805        213.9701
2013    18      2       1.074384        185.104
2013    18      3       1.085502        186.7697
2013    18      4       1.029561        182.223
2013    18      5       1.019415        181.6586
2013    18      6       1.024448        181.6433
2013    18      7       0.6511278       137.1424
2013    19      0       0.3781489       91.96246
2013    19      1       0.3763452       91.21385
2013    19      2       0.5691891       123.8006
2013    19      3       0.8405835       160.307
2013    19      4       0.8240789       158.5066
2013    19      5       0.9725919       174.7843
2013    19      6       1.000622        177.8364
2013    19      7       0.8890468       166.9316
2013    20      0       0.7922187       155.5959
2013    20      1       0.6765123       139.9332
2013    20      2       0.5652501       122.9945
2013    20      3       0.6428047       133.928
2013    20      4       0.6133582       129.9049
2013    20      5       0.6806637       139.2443
2013    20      6       0.7318427       145.9533
2013    20      7       0.7658984       150.7735
2013    21      0       0.8466594       160.8032
2013    21      1       0.8618506       162.8947
2013    21      2       0.8112708       157.7678
2013    21      3       0.7559705       151.2035
2013    21      4       0.7649036       152.5283
2013    21      5       0.8254445       160.5392
2013    21      6       0.8457026       162.7697
2013    21      7       0.8054528       158.315
2013    22      0       0.7745253       154.6164
2013    22      1       0.7439604       151.0246
2013    22      2       0.7921449       156.9646
2013    22      3       0.7933786       156.8593
2013    22      4       0.862146        164.7419
2013    22      5       0.9455178       173.9524
2013    22      6       0.9555513       174.7705
2013    22      7       0.8755888       165.9786
2013    23      0       0.820006        159.8281
2013    23      1       0.7919248       156.7917
2013    23      2       0.7893065       156.7996
2013    23      3       0.7851597       156.4288
2013    23      4       0.8142642       160.1976
2013    23      5       0.8796565       167.9094
2013    23      6       0.8792856       167.7932
2013    23      7       0.8077384       159.1868
2013    24      0       0.7481326       151.6043
2013    24      1       0.7260782       148.7572
2013    24      2       0.7218918       148.2048
2013    24      3       0.8175501       160.5543
2013    24      4       0.8421141       163.7226
2013    24      5       0.91656         172.2797
2013    24      6       0.9176208       172.3522
2013    24      7       0.874251        167.5961
2013    25      0       0.838021        163.4749
2013    25      1       0.8161659       160.7649
2013    25      2       0.8253455       161.7197
2013    25      3       0.8639897       166.4883
2013    25      4       0.8340546       163.3409
2013    25      5       0.9003625       171.1666
2013    25      6       0.9418391       175.5713
2013    25      7       0.9309811       174.4554
2013    26      0       0.9010193       171.0917
2013    26      1       0.8744955       168.0394
2013    26      2       0.8167973       161.0261
2013    26      3       0.8238483       161.8509
2013    26      4       0.7589225       154.1513
2013    26      5       0.898361        170.6942
2013    26      6       0.9462544       176.0985
2013    26      7       0.8900589       170.4106
2013    27      0       0.868818        168.209
2013    27      1       0.8507498       165.751
2013    27      2       0.8272968       162.4774
2013    27      3       0.8243198       161.964
2013    27      4       0.7722856       156.0276
2013    27      5       0.9242995       173.4493
2013    27      6       0.9622123       177.1632
2013    27      7       0.9011455       170.5718
2013    28      0       0.7755164       156.1215
2013    28      1       0.7345324       151.0892
2013    28      2       0.7525622       153.2992
2013    28      3       0.7872632       157.7007
2013    28      4       0.8012276       159.2793
2013    28      5       0.8658259       166.8901
2013    28      6       0.9137228       172.1361
2013    28      7       0.9214259       173.0491
2013    29      0       0.8345659       163.5388
2013    29      1       0.7642456       154.9359
2013    29      2       0.738358        151.3828
2013    29      3       0.7063512       147.0947
2013    29      4       0.7281033       149.5837
2013    29      5       0.8071038       159.4651
2013    29      6       0.8491903       164.3208
2013    29      7       0.8517288       164.4908
2013    30      0       0.7997685       158.1958
2013    30      1       0.7525296       152.2288
2013    30      2       0.7383054       150.3884
2013    30      3       0.7683124       154.5501
2013    30      4       0.8294705       161.8711
2013    30      5       0.9249653       172.8744
2013    30      6       1.000862        180.6394
2013    30      7       1.023092        182.818
2014    1       0       2.228567        250.9633
2014    1       1       2.16029         248.5424
2014    1       2       1.939737        240.5856
2014    1       3       1.800328        235.0736
2014    1       4       1.776747        234.6067
2014    1       5       1.746257        233.1167
2014    1       6       1.634042        227.4182
2014    1       7       1.53795         221.9782
2014    2       0       1.498528        219.1596
2014    2       1       1.378426        210.9118
2014    2       2       1.205317        197.827
2014    2       3       0.9927453       178.5716
2014    2       4       1.065563        185.772
2014    2       5       1.074748        186.729
2014    2       6       0.9607469       175.4768
2014    2       7       1.193743        197.849
2014    3       0       1.402757        213.4565
2014    3       1       1.692096        230.5339
2014    3       2       2.023577        245.3504
2014    3       3       2.266499        253.1816
2014    3       4       2.404402        257.8476
2014    3       5       2.525113        260.4471
2014    3       6       4.064232        279.7009
2014    3       7       2.366977        255.5998
2014    4       0       2.300837        254.1987
2014    4       1       2.417241        257.7649
2014    4       2       2.128137        249.6524
2014    4       3       2.203149        252.2143
2014    4       4       2.601814        263.2061
2014    4       5       2.847586        268.2165
2014    4       6       2.908451        268.8163
2014    4       7       2.966613        269.2251
2014    5       0       3.084288        270.5653
2014    5       1       3.204886        272.0601
2014    5       2       3.132049        271.3587
2014    5       3       2.915313        268.5648
2014    5       4       2.920883        269.4851
2014    5       5       3.038674        271.4935
2014    5       6       3.473382        276.1087
2014    5       7       4.099367        279.9794
2014    6       0       4.329668        280.7723
2014    6       1       4.340092        280.4139
2014    6       2       4.108329        279.2665
2014    6       3       4.166744        279.9629
2014    6       4       4.553335        282.0426
2014    6       5       4.9694          283.4231
2014    6       6       5.277118        283.3806
2014    6       7       4.918168        282.1451
2014    7       0       4.476964        280.2374
2014    7       1       4.049395        278.0716
2014    7       2       3.855729        276.6543
2014    7       3       3.938208        277.1583
2014    7       4       3.916518        278.1433
2014    7       5       3.977492        278.9282
2014    7       6       4.043703        278.9662
2014    7       7       3.730827        276.8406
2014    8       0       3.403603        273.6589
2014    8       1       3.423829        273.1074
2014    8       2       3.185639        270.2831
2014    8       3       2.960836        267.5471
2014    8       4       2.957773        268.2222
2014    8       5       3.300501        272.597
2014    8       6       3.590979        274.2418
2014    8       7       3.054552        268.1276
2014    9       0       2.759774        263.3685
2014    9       1       2.673743        261.5034
2014    9       2       2.486561        257.3777
2014    9       3       2.479849        257.4974
2014    9       4       2.587304        260.2364
2014    9       5       2.728127        263.2037
2014    9       6       2.554975        259.1748
2014    9       7       2.030931        244.3049
2014    10      0       1.837606        236.5301
2014    10      1       1.56532         222.3509
2014    10      2       1.37502         210.0601
2014    10      3       1.500444        218.6531
2014    10      4       1.629133        226.9703
2014    10      5       1.984585        242.7045
2014    10      6       1.947595        241.1712
2014    10      7       1.956014        241.3057
2014    11      0       1.938558        240.2338
2014    11      1       1.721864        230.7248
2014    11      2       1.575973        222.9824
2014    11      3       1.842635        236.4481
2014    11      4       2.13989         248.2758
2014    11      5       2.84886         264.6998
2014    11      6       3.059469        267.383
2014    11      7       3.333423        270.6424
2014    12      0       3.356833        269.6981
2014    12      1       3.364476        269.2248
2014    12      2       3.63027         271.0727
2014    12      3       3.812822        271.9569
2014    12      4       4.159491        274.4949
2014    12      5       4.316755        276.4127
2014    12      6       4.092446        275.3919
2014    12      7       3.937245        274.5311
2014    13      0       3.907787        274.3838
2014    13      1       3.688511        272.9424
2014    13      2       3.277731        269.5804
2014    13      3       3.397646        270.8253
2014    13      4       3.313314        270.3941
2014    13      5       3.414232        271.4398
2014    13      6       3.600868        272.9449
2014    13      7       3.402636        271.2746
2014    14      0       3.204229        269.3068
2014    14      1       3.086932        267.8728
2014    14      2       2.795644        263.6266
2014    14      3       2.911893        265.7071
2014    14      4       2.984408        267.4733
2014    14      5       2.93281         267.1717
2014    14      6       2.826004        265.5359
2014    14      7       2.671221        262.7792
2014    15      0       2.560352        260.2338
2014    15      1       2.4921          258.3181
2014    15      2       2.54595         259.6921
2014    15      3       2.69034         262.6052
2014    15      4       2.786256        265.3246
2014    15      5       2.885026        267.7745
2014    15      6       2.925771        268.2514
2014    15      7       2.813446        265.9672
2014    16      0       2.706566        263.9513
2014    16      1       2.697564        263.7272
2014    16      2       2.804168        265.4244
2014    16      3       3.00618         268.6417
2014    16      4       3.161799        271.7975
2014    16      5       3.376895        274.6335
2014    16      6       3.719981        276.9443
2014    16      7       3.6135          275.9316
2014    17      0       3.36084         273.6444
2014    17      1       3.076628        270.4253
2014    17      2       2.972728        268.9239
2014    17      3       3.082047        270.5704
2014    17      4       3.165287        272.46
2014    17      5       3.204713        273.6292
2014    17      6       3.417676        275.4568
2014    17      7       3.538333        276.1842
2014    18      0       3.79212         277.2222
2014    18      1       3.505689        274.4876
2014    18      2       3.18302         271.0315
2014    18      3       3.237349        271.5631
2014    18      4       3.525448        274.9952
2014    18      5       3.796831        277.2074
2014    18      6       4.027088        277.9936
2014    18      7       3.688256        275.7065
2014    19      0       3.110712        270.05
2014    19      1       2.965648        267.6769
2014    19      2       2.940028        266.7764
2014    19      3       2.780881        264.0444
2014    19      4       2.497431        259.3398
2014    19      5       2.509327        259.752
2014    19      6       2.522679        259.5088
2014    19      7       2.259417        252.6834
2014    20      0       1.949291        242.0543
2014    20      1       1.707699        231.1874
2014    20      2       1.490673        219.1582
2014    20      3       1.442548        216.529
2014    20      4       1.68638         230.7201
2014    20      5       2.059533        247.1495
2014    20      6       2.241624        252.6899
2014    20      7       2.431474        257.429
2014    21      0       2.439171        257.4218
2014    21      1       2.362312        255.5303
2014    21      2       2.352732        255.1451
2014    21      3       2.461607        257.7805
2014    21      4       2.718657        263.5916
2014    21      5       2.841109        265.9453
2014    21      6       2.897299        266.2478
2014    21      7       2.827701        264.6899
2014    22      0       2.700661        262.3777
2014    22      1       2.680099        261.7748
2014    22      2       2.750652        262.7634
2014    22      3       2.830039        264.0384
2014    22      4       2.349335        254.5877
2014    22      5       1.899322        239.7183
2014    22      6       1.530124        220.7566
2014    22      7       1.112648        189.6729
2014    23      0       0.7643665       151.9372
2014    23      1       0.6708312       139.5612
2014    23      2       0.6225504       132.6268
2014    23      3       0.7227228       146.9856
2014    23      4       0.6869937       142.2428
2014    23      5       0.7130584       145.8709
2014    23      6       0.7112633       145.759
2014    23      7       0.6324455       134.4952
2014    24      0       0.6955398       143.1047
2014    24      1       0.8498791       162.7724
2014    24      2       1.126409        191.4143
2014    24      3       1.340405        208.7966
2014    24      4       1.417033        214.5965
2014    24      5       1.480212        219.0267
2014    24      6       1.46655         218.3252
2014    24      7       1.39873         213.9723
2014    25      0       1.347845        210.4483
2014    25      1       1.501615        220.6142
2014    25      2       1.730333        233.0834
2014    25      3       2.145443        249.8588
2014    25      4       2.394209        257.3849
2014    25      5       2.944062        267.8797
2014    25      6       3.44782         273.3149
2014    25      7       3.668719        274.714
2014    26      0       3.551572        273.5528
2014    26      1       3.090267        268.8815
2014    26      2       2.909704        266.0512
2014    26      3       3.416775        271.6912
2014    26      4       3.611437        274.1241
2014    26      5       3.412048        273.0307
2014    26      6       2.669067        263.2065
2014    26      7       2.305127        254.8783
2014    27      0       2.242338        252.6677
2014    27      1       2.204468        250.8107
2014    27      2       1.877657        239.2861
2014    27      3       1.563351        224.3866
2014    27      4       1.660002        229.3762
2014    27      5       1.625513        227.559
2014    27      6       1.5323          221.7215
2014    27      7       1.325207        207.8208
2014    28      0       1.26552         203.4549
2014    28      1       1.26687         203.6614
2014    28      2       1.293989        205.9873
2014    28      3       1.252637        202.9938
2014    28      4       1.291189        206.1184
2014    28      5       1.414746        214.8829
2014    28      6       1.430544        215.5615
2014    28      7       1.319494        207.4933
2014    29      0       1.199069        198.3111
2014    29      1       1.143124        194.0102
2014    29      2       1.176626        197.0401
2014    29      3       1.172116        196.3323
2014    29      4       1.281238        205.0169
2014    29      5       1.44342         216.1891
2014    29      6       1.48225         218.3343
2014    29      7       1.461353        216.8497
2014    30      0       1.419525        214.2326
2014    30      1       1.351257        209.8566
2014    30      2       1.390296        212.403
2014    30      3       1.500071        219.3259
2014    30      4       1.648723        228.2305
2014    30      5       1.809052        236.4975
2014    30      6       1.814392        236.8552
2014    30      7       1.759671        234.0092
2015    1       0       3.812724        277.5777
2015    1       1       3.786296        277.0013
2015    1       2       3.353426        272.8316
2015    1       3       3.828257        276.9509
2015    1       4       4.283814        280.197
2015    1       5       4.523387        281.068
2015    1       6       4.405798        280.1497
2015    1       7       4.21701         279.0264
2015    2       0       4.129405        278.4738
2015    2       1       4.021827        277.7967
2015    2       2       3.961557        277.0831
2015    2       3       4.218704        278.5443
2015    2       4       4.252281        279.4608
2015    2       5       4.413759        280.3892
2015    2       6       4.484732        280.55
2015    2       7       4.16539         279.2402
2015    3       0       3.981002        278.1385
2015    3       1       3.925451        277.6092
2015    3       2       3.849444        277.0274
2015    3       3       4.261646        279.5813
2015    3       4       4.655641        281.709
2015    3       5       4.82774         282.4101
2015    3       6       4.723885        281.7813
2015    3       7       4.244146        280.0931
2015    4       0       3.951711        278.5812
2015    4       1       3.654012        276.4363
2015    4       2       3.370854        273.7511
2015    4       3       3.495069        274.8034
2015    4       4       3.556868        276.2383
2015    4       5       3.581797        276.6689
2015    4       6       3.67389         276.6512
2015    4       7       3.404476        274.2871
2015    5       0       3.236104        272.3402
2015    5       1       3.050315        269.7082
2015    5       2       2.930043        267.9823
2015    5       3       2.65238         263.4664
2015    5       4       3.045166        270.5595
2015    5       5       3.571416        276.2572
2015    5       6       3.704395        277.0014
2015    5       7       3.620222        276.4171
2015    6       0       3.671843        276.589
2015    6       1       3.610721        275.9022
2015    6       2       3.410531        273.7345
2015    6       3       3.446145        274.3273
2015    6       4       3.962693        278.5579
2015    6       5       4.27095         279.9166
2015    6       6       4.068689        278.4006
2015    6       7       3.920483        277.3428
2015    7       0       4.065233        277.6205
2015    7       1       5.237483        281.8126
2015    7       2       4.530276        278.8113
2015    7       3       4.553916        278.5945
2015    7       4       4.836281        281.2061
2015    7       5       5.025816        282.1817
2015    7       6       4.931606        281.6272
2015    7       7       4.682659        280.9431
2015    8       0       4.949651        281.3908
2015    8       1       4.858927        280.7897
2015    8       2       4.537094        279.5208
2015    8       3       4.987181        280.497
2015    8       4       5.415398        281.9938
2015    8       5       5.41647         281.924
2015    8       6       5.209385        281.3881
2015    8       7       5.268771        281.3849
2015    9       0       5.49482         281.1935
2015    9       1       5.393098        280.7768
2015    9       2       5.239603        280.3921
2015    9       3       5.366838        280.4993
2015    9       4       5.30148         281.5352
2015    9       5       5.118353        281.7281
2015    9       6       4.872935        281.424
2015    9       7       4.67141         281.2122
2015    10      0       5.084073        281.6022
2015    10      1       5.443609        281.3192
2015    10      2       5.481196        280.8564
2015    10      3       5.753742        281.3107
2015    10      4       5.667517        281.9654
2015    10      5       5.141069        281.434
2015    10      6       4.178827        278.1343
2015    10      7       3.075508        269.0093
2015    11      0       2.23742         252.2733
2015    11      1       1.857783        238.4359
2015    11      2       1.809203        235.9135
2015    11      3       1.852932        238.3821
2015    11      4       1.856805        238.8599
2015    11      5       1.962311        243.665
2015    11      6       1.912886        241.8048
2015    11      7       1.880084        240.2448
2015    12      0       1.840188        238.5061
2015    12      1       1.847345        238.9519
2015    12      2       1.857616        239.0121
2015    12      3       1.74564         234.3605
2015    12      4       1.744016        234.1779
2015    12      5       1.790988        236.5093
2015    12      6       1.753017        234.6293
2015    12      7       1.586849        225.9107
2015    13      0       1.434031        216.5857
2015    13      1       1.329611        209.3437
2015    13      2       1.305537        207.5278
2015    13      3       1.433107        216.5907
2015    13      4       1.52996         222.8885
2015    13      5       1.730219        233.8408
2015    13      6       1.905777        241.7106
2015    13      7       1.966197        244.2321
2015    14      0       2.003325        245.5581
2015    14      1       2.002077        245.3354
2015    14      2       1.862184        239.5398
2015    14      3       1.902728        241.1649
2015    14      4       2.156921        250.5893
2015    14      5       2.296892        254.9074
2015    14      6       2.101004        248.562
2015    14      7       1.953585        242.8791
2015    15      0       1.798694        236.2045
2015    15      1       1.660187        229.3457
2015    15      2       1.555448        223.7936
2015    15      3       1.594182        226.1396
2015    15      4       1.716721        233.0776
2015    15      5       1.850147        239.3404
2015    15      6       1.694898        231.7542
2015    15      7       1.547817        223.3695
2015    16      0       1.367073        211.4767
2015    16      1       1.167009        195.5945
2015    16      2       1.267368        202.6939
2015    16      3       1.460034        216.2739
2015    16      4       1.607075        225.912
2015    16      5       1.567682        223.9733
2015    16      6       1.203283        198.6315
2015    16      7       0.9199528       171.0726
2015    17      0       0.8189153       158.4252
2015    17      1       0.7507628       149.1454
2015    17      2       0.7327309       146.1743
2015    17      3       0.919497        169.566
2015    17      4       1.10359         188.6993
2015    17      5       1.173972        195.0246
2015    17      6       1.070322        185.7951
2015    17      7       1.080534        186.8779
2015    18      0       0.9133737       169.7981
2015    18      1       0.7189768       145.9779
2015    18      2       0.6004877       129.0296
2015    18      3       0.7289633       147.6663
2015    18      4       0.8271697       160.3392
2015    18      5       0.750663        150.6896
2015    18      6       0.6149856       131.5887
2015    18      7       0.5658268       124.0219
2015    19      0       0.5051425       114.1386
2015    19      1       0.4549311       105.5832
2015    19      2       0.413802        98.46766
2015    19      3       0.4644713       107.7936
2015    19      4       0.5588128       123.2932
2015    19      5       0.6050626       130.5644
2015    19      6       0.574867        126.0402
2015    19      7       0.5779874       126.072
2015    20      0       0.5964081       128.5525
2015    20      1       0.5768455       125.6825
2015    20      2       0.5001165       113.542
2015    20      3       0.5151426       116.2743
2015    20      4       0.5807694       126.9676
2015    20      5       0.5952338       129.2687
2015    20      6       0.5563459       123.2975
2015    20      7       0.5528368       122.9056
2015    21      0       0.600497        130.1558
2015    21      1       0.6625797       139.367
2015    21      2       0.7613773       153.1754
2015    21      3       0.894799        169.5967
2015    21      4       1.247051        203.2014
2015    21      5       1.522987        222.9481
2015    21      6       1.504076        221.9317
2015    21      7       1.446707        218.7326
2015    22      0       1.510083        222.6951
2015    22      1       1.653371        230.6603
2015    22      2       1.795328        238.0202
2015    22      3       1.790971        238.1798
2015    22      4       1.767593        237.5732
2015    22      5       1.788613        238.494
2015    22      6       1.722227        234.6489
2015    22      7       1.56157         225.7947
2015    23      0       1.511294        222.6574
2015    23      1       1.478918        220.4822
2015    23      2       1.517734        222.8556
2015    23      3       1.599769        227.3197
2015    23      4       1.819848        238.7084
2015    23      5       2.018735        247.1139
2015    23      6       2.241336        253.6336
2015    23      7       2.269062        253.6436
2015    24      0       2.255375        253.4896
2015    24      1       2.389389        257.5374
2015    24      2       2.742597        264.7747
2015    24      3       3.057563        269.3869
2015    24      4       3.018013        269.6524
2015    24      5       3.107913        271.08
2015    24      6       3.911141        279.704
2015    24      7       3.922758        279.219
2015    25      0       2.932639        267.7305
2015    25      1       2.867607        266.5137
2015    25      2       2.807455        265.1849
2015    25      3       2.706233        263.2751
2015    25      4       2.768131        265.2943
2015    25      5       2.858318        267.2767
2015    25      6       2.896335        267.1489
2015    25      7       2.715289        263.6671
2015    26      0       2.633355        261.8329
2015    26      1       4.666867        282.3099
2015    26      2       2.408027        256.5586
2015    26      3       2.432002        256.9071
2015    26      4       2.455756        258.4091
2015    26      5       2.898009        268.4109
2015    26      6       2.35846         255.316
2015    26      7       2.17823         249.9696
2015    27      0       2.037362        245.3346
2015    27      1       1.980593        242.908
2015    27      2       1.908636        239.8947
2015    27      3       1.841828        237.2149
2015    27      4       2.00827         244.5122
2015    27      5       2.183336        250.6113
2015    27      6       2.167873        249.9849
2015    27      7       2.095934        247.8435
2015    28      0       2.110871        248.3
2015    28      1       2.148211        249.1496
2015    28      2       2.073758        246.6335
2015    28      3       2.009092        244.3406
2015    28      4       2.026548        245.886
2015    28      5       2.237289        252.9272
2015    28      6       2.125705        249.0655
2015    28      7       1.974111        243.5324
2015    29      0       1.793643        235.9896
2015    29      1       1.685131        230.5314
2015    29      2       1.630013        227.3844
2015    29      3       1.643061        228.0319
2015    29      4       1.667927        230.0616
2015    29      5       1.627565        228.1287
2015    29      6       1.5578          223.9788
2015    29      7       1.476701        219.2265
2015    30      0       1.403213        213.9115
2015    30      1       1.379991        211.8833
2015    30      2       1.467991        217.0945
2015    30      3       1.548037        221.6199
2015    30      4       1.616945        226.46
2015    30      5       1.686323        230.612
2015    30      6       1.816597        236.7289
2015    30      7       1.984043        243.5035
2016    1       0       1.535681        224.5443
2016    1       1       1.508654        222.3099
2016    1       2       1.783473        236.9528
2016    1       3       2.205035        253.5234
2016    1       4       2.016793        248.1007
2016    1       5       1.661068        231.7933
2016    1       6       1.519502        223.5661
2016    1       7       1.519071        223.8995
2016    2       0       1.301195        208.5475
2016    2       1       1.248848        204.1772
2016    2       2       1.279771        206.5429
2016    2       3       1.222589        202.3575
2016    2       4       1.165165        197.2938
2016    2       5       1.165168        197.1708
2016    2       6       1.207777        200.6296
2016    2       7       1.584329        226.04
2016    3       0       2.171907        250.9703
2016    3       1       2.524374        260.5921
2016    3       2       2.876268        267.3827
2016    3       3       3.201259        272.6601
2016    3       4       3.908559        280.6701
2016    3       5       5.536918        287.4957
2016    3       6       5.09623         284.3803
2016    3       7       4.640736        283.446
2016    4       0       4.475094        282.76
2016    4       1       4.49894         282.5757
2016    4       2       4.650883        282.8144
2016    4       3       4.671455        282.6363
2016    4       4       4.346568        282.926
2016    4       5       4.957106        286.4768
2016    4       6       4.837795        285.3743
2016    4       7       4.155432        281.5495
2016    5       0       4.111913        280.6925
2016    5       1       3.714717        278.1416
2016    5       2       3.16752         273.1657
2016    5       3       3.091098        272.5786
2016    5       4       3.369496        276.6157
2016    5       5       3.517164        278.0271
2016    5       6       3.337684        275.5727
2016    5       7       3.220951        273.6886
2016    6       0       3.218227        274.1278
2016    6       1       3.127809        273.3673
2016    6       2       2.907567        269.9514
2016    6       3       2.772336        268.0868
2016    6       4       2.849597        270.2822
2016    6       5       3.251299        275.7748
2016    6       6       3.900203        281.1396
2016    6       7       3.940624        280.7699
2016    7       0       3.484293        276.0855
2016    7       1       3.259281        273.443
2016    7       2       2.928347        269.3108
2016    7       3       2.931558        269.6381
2016    7       4       3.137073        273.1393
2016    7       5       3.456945        276.7658
2016    7       6       3.677396        277.741
2016    7       7       4.341564        282.1818
2016    8       0       3.365887        274.2002
2016    8       1       2.950011        269.0217
2016    8       2       2.680076        264.7276
2016    8       3       2.769369        266.6998
2016    8       4       2.974853        270.659
2016    8       5       2.981139        270.8053
2016    8       6       2.406902        259.0888
2016    8       7       1.859823        240.7137
2016    9       0       1.658985        230.7232
2016    9       1       1.391416        214.4543
2016    9       2       1.213846        201.2526
2016    9       3       1.267425        205.4853
2016    9       4       1.277796        206.6529
2016    9       5       1.305091        208.8402
2016    9       6       1.239058        203.5754
2016    9       7       1.218896        201.7443
2016    10      0       1.277838        206.365
2016    10      1       1.35648         212.5609
2016    10      2       1.598837        228.5103
2016    10      3       1.984756        246.9039
2016    10      4       2.189758        254.2726
2016    10      5       2.393734        260.4304
2016    10      6       2.369177        259.3646
2016    10      7       2.138002        251.8267
2016    11      0       2.065545        249.0578
2016    11      1       2.027094        247.416
2016    11      2       1.829826        239.3027
2016    11      3       1.920251        243.189
2016    11      4       2.013253        247.2308
2016    11      5       2.194018        253.7453
2016    11      6       2.275437        255.9625
2016    11      7       2.03065         247.6996
2016    12      0       1.761068        235.8374
2016    12      1       1.629666        228.7243
2016    12      2       1.44112         217.7504
2016    12      3       1.40752         215.8743
2016    12      4       1.49834         221.6686
2016    12      5       1.688495        232.4521
2016    12      6       1.796652        237.4984
2016    12      7       3.085642        273.0452
2016    13      0       1.529246        222.9138
2016    13      1       1.496553        220.7541
2016    13      2       1.463123        218.6385
2016    13      3       1.534058        223.2843
2016    13      4       1.582013        226.628
2016    13      5       1.792493        237.7427
2016    13      6       1.971177        245.0371
2016    13      7       1.996109        245.7153
2016    14      0       1.876173        240.9319
2016    14      1       1.842283        239.2445
2016    14      2       1.774727        235.9835
2016    14      3       1.613958        228.0991
2016    14      4       1.542776        224.5082
2016    14      5       1.567781        226.0282
2016    14      6       1.589206        227.0682
2016    14      7       1.710333        233.7507
2016    15      0       1.747035        235.5161
2016    15      1       1.690329        232.32
2016    15      2       1.58813         226.533
2016    15      3       1.446432        218.1487
2016    15      4       1.380827        214.1048
2016    15      5       1.431034        217.4363
2016    15      6       1.428861        216.998
2016    15      7       1.496379        221.3054
2016    16      0       1.573209        225.7088
2016    16      1       1.594415        226.5872
2016    16      2       1.569681        225.0697
2016    16      3       1.495071        220.7906
2016    16      4       1.527389        222.7402
2016    16      5       1.67115         230.8112
2016    16      6       1.77464         235.6483
2016    16      7       2.182317        251.8739
2016    17      0       1.971505        243.5262
2016    17      1       2.077099        247.1655
2016    17      2       2.164745        250.2092
2016    17      3       2.308792        254.9159
2016    17      4       2.775722        266.2389
2016    17      5       3.607445        277.6179
2016    17      6       4.075304        280.362
2016    17      7       4.103542        280.4317
2016    18      0       3.325154        273.5475
2016    18      1       3.282092        272.9688
2016    18      2       3.313787        273.0062
2016    18      3       3.368157        273.5696
2016    18      4       3.315818        274.0341
2016    18      5       3.613425        277.7038
2016    18      6       3.489582        275.6463
2016    18      7       3.390209        274.6108
2016    19      0       3.419087        274.352
2016    19      1       3.528205        274.9586
2016    19      2       3.462096        274.2533
2016    19      3       3.436355        274.5113
2016    19      4       3.457799        276.3136
2016    19      5       3.535688        277.9874
2016    19      6       3.753294        278.6999
2016    19      7       3.815168        278.5221
2016    20      0       3.545183        276.223
2016    20      1       3.245739        273.158
2016    20      2       3.347406        274.132
2016    20      3       3.634273        277.1092
2016    20      4       3.859083        279.4924
2016    20      5       3.951001        279.9294
2016    20      6       3.807767        278.7329
2016    20      7       4.725586        280.686
2016    21      0       3.854549        277.0869
2016    21      1       2.817543        266.6328
2016    21      2       2.365926        256.4555
2016    21      3       1.604638        227.9653
2016    21      4       1.554481        225.1515
2016    21      5       1.495276        221.6872
2016    21      6       1.395093        214.4342
2016    21      7       1.173754        197.5367
2016    22      0       1.135863        193.9798
2016    22      1       1.404575        215.3671
2016    22      2       1.515996        221.2663
2016    22      3       1.537459        223.1828
2016    22      4       1.507795        222.3069
2016    22      5       1.345835        211.1591
2016    22      6       1.138021        194.2183
2016    22      7       1.067403        188.4173
2016    23      0       1.045167        186.218
2016    23      1       1.050676        186.9291
2016    23      2       1.167908        197.783
2016    23      3       1.131038        194.7661
2016    23      4       1.191036        199.9966
2016    23      5       1.202606        201.0621
2016    23      6       1.213965        201.9163
2016    23      7       1.357639        212.6479
2016    24      0       1.459897        219.3735
2016    24      1       1.525135        223.3639
2016    24      2       1.684858        231.9957
2016    24      3       1.973711        245.5256
2016    24      4       2.324656        258.266
2016    24      5       2.5869          265.0853
2016    24      6       2.915586        270.4539
2016    24      7       3.216073        274.0774
2016    25      0       3.543586        276.697
2016    25      1       3.607904        277.2152
2016    25      2       3.626954        277.3151
2016    25      3       3.692577        277.6771
2016    25      4       3.794686        279.1867
2016    25      5       4.955057        285.6485
2016    25      6       4.067709        280.1128
2016    25      7       3.91598         279.0434
2016    26      0       3.806791        278.1498
2016    26      1       3.670598        276.7793
2016    26      2       3.471315        274.9348
2016    26      3       4.364057        281.2387
2016    26      4       3.098954        271.6001
2016    26      5       3.780168        279.2744
2016    26      6       4.279852        281.4109
2016    26      7       3.468087        274.9937
2016    27      0       3.196443        272.0227
2016    27      1       3.049303        269.6709
2016    27      2       2.886125        266.6004
2016    27      3       2.708263        263.3516
2016    27      4       2.681606        263.6552
2016    27      5       3.064448        270.4799
2016    27      6       3.138063        270.8675
2016    27      7       2.715126        263.6823
2016    28      0       2.705359        263.3087
2016    28      1       2.675109        262.7519
2016    28      2       2.683038        262.8227
2016    28      3       2.742511        264.0391
2016    28      4       2.926053        267.8032
2016    28      5       3.406633        274.4981
2016    28      6       4.038082        278.8739
2016    28      7       3.63562         274.7995
2016    29      0       3.746832        275.2533
2016    29      1       3.580223        273.7675
2016    29      2       3.131802        269.2162
2016    29      3       3.096808        268.9593
2016    29      4       3.271279        271.5143
2016    29      5       4.138825        279.752
2016    29      6       2.271136        251.602
2016    29      7       1.604235        224.7418
2016    30      0       1.097294        188.839
2016    30      1       0.8227344       160.2111
2016    30      2       0.8359219       160.5809
2016    30      3       0.8559549       162.8162
2016    30      4       0.8209297       158.8338
2016    30      5       0.8031907       157.4398
2016    30      6       0.8386313       162.1693
2016    30      7       0.8925364       168.6793
2017    1       0       1.315093        209.1513
2017    1       1       1.311983        209.0197
2017    1       2       1.372029        213.6302
2017    1       3       1.39492         215.3707
2017    1       4       1.510142        222.8053
2017    1       5       1.595693        228.2291
2017    1       6       1.712643        233.8313
2017    1       7       1.683778        232.6518
2017    2       0       1.544531        225.5137
2017    2       1       1.546745        225.588
2017    2       2       1.641375        230.568
2017    2       3       1.676286        232.6502
2017    2       4       1.869463        241.5292
2017    2       5       2.10461         250.8428
2017    2       6       2.664151        266.7339
2017    2       7       2.121996        250.9028
2017    3       0       4.23248         284.0816
2017    3       1       1.760248        235.6161
2017    3       2       1.635372        229.284
2017    3       3       1.685091        232.9658
2017    3       4       1.977131        246.4627
2017    3       5       2.200248        254.1736
2017    3       6       2.125505        251.0407
2017    3       7       1.946048        243.8655
2017    4       0       1.831248        239.0305
2017    4       1       1.871384        240.8661
2017    4       2       1.844195        239.691
2017    4       3       1.914766        243.2723
2017    4       4       1.83197         240.2309
2017    4       5       1.758155        236.4394
2017    4       6       1.659944        230.7058
2017    4       7       1.524803        222.9593
2017    5       0       1.515691        222.3976
2017    5       1       1.604932        227.3545
2017    5       2       1.609872        227.5952
2017    5       3       1.576632        226.4423
2017    5       4       1.716223        234.2798
2017    5       5       1.860403        241.1662
2017    5       6       2.063251        248.7039
2017    5       7       2.311539        256.4466
2017    6       0       2.606274        263.7817
2017    6       1       2.568076        262.4088
2017    6       2       2.616522        263.0937
2017    6       3       2.575996        262.5942
2017    6       4       2.203334        253.741
2017    6       5       2.003639        246.6204
2017    6       6       1.898177        241.3943
2017    6       7       1.738119        233.2208
2017    7       0       1.943175        242.8518
2017    7       1       2.086289        248.3836
2017    7       2       2.070612        248.0782
2017    7       3       2.100944        249.2316
2017    7       4       2.179304        252.3682
2017    7       5       2.253691        255.1891
2017    7       6       2.295486        255.8411
2017    7       7       2.274132        254.7309
2017    8       0       2.320176        255.5962
2017    8       1       2.552115        261.4149
2017    8       2       3.139818        271.4586
2017    8       3       3.582972        275.6469
2017    8       4       4.131442        279.7702
2017    8       5       4.562176        281.7432
2017    8       6       4.961938        282.2462
2017    8       7       5.059023        282.0099
2017    9       0       4.975579        281.5343
2017    9       1       4.801048        280.9161
2017    9       2       5.549753        281.586
2017    9       3       5.826082        281.9514
2017    9       4       5.634527        283.1721
2017    9       5       5.80186         283.8563
2017    9       6       6.284724        283.408
2017    9       7       5.520138        282.2812
2017    10      0       4.937318        281.8193
2017    10      1       4.90116         281.5853
2017    10      2       4.897942        281.1032
2017    10      3       4.665845        280.7239
2017    10      4       5.017485        282.249
2017    10      5       4.807074        281.4861
2017    10      6       4.481182        280.1013
2017    10      7       3.848902        276.9446
2017    11      0       2.906647        267.8469
2017    11      1       2.516497        260.5147
2017    11      2       2.247222        253.5527
2017    11      3       2.195242        251.8659
2017    11      4       2.466841        260.1922
2017    11      5       2.90867         268.7086
2017    11      6       3.320486        273.1081
2017    11      7       3.026263        269.4967
2017    12      0       2.915454        267.8656
2017    12      1       3.422106        273.7416
2017    12      2       3.671816        275.4812
2017    12      3       3.460854        274.3435
2017    12      4       4.04174         278.6185
2017    12      5       4.795015        281.0296
2017    12      6       4.200196        278.9334
2017    12      7       3.559932        274.9872
2017    13      0       2.907634        267.4373
2017    13      1       2.492772        259.5733
2017    13      2       2.22625         252.4614
2017    13      3       2.049572        246.9085
2017    13      4       1.854536        239.3835
2017    13      5       1.841111        238.6922
2017    13      6       1.634209        228.9401
2017    13      7       1.444606        217.5466
2017    14      0       1.105628        190.143
2017    14      1       1.220303        199.7494
2017    14      2       1.280294        204.5234
2017    14      3       1.335619        208.8191
2017    14      4       1.503271        219.9439
2017    14      5       1.562629        223.752
2017    14      6       1.557639        223.432
2017    14      7       1.617483        226.4355
2017    15      0       1.631363        226.6037
2017    15      1       1.655128        227.8174
2017    15      2       1.753459        233.0255
2017    15      3       1.978569        243.4254
2017    15      4       2.268726        253.8328
2017    15      5       2.718255        264.5208
2017    15      6       2.981279        268.4523
2017    15      7       3.195339        270.8925
2017    16      0       3.015253        268.6473
2017    16      1       2.916314        267.1013
2017    16      2       2.794521        264.8876
2017    16      3       2.98341         267.69
2017    16      4       3.266543        271.9619
2017    16      5       3.632402        275.7608
2017    16      6       3.968271        277.4488
2017    16      7       4.046644        277.4047
2017    17      0       4.258089        277.9261
2017    17      1       4.319433        277.6324
2017    17      2       4.104682        276.6289
2017    17      3       3.959964        276.1225
2017    17      4       4.110932        277.9584
2017    17      5       4.306873        279.1494
2017    17      6       4.432192        279.4381
2017    17      7       4.31122         278.5509
2017    18      0       3.560241        274.3195
2017    18      1       3.003356        268.0781
2017    18      2       2.662777        262.37
2017    18      3       2.515105        259.1605
2017    18      4       2.601021        261.6588
2017    18      5       2.846162        266.54
2017    18      6       3.227787        271.3562
2017    18      7       3.396461        272.7133
2017    19      0       3.37348         272.3554
2017    19      1       3.333099        271.79
2017    19      2       3.23333         270.8522
2017    19      3       3.697435        274.9511
2017    19      4       4.242458        278.3253
2017    19      5       4.218231        278.1865
2017    19      6       3.457727        273.4319
2017    19      7       3.619302        273.8725
2017    20      0       3.258811        270.2085
2017    20      1       2.797906        263.2601
2017    20      2       2.578461        258.7518
2017    20      3       2.897303        264.9014
2017    20      4       3.404129        271.3654
2017    20      5       3.769641        274.3038
2017    20      6       3.376982        271.144
2017    20      7       3.430868        271.3603
2017    21      0       3.986451        274.1999
2017    21      1       4.050862        274.317
2017    21      2       4.022818        273.339
2017    21      3       2.846071        264.0433
2017    21      4       3.336502        270.5788
2017    21      5       3.73409         273.5895
2017    21      6       3.214647        269.2563
2017    21      7       2.888133        264.7693
2017    22      0       2.689646        261.0795
2017    22      1       2.53202         257.3036
2017    22      2       2.288794        251.481
2017    22      3       2.544745        258.116
2017    22      4       3.755501        273.2866
2017    22      5       3.995533        274.4061
2017    22      6       4.403337        275.7988
2017    22      7       3.437051        270.1284
2017    23      0       3.321015        269.4962
2017    23      1       2.938913        264.932
2017    23      2       3.023802        266.2124
2017    23      3       3.052055        267.3518
2017    23      4       3.977599        275.8429
2017    23      5       4.52724         277.9317
2017    23      6       4.451015        277.2148
2017    23      7       3.721387        273.2458
2017    24      0       3.136981        267.9081
2017    24      1       2.705192        261.0992
2017    24      2       2.343119        253.3202
2017    24      3       2.374381        254.7754
2017    24      4       2.654986        261.6444
2017    24      5       2.966464        267.1635
2017    24      6       3.194557        269.5177
2017    24      7       3.005122        266.5502
2017    25      0       2.797303        263.1659
2017    25      1       2.516239        258.1298
2017    25      2       2.421406        256.2402
2017    25      3       2.42853         256.7202
2017    25      4       2.420431        257.3578
2017    25      5       2.649238        263.0818
2017    25      6       2.798173        265.4682
2017    25      7       2.614915        261.9387
2017    26      0       2.445297        258.2046
2017    26      1       2.325049        255.1183
2017    26      2       2.401065        256.6167
2017    26      3       2.421546        257.4143
2017    26      4       2.544832        260.7607
2017    26      5       2.625612        262.8758
2017    26      6       2.517588        259.8873
2017    26      7       2.181623        251.102
2017    27      0       2.160361        250.3123
2017    27      1       2.17908         250.839
2017    27      2       1.987218        244.3446
2017    27      3       1.999201        244.7288
2017    27      4       2.134862        249.7004
2017    27      5       2.176142        251.3309
2017    27      6       2.122279        249.3067
2017    27      7       1.797842        237.374
2017    28      0       1.71856         233.8508
2017    28      1       1.755435        235.4603
2017    28      2       1.893121        241.0336
2017    28      3       2.004672        245.445
2017    28      4       1.826213        239.1326
2017    28      5       1.969106        244.6318
2017    28      6       1.814961        238.875
2017    28      7       1.842342        240.3887
2017    29      0       1.977814        245.3752
2017    29      1       2.08933         248.4134
2017    29      2       2.039956        246.2444
2017    29      3       2.143753        250.1881
2017    29      4       2.063889        248.6253
2017    29      5       2.401261        257.9033
2017    29      6       2.108562        250.4162
2017    29      7       2.27808         254.8992
2017    30      0       2.375033        256.8679
2017    30      1       2.453267        257.985
2017    30      2       2.521552        258.4382
2017    30      3       2.429494        256.111
2017    30      4       2.245612        252.6543
2017    30      5       2.271636        253.4857
2017    30      6       2.182892        250.6411
2017    30      7       2.130945        248.7849
2018    1       0       4.38724         283.8896
2018    1       1       4.313962        282.8304
2018    1       2       3.986269        280.5998
2018    1       3       3.40537         277.0409
2018    1       4       3.985811        282.1213
2018    1       5       5.37933         286.4514
2018    1       6       6.132893        286.5126
2018    1       7       5.91538         285.8949
2018    2       0       5.484562        284.9476
2018    2       1       5.078824        283.5308
2018    2       2       4.902255        282.3344
2018    2       3       4.364561        281.141
2018    2       4       3.874025        279.2594
2018    2       5       4.512117        282.2442
2018    2       6       5.094658        282.7761
2018    2       7       5.174527        281.7262
2018    3       0       5.041507        281.8576
2018    3       1       4.48415         280.5773
2018    3       2       3.590296        274.6083
2018    3       3       3.431336        273.413
2018    3       4       3.183854        271.0435
2018    3       5       3.024658        269.3631
2018    3       6       3.101682        270.577
2018    3       7       3.33044         273.2451
2018    4       0       3.30733         272.7314
2018    4       1       3.175482        271.2091
2018    4       2       3.104677        270.1659
2018    4       3       3.088022        270.1633
2018    4       4       3.295224        273.7942
2018    4       5       3.095449        272.2856
2018    4       6       3.146069        272.5815
2018    4       7       3.135655        272.1462
2018    5       0       3.065518        270.8748
2018    5       1       2.918784        268.4493
2018    5       2       2.644903        263.8595
2018    5       3       2.49202         261.1994
2018    5       4       2.679467        266.3343
2018    5       5       3.039702        272.5143
2018    5       6       3.218468        274.2006
2018    5       7       3.176262        273.2382
2018    6       0       2.932706        269.833
2018    6       1       2.625689        264.426
2018    6       2       2.340379        257.7787
2018    6       3       2.434272        259.8314
2018    6       4       2.524679        263.2138
2018    6       5       2.747822        267.9733
2018    6       6       2.957256        270.8659
2018    6       7       3.732128        279.6754
2018    7       0       4.224538        282.3787
2018    7       1       4.596827        283.7348
2018    7       2       2.81162         266.6537
2018    7       3       3.110839        271.3766
2018    7       4       3.297842        275.1832
2018    7       5       3.736121        279.5468
2018    7       6       4.292244        281.5345
2018    7       7       3.917148        279.497
2018    8       0       3.753012        278.38
2018    8       1       4.309357        281.153
2018    8       2       4.34457         281.1245
2018    8       3       4.555041        282.2286
2018    8       4       5.562314        285.0076
2018    8       5       5.98683         285.2921
2018    8       6       5.389901        283.9494
2018    8       7       5.058956        282.9425
2018    9       0       4.726959        281.867
2018    9       1       4.635927        280.9913
2018    9       2       4.500384        281.1234
2018    9       3       4.523285        282.3465
2018    9       4       5.004357        284.6623
2018    9       5       5.354756        285.6996
2018    9       6       5.472784        285.4089
2018    9       7       5.50293         284.5339
2018    10      0       5.522561        283.44
2018    10      1       4.924662        282.2045
2018    10      2       4.489232        281.4539
2018    10      3       4.370365        281.9387
2018    10      4       4.75337         284.2704
2018    10      5       5.043864        285.0784
2018    10      6       5.280636        284.7107
2018    10      7       4.920672        283.4447
2018    11      0       4.521661        282.1658
2018    11      1       4.265042        280.8948
2018    11      2       4.084361        279.8082
2018    11      3       4.269511        281.3893
2018    11      4       4.723755        283.7139
2018    11      5       5.02314         284.5344
2018    11      6       5.223962        284.3127
2018    11      7       4.545972        282.3506
2018    12      0       4.148984        280.8434
2018    12      1       4.151156        280.4123
2018    12      2       3.999105        279.0126
2018    12      3       4.182432        280.1071
2018    12      4       4.455091        281.7638
2018    12      5       5.115827        283.357
2018    12      6       5.357107        283.0248
2018    12      7       4.892525        281.8416
2018    13      0       4.947832        281.5269
2018    13      1       5.167192        281.2071
2018    13      2       5.038626        280.8801
2018    13      3       5.687377        281.8566
2018    13      4       5.465049        282.1194
2018    13      5       5.055472        281.9488
2018    13      6       4.466536        280.3194
2018    13      7       4.032103        278.5644
2018    14      0       3.912321        277.9061
2018    14      1       4.057696        278.9625
2018    14      2       3.868354        277.9488
2018    14      3       3.889951        278.5619
2018    14      4       4.598961        282.5146
2018    14      5       5.192098        284.3343
2018    14      6       5.0658          283.6707
2018    14      7       4.572121        282.0822
2018    15      0       4.274721        280.5385
2018    15      1       4.30932         280.1327
2018    15      2       4.08293         278.7946
2018    15      3       4.121643        279.2827
2018    15      4       4.26654         280.7677
2018    15      5       4.668444        282.5942
2018    15      6       4.506098        281.6663
2018    15      7       4.34261         280.7492
2018    16      0       4.273791        280.2401
2018    16      1       4.048484        279.0579
2018    16      2       3.832217        277.774
2018    16      3       3.957869        279.1502
2018    16      4       4.753111        283.0277
2018    16      5       5.407749        284.3712
2018    16      6       5.385394        283.5665
2018    16      7       4.609323        281.6733
2018    17      0       4.13722         279.5144
2018    17      1       3.699393        276.617
2018    17      2       3.193           272.0856
2018    17      3       2.621404        263.6285
2018    17      4       2.487758        261.5938
2018    17      5       2.711514        266.4629
2018    17      6       2.822087        268.0629
2018    17      7       2.813655        267.5513
2018    18      0       2.685554        264.8119
2018    18      1       2.638069        263.4283
2018    18      2       2.341997        256.6752
2018    18      3       1.994807        246.482
2018    18      4       2.066133        249.6918
2018    18      5       2.197189        254.2457
2018    18      6       2.212265        254.0998
2018    18      7       1.828413        240.3307
2018    19      0       1.769197        237.6204
2018    19      1       1.821371        239.5039
2018    19      2       1.759642        236.3306
2018    19      3       1.51825         223.3527
2018    19      4       1.614478        228.7049
2018    19      5       1.675821        232.4085
2018    19      6       1.673661        232.732
2018    19      7       1.476102        220.7668
2018    20      0       1.268537        205.5576
2018    20      1       1.25306         204.2268
2018    20      2       1.170071        197.3855
2018    20      3       1.002625        181.6859
2018    20      4       0.8975806       170.7208
2018    20      5       0.8984101       170.7284
2018    20      6       0.8157991       160.8561
2018    20      7       0.736566        150.5392
2018    21      0       0.6268055       135.1938
2018    21      1       0.7016329       146.0651
2018    21      2       0.7848601       157.1125
2018    21      3       0.692818        144.7134
2018    21      4       0.7746771       155.6704
2018    21      5       0.8780602       168.4834
2018    21      6       0.9059882       171.6166
2018    21      7       0.8441849       164.8359
2018    22      0       0.8472791       165.1324
2018    22      1       0.8405407       164.1127
2018    22      2       0.7978848       158.7425
2018    22      3       0.8426267       164.4087
2018    22      4       0.8777057       168.7593
2018    22      5       1.003562        182.3437
2018    22      6       1.108103        192.1453
2018    22      7       1.094967        190.9606
2018    23      0       0.9932803       181.3845
2018    23      1       0.9146532       173.1766
2018    23      2       0.8987842       171.3676
2018    23      3       1.030156        185.413
2018    23      4       1.249965        204.7576
2018    23      5       1.383262        214.7793
2018    23      6       1.437223        218.1677
2018    23      7       1.336964        211.4185
2018    24      0       1.217514        202.3033
2018    24      1       1.219813        202.1673
2018    24      2       1.256198        204.9154
2018    24      3       1.342198        211.2818
2018    24      4       1.595403        227.4399
2018    24      5       1.711625        233.827
2018    24      6       1.711878        233.6058
2018    24      7       1.669103        231.3998
2018    25      0       1.701437        232.717
2018    25      1       1.728124        233.5806
2018    25      2       1.754452        234.6756
2018    25      3       1.779026        236.182
2018    25      4       1.790667        237.5948
2018    25      5       1.853541        240.9749
2018    25      6       1.910401        243.0073
2018    25      7       1.874725        241.3328
2018    26      0       1.870446        240.7196
2018    26      1       1.801052        237.3617
2018    26      2       1.812015        237.3738
2018    26      3       1.838292        238.422
2018    26      4       1.95642         243.956
2018    26      5       2.062027        248.1685
2018    26      6       2.238649        253.213
2018    26      7       2.164767        250.68
2018    27      0       2.004932        245.363
2018    27      1       1.901467        241.1194
2018    27      2       1.875201        239.4878
2018    27      3       1.948033        242.6099
2018    27      4       2.109155        249.4438
2018    27      5       2.330574        256.3877
2018    27      6       2.492416        259.8661
2018    27      7       2.347807        256.1384
2018    28      0       4.489528        282.3043
2018    28      1       2.075888        246.7844
2018    28      2       1.991217        243.4735
2018    28      3       2.088042        246.934
2018    28      4       2.149385        250.0966
2018    28      5       2.342204        255.8881
2018    28      6       2.343772        255.5536
2018    28      7       2.236514        252.3425
2018    29      0       2.132255        248.2708
2018    29      1       2.042763        244.5504
2018    29      2       2.119586        246.9003
2018    29      3       2.284744        252.5951
2018    29      4       2.372388        256.2686
2018    29      5       2.465183        259.165
2018    29      6       2.372306        256.6768
2018    29      7       2.147882        250.1374
2018    30      0       1.991347        244.2828
2018    30      1       1.762609        233.9588
2018    30      2       4.995556        282.9134
2018    30      3       1.79443         235.3548
2018    30      4       2.286205        253.8997
2018    30      5       2.578723        261.4428
2018    30      6       2.610433        261.978
2018    30      7       2.488446        259.4262
