####################################################################################################
# Month: 06Jun                                                                                     #
# Station: WF                                                                                      #
# Frequency: 345 GHz                                                                               #
# Columns are: year    day     tau     Tb (K)                                                      #
####################################################################################################
2009    1       2.829785        256.5158875
2009    2       4.9875485       280.4320125
2009    3       4.74770237      279.07575
2009    4       4.51579875      279.2388125
2009    5       4.27307662      276.994925
2009    6       4.75841788      278.58935
2009    7       4.934866        281.65015
2009    8       4.80284625      278.4625125
2009    9       5.53572338      279.3257
2009    10      6.54124613      281.0205875
2009    11      7.62629888      283.10005
2009    12      9.54549275      286.2383
2009    13      6.16231862      284.8191625
2009    14      7.04427238      282.242675
2009    15      6.65929762      280.3264375
2009    16      4.753442        275.133325
2009    17      2.97757375      266.0237125
2009    18      5.24083         274.06695
2009    19      9.24577113      285.0888875
2009    20      7.29385888      286.6683
2009    21      9.287236        286.0265875
2009    22      8.808669        284.588625
2009    23      8.56613975      285.1258125
2009    24      10.43855        286.57295
2009    25      9.766442        288.5098625
2009    26      11.0008525      291.392325
2009    27      8.634097        288.4428125
2009    28      10.21532725     287.4368125
2009    29      10.26988938     287.4586
2009    30      9.34935087      287.6428125
2010    1       9.81326325      289.559075
2010    2       7.36396038      287.178525
2010    3       8.5244425       289.7914875
2010    4       8.23987213      287.585175
2010    5       10.16746262     290.69825
2010    6       9.573802        289.7819875
2010    7       4.45356         276.860875
2010    8       3.54088988      270.1150375
2010    9       3.72553437      272.0962125
2010    10      6.14569525      277.900425
2010    11      5.14254212      277.9340625
2010    12      7.82431725      284.5287375
2010    13      8.31594088      284.1977625
2010    14      7.30429175      284.8851875
2010    15      4.08837962      275.23215
2010    16      4.136873        273.2841
2010    17      8.50297425      286.75145
2010    18      5.2942805       287.2245875
2010    19      4.94995888      286.9016625
2010    20      9.22599625      291.518575
2010    21      7.336794        289.3159
2010    22      4.20653512      279.7489
2010    23      9.37496812      288.82245
2010    24      10.32995675     293.2160875
2010    25      6.38369488      287.217225
2010    26      6.92985625      288.0297875
2010    27      8.00102337      287.2742625
2010    28      11.826495       293.490125
2010    29      8.82794675      291.449225
2010    30      4.27103012      278.029775
2011    1       8.247011        291.213725
2011    2       5.29399825      281.47555
2011    3       3.83233388      269.95695
2011    4       3.40747612      269.881875
2011    5       3.84404725      273.9277375
2011    6       5.3387695       282.56835
2011    7       6.00963588      286.2783
2011    8       6.60854562      290.6424625
2011    9       8.41670838      294.237025
2011    10      8.437963        289.2910375
2011    11      6.73856412      282.3916
2011    12      7.740576        279.3111
2011    13      6.45630175      280.2814125
2011    14      5.71114938      277.8073125
2011    15      5.29967212      280.1144875
2011    16      6.17542162      287.56255
2011    17      6.3961545       285.7638875
2011    18      8.25971238      287.072825
2011    19      4.76231025      281.393775
2011    20      4.67998737      282.8355125
2011    21      5.03290325      284.323225
2011    22      7.037348        286.5436875
2011    23      10.65366438     285.70735
2011    24      8.96035575      283.011025
2011    25      8.80803325      284.1013875
2011    26      8.4383985       286.7361375
2011    27      7.156005        287.5834
2011    28      7.3181305       289.736025
2011    29      8.03624088      288.8789125
2011    30      5.780797        284.1879
2012    1       4.49159312      277.3998125
2012    2       6.330741        273.9969375
2012    3       8.04283175      282.74055
2012    4       5.55563712      275.2012
2012    5       5.023109        273.340525
2012    6       4.83965038      275.1555875
2012    7       5.56610425      278.6654875
2012    8       5.544229        281.678725
2012    9       5.208053        281.7892
2012    10      3.7887075       277.3317875
2012    11      5.15062587      281.8442625
2012    12      5.53307238      283.1344875
2012    13      9.092968        285.576375
2012    14      5.482253        282.7191375
2012    15      4.02261125      278.0952125
2012    16      4.89154988      281.0219875
2012    17      4.42359388      277.2892375
2012    18      4.23985037      276.386775
2012    19      5.4891425       282.3723625
2012    20      10.5167105      292.7660625
2012    21      9.35698188      295.56155
2012    22      9.36732075      294.926575
2012    23      10.00832237     290.7283
2012    24      5.684614        285.2651375
2012    25      8.05447575      287.4913125
2012    26      7.7875925       284.354375
2012    27      7.1117895       283.74835
2012    28      7.05260875      286.83835
2012    29      8.30429475      292.7444375
2012    30      6.03319375      291.1838375
2013    1       7.48058412      294.253925
2013    2       9.17449512      292.910125
2013    3       9.26225675      289.2486625
2013    4       3.62052562      270.84205
2013    5       3.55904488      271.8560125
2013    6       4.71073712      279.2629625
2013    7       5.69300925      276.5736875
2013    8       8.51152388      284.2555875
2013    9       6.3360715       284.464025
2013    10      5.58044162      283.1280125
2013    11      8.464711        282.64085
2013    12      6.28124238      280.9038875
2013    13      5.0209925       278.3289125
2013    14      6.16069725      280.1769375
2013    15      3.91404925      275.776325
2013    16      5.25073238      282.3878125
2013    17      7.2981955       288.051375
2013    18      7.926069        285.860575
2013    19      4.83074588      278.9480875
2013    20      3.928381        277.7136125
2013    21      5.75774888      285.741525
2013    22      7.2653805       288.664175
2013    23      10.16404725     291.8649625
2013    24      10.99454488     294.56155
2013    25      9.49973712      293.8803375
2013    26      10.65853388     291.3307875
2013    27      10.32665688     288.7921
2013    28      13.00876        290.27115
2013    29      11.4724175      291.9288125
2013    30      8.83370275      291.0591375
2014    1       2.79491812      258.2034375
2014    2       5.36657875      283.8656875
2014    3       6.15202025      288.330925
2014    4       7.202001        283.6389
2014    5       7.41532062      283.817
2014    6       6.23623738      282.6581625
2014    7       5.89584662      284.8224625
2014    8       5.68513088      287.3802875
2014    9       5.81874362      287.1492875
2014    10      7.58531175      286.471075
2014    11      4.36659925      277.7252
2014    12      5.76726225      278.2138
2014    13      9.23586063      284.7493875
2014    14      9.47761338      286.705225
2014    15      5.56818812      282.9002375
2014    16      4.64235312      282.2676
2014    17      7.83569475      289.2132375
2014    18      9.72094975      291.8047
2014    19      6.07855562      286.1054375
2014    20      3.64572212      274.8790625
2014    21      4.024883        275.7808
2014    22      4.31437325      278.2234125
2014    23      4.70940575      282.6114375
2014    24      7.20533612      287.6163
2014    25      9.97921125      291.09845
2014    26      10.67309163     289.5310875
2014    27      5.04921063      281.1945125
2014    28      4.581207        284.096825
2014    29      5.44490912      285.6619
2014    30      8.71957487      291.5858875
2015    1       6.95868225      276.4680375
2015    2       6.16926188      276.775575
2015    3       3.565235        272.01885
2015    4       3.89727712      273.5535625
2015    5       5.90151562      280.7204625
2015    6       6.84292762      281.72695
2015    7       2.77324125      261.5455625
2015    8       5.54346875      278.2287375
2015    9       9.899486        287.967
2015    10      6.3224595       285.081825
2015    11      6.87137925      289.5170625
2015    12      6.83549175      287.4017625
2015    13      7.73248988      288.717125
2015    14      5.25099175      286.0044
2015    15      6.98982762      283.910925
2015    16      9.47299312      285.94315
2015    17      5.09753062      279.8888125
2015    18      5.320971        282.9631375
2015    19      8.15141838      287.1178125
2015    20      4.44502912      277.7427625
2015    21      11.59170025     288.5196875
2015    22      8.413167        288.6618125
2015    23      9.31587775      290.7744375
2015    24      5.4519645       284.8106875
2015    25      5.55268925      283.5828875
2015    26      5.709337        282.253675
2015    27      4.64608888      280.114175
2015    28      7.30714838      281.0853
2015    29      7.01411538      282.3827375
2015    30      7.02474675      285.9689375
2016    1       4.544371        282.7852125
2016    2       3.93986225      276.5554125
2016    3       5.56940262      282.7867875
2016    4       6.72365637      286.5612375
2016    5       7.673405        286.5988125
2016    6       7.668024        286.9795125
2016    7       6.48730725      288.0380125
2016    8       5.178333        280.4679
2016    9       4.09089725      272.1827125
2016    10      4.45517912      273.6337
2016    11      6.07885438      279.5068875
2016    12      6.3841455       283.7291
2016    13      4.90478412      276.6115875
2016    14      4.60010725      277.1208125
2016    15      4.67547225      281.9093625
2016    16      4.53922975      283.7436625
2016    17      3.73221375      276.8340375
2016    18      3.83873612      276.6285375
2016    19      4.24149475      279.5869125
2016    20      5.82412612      290.5200125
2016    21      6.80709012      289.825425
2016    22      4.66955175      281.81505
2016    23      4.93444938      282.163625
2016    24      4.14733225      280.258625
2016    25      4.27026325      281.2256875
2016    26      4.43515012      284.0818875
2016    27      5.75391612      288.2885375
2016    28      8.83452225      287.9672375
2016    29      8.2203435       288.1238375
2016    30      5.82355638      286.853275
2017    1       5.29486238      281.3201375
2017    2       3.47697862      268.178225
2017    3       4.25694838      272.5199625
2017    4       4.73950862      276.696425
2017    5       6.88455588      279.3141875
2017    6       7.2986535       277.1875625
2017    7       4.69629538      274.4774625
2017    8       3.92645238      278.228825
2017    9       3.93085675      267.8281375
2017    10      6.01659525      286.196675
2017    11      8.02518125      292.260175
2017    12      8.37773138      294.9373
2017    13      9.88494712      294.81195
2017    14      4.83083588      281.0145625
2017    15      4.72426875      280.199275
2017    16      6.01369738      280.8046375
2017    17      10.383716       286.7041625
2017    18      11.40163625     290.9510625
2017    19      11.4582825      292.995475
2017    20      9.5783295       290.1497125
2017    21      6.28445325      287.4465
2017    22      5.339411        283.8350625
2017    23      8.66755988      290.8867125
2017    24      11.285252       292.082175
2017    25      4.85599663      283.8440125
2017    26      4.61784         279.7588
2017    27      6.0939785       282.879975
2017    28      5.09382425      279.6116875
2017    29      5.66092275      284.21795
2017    30      10.02632288     290.1541625
2018    1       11.47490588     290.3168375
2018    2       10.50260588     291.5940875
2018    3       3.19408438      269.428775
2018    4       5.26838063      269.1229625
2018    5       5.71853125      277.4667875
2018    6       5.53323313      277.87895
2018    7       5.61575588      281.1979625
2018    8       5.88359762      283.40865
2018    9       3.96951588      276.42375
2018    10      3.12962838      267.4202375
2018    11      3.90193675      274.200575
2018    12      4.39824775      279.5172
2018    13      6.99592175      287.5648
2018    14      7.85089488      286.9210625
2018    15      6.86976138      281.5944875
2018    16      5.2621625       285.4048875
2018    17      5.609438        289.0467875
2018    18      9.72323325      294.2892625
2018    19      9.73818537      291.0520875
2018    20      4.78543188      283.2716125
2018    21      6.47712425      286.85895
2018    22      4.62011038      281.775375
2018    23      4.885456        279.9074625
2018    24      9.69829438      285.9589625
2018    25      7.85633863      283.77345
2018    26      3.53166762      274.0102375
2018    27      5.06633512      283.47555
2018    28      10.56165488     287.9472625
2018    29      8.73460988      290.6361
2018    30      7.7974375       292.7116875
