####################################################################################################
# Month: 03Mar                                                                                     #
# Station: SAN                                                                                     #
# Frequency: 345 GHz                                                                               #
# Columns are: year    day     segment         tau     Tb (K)                                      #
####################################################################################################
2009    1       0       0.4741708       105.0392
2009    1       1       0.4361551       97.88236
2009    1       2       0.4350563       97.39524
2009    1       3       0.390459        90.48046
2009    1       4       0.3430922       81.68319
2009    1       5       0.3623498       85.56291
2009    1       6       0.4697782       104.6846
2009    1       7       0.5718661       120.9161
2009    2       0       0.5461751       116.9603
2009    2       1       0.5021488       109.9531
2009    2       2       0.4056064       93.83622
2009    2       3       0.4516131       101.4195
2009    2       4       0.6809117       135.1476
2009    2       5       0.8095488       151.2833
2009    2       6       0.9826528       169.4921
2009    2       7       1.191748        187.2157
2009    3       0       1.594795        213.1985
2009    3       1       1.211241        187.482
2009    3       2       1.367167        200.18
2009    3       3       1.218535        189.2334
2009    3       4       0.487373        104.9863
2009    3       5       0.2543268       63.43083
2009    3       6       0.2101704       54.01452
2009    3       7       0.1529231       42.07869
2009    4       0       0.129081        36.69837
2009    4       1       0.1210956       35.18882
2009    4       2       0.123005        35.78754
2009    4       3       0.1956014       52.33124
2009    4       4       0.2876631       71.27929
2009    4       5       0.2719198       68.04731
2009    4       6       0.2822161       69.98306
2009    4       7       0.2747189       68.26158
2009    5       0       0.2114318       54.7842
2009    5       1       0.1832826       48.37844
2009    5       2       0.1810583       47.82977
2009    5       3       0.2043737       52.45647
2009    5       4       0.2070142       53.26419
2009    5       5       0.2341416       58.60463
2009    5       6       0.2646807       64.50239
2009    5       7       0.2987142       70.98427
2009    6       0       0.2876459       68.62253
2009    6       1       0.2129378       53.78725
2009    6       2       0.1488684       40.75187
2009    6       3       0.1536879       41.95376
2009    6       4       0.1750923       46.77753
2009    6       5       0.2716816       66.48755
2009    6       6       0.5240275       109.2603
2009    6       7       0.5530244       114.272
2009    7       0       0.4897083       105.2231
2009    7       1       0.2363401       60.29979
2009    7       2       0.2197601       56.9725
2009    7       3       0.2184847       56.82434
2009    7       4       0.2107095       55.19818
2009    7       5       0.2333092       59.92735
2009    7       6       0.2951375       72.01935
2009    7       7       0.4010653       91.40327
2009    8       0       0.4931997       106.9019
2009    8       1       0.5067123       108.8357
2009    8       2       0.512358        109.4333
2009    8       3       0.4900711       106.2263
2009    8       4       0.3970699       91.09347
2009    8       5       0.3403707       81.04842
2009    8       6       0.3077491       74.8386
2009    8       7       0.2938596       72.05212
2009    9       0       0.3002764       73.26263
2009    9       1       0.2626391       65.85443
2009    9       2       0.2266975       58.86083
2009    9       3       0.1750958       47.93468
2009    9       4       0.1523745       42.83446
2009    9       5       0.2353517       60.76461
2009    9       6       0.2659437       67.13091
2009    9       7       0.2223135       58.134
2009    10      0       0.1039149       31.76792
2009    10      1       0.1060636       32.14624
2009    10      2       0.1019837       31.22238
2009    10      3       0.09156742      28.78012
2009    10      4       0.08860631      28.00895
2009    10      5       0.08894468      28.04035
2009    10      6       0.08856918      27.89418
2009    10      7       0.09237442      28.8258
2009    11      0       0.0998637       30.70791
2009    11      1       0.1023196       31.33044
2009    11      2       0.109335        33.02301
2009    11      3       0.1157426       34.40262
2009    11      4       0.1210923       35.36904
2009    11      5       0.1566397       42.61598
2009    11      6       0.1863744       48.87559
2009    11      7       0.2570225       62.93417
2009    12      0       0.2057008       53.30133
2009    12      1       0.1536587       42.64969
2009    12      2       0.160503        44.10176
2009    12      3       0.2134186       54.96417
2009    12      4       0.2642304       65.12841
2009    12      5       0.340884        79.56333
2009    12      6       0.3459468       80.71585
2009    12      7       0.2831206       69.43162
2009    13      0       0.2758318       68.16239
2009    13      1       0.1936367       51.44501
2009    13      2       0.2352408       60.16361
2009    13      3       0.25343         63.87946
2009    13      4       0.223784        57.8769
2009    13      5       0.1991386       52.67539
2009    13      6       0.2026445       53.3398
2009    13      7       0.1803254       48.72493
2009    14      0       0.1951445       51.86606
2009    14      1       0.1662259       45.49831
2009    14      2       0.1833477       49.34018
2009    14      3       0.1568356       43.76015
2009    14      4       0.1539098       43.21881
2009    14      5       0.1497259       42.2465
2009    14      6       0.1188685       34.96731
2009    14      7       0.2357287       60.41047
2009    15      0       0.2116485       54.95251
2009    15      1       0.1563627       42.70126
2009    15      2       0.2503841       61.57567
2009    15      3       0.5111512       107.0531
2009    15      4       0.716904        137.6378
2009    15      5       0.7290211       140.4348
2009    15      6       0.7149111       139.0554
2009    15      7       0.6459641       130.3808
2009    16      0       0.5117755       110.797
2009    16      1       0.3870384       89.67434
2009    16      2       0.418352        95.06684
2009    16      3       0.4838044       105.6696
2009    16      4       0.5413984       114.525
2009    16      5       0.622719        126.1307
2009    16      6       0.6434616       129.4338
2009    16      7       0.6226865       127.0421
2009    17      0       0.5788288       120.9171
2009    17      1       0.5255733       113.0277
2009    17      2       0.5044664       110.1008
2009    17      3       0.466732        104.1875
2009    17      4       0.393524        91.62857
2009    17      5       0.3147722       77.33119
2009    17      6       0.2738411       69.46323
2009    17      7       0.3543254       85.0987
2009    18      0       0.4357442       99.78816
2009    18      1       0.3313816       81.1292
2009    18      2       0.2305005       60.90137
2009    18      3       0.194792        53.09999
2009    18      4       0.1815013       49.77098
2009    18      5       0.2589005       65.33232
2009    18      6       0.4653093       102.4455
2009    18      7       0.6630491       132.7951
2009    19      0       0.750778        144.9056
2009    19      1       0.6989844       138.5188
2009    19      2       0.7076592       139.5732
2009    19      3       0.6961877       137.9404
2009    19      4       0.5413714       115.3046
2009    19      5       0.3175082       76.4756
2009    19      6       0.2983258       72.06935
2009    19      7       0.3933472       89.95265
2009    20      0       0.4077305       92.51412
2009    20      1       0.3512959       82.97132
2009    20      2       0.2838639       69.79581
2009    20      3       0.2684556       67.26451
2009    20      4       0.2195511       57.59738
2009    20      5       0.1961095       52.76972
2009    20      6       0.2104941       56.13229
2009    20      7       0.2814232       71.02766
2009    21      0       0.2767231       69.94859
2009    21      1       0.2084489       54.63363
2009    21      2       0.2598644       64.64077
2009    21      3       0.3486074       81.51773
2009    21      4       0.4584349       101.3361
2009    21      5       0.5914417       122.2124
2009    21      6       0.5534402       116.3373
2009    21      7       0.6244641       125.906
2009    22      0       0.4695293       102.1192
2009    22      1       0.2557588       64.51727
2009    22      2       0.1376218       39.5064
2009    22      3       0.1646912       45.47926
2009    22      4       0.226371        59.04758
2009    22      5       0.2476269       63.64085
2009    22      6       0.2876254       71.3494
2009    22      7       0.2397351       61.39555
2009    23      0       0.2205806       57.70484
2009    23      1       0.201185        53.40973
2009    23      2       0.2589038       64.70256
2009    23      3       0.1887814       50.67568
2009    23      4       0.182037        49.66522
2009    23      5       0.1708677       47.30006
2009    23      6       0.1825961       49.77422
2009    23      7       0.2016621       53.81104
2009    24      0       0.1678086       46.38645
2009    24      1       0.1760645       47.91994
2009    24      2       0.2494998       63.1007
2009    24      3       0.3743673       86.22466
2009    24      4       0.4512475       99.02704
2009    24      5       0.5186768       109.8437
2009    24      6       0.4661081       101.6826
2009    24      7       0.2799756       69.87796
2009    25      0       0.2114681       55.94492
2009    25      1       0.1986076       52.86892
2009    25      2       0.186984        50.4576
2009    25      3       0.2482832       62.89879
2009    25      4       0.3467249       81.38229
2009    25      5       0.4068028       92.26671
2009    25      6       0.4427358       98.60052
2009    25      7       0.5183403       110.9788
2009    26      0       0.7405632       142.1297
2009    26      1       0.9907238       171.0501
2009    26      2       0.7862957       150.2233
2009    26      3       0.7061719       139.3497
2009    26      4       0.8439208       155.7851
2009    26      5       0.7048371       139.8478
2009    26      6       0.7029637       139.7443
2009    26      7       0.7895346       150.7358
2009    27      0       0.7256497       142.6436
2009    27      1       0.7069741       139.7336
2009    27      2       0.6889936       136.4182
2009    27      3       0.6471432       130.6148
2009    27      4       0.6198346       127.2237
2009    27      5       0.5777896       121.0549
2009    27      6       0.5182222       111.9755
2009    27      7       0.459627        102.9242
2009    28      0       0.3786574       89.37379
2009    28      1       0.3436024       82.89012
2009    28      2       0.3775761       88.76895
2009    28      3       0.4150375       95.14976
2009    28      4       0.4399819       99.46079
2009    28      5       0.4554225       102.4311
2009    28      6       0.436103        99.53523
2009    28      7       0.4294079       98.04396
2009    29      0       0.4482533       101.0433
2009    29      1       0.4461578       100.6648
2009    29      2       0.4543305       101.7681
2009    29      3       0.4339895       97.81693
2009    29      4       0.3331754       79.14986
2009    29      5       0.2979702       72.72565
2009    29      6       0.2152337       56.4818
2009    29      7       0.2180967       58.04911
2009    30      0       0.2646058       67.6792
2009    30      1       0.2316264       60.85528
2009    30      2       0.2802944       71.02534
2009    30      3       0.2898296       72.83434
2009    30      4       0.2961256       73.62907
2009    30      5       0.3374325       81.2108
2009    30      6       0.3092203       75.52302
2009    30      7       0.1971813       52.81531
2009    31      0       0.1715549       47.46334
2009    31      1       0.2053631       54.78252
2009    31      2       0.256043        65.27457
2009    31      3       0.2904614       71.84297
2009    31      4       0.3078318       74.71101
2009    31      5       0.3529154       83.15317
2009    31      6       0.4213356       95.3624
2009    31      7       0.5417452       114.6016
2010    1       0       0.3232081       77.41305
2010    1       1       0.3047185       74.07282
2010    1       2       0.3476921       82.17801
2010    1       3       0.3641564       85.49635
2010    1       4       0.366648        86.06584
2010    1       5       0.3775099       87.8501
2010    1       6       0.3637338       85.55762
2010    1       7       0.4132671       95.14989
2010    2       0       0.406811        94.14413
2010    2       1       0.4183291       95.59493
2010    2       2       0.493367        107.3706
2010    2       3       0.6163255       125.0248
2010    2       4       0.452514        99.40525
2010    2       5       0.4179074       94.5579
2010    2       6       0.3544635       84.46845
2010    2       7       0.3383072       80.89689
2010    3       0       0.3610988       84.70623
2010    3       1       0.2678961       66.58732
2010    3       2       0.1693427       46.5596
2010    3       3       0.1391104       39.80563
2010    3       4       0.1747057       47.6296
2010    3       5       0.2213078       57.66315
2010    3       6       0.2760836       68.6217
2010    3       7       0.2947407       72.1619
2010    4       0       0.2981165       72.67486
2010    4       1       0.3423342       81.2145
2010    4       2       0.2698643       68.03203
2010    4       3       0.1913834       51.19404
2010    4       4       0.1720739       46.54822
2010    4       5       0.158695        43.44267
2010    4       6       0.161387        44.14039
2010    4       7       0.1603783       44.09547
2010    5       0       0.1315112       37.77742
2010    5       1       0.1159157       34.00601
2010    5       2       0.1476528       41.37624
2010    5       3       0.1493426       42.09316
2010    5       4       0.1687365       46.04583
2010    5       5       0.2245379       57.28359
2010    5       6       0.2973076       71.08859
2010    5       7       0.3894325       87.15717
2010    6       0       0.4604235       98.61885
2010    6       1       0.4767852       101.5248
2010    6       2       0.5471615       112.2932
2010    6       3       0.5270199       109.1006
2010    6       4       0.5454399       110.5726
2010    6       5       0.7126309       133.4789
2010    6       6       0.7347464       137.1262
2010    6       7       0.9175518       157.6638
2010    7       0       1.074126        171.4383
2010    7       1       1.001684        165.5731
2010    7       2       0.9377695       159.0116
2010    7       3       0.8330558       147.6633
2010    7       4       0.4182608       92.1408
2010    7       5       0.4501536       97.19028
2010    7       6       0.7414747       138.5746
2010    7       7       1.062681        171.6254
2010    8       0       1.154364        179.7816
2010    8       1       0.8363488       150.3117
2010    8       2       0.5773572       118.2937
2010    8       3       0.4662542       101.8227
2010    8       4       0.3965258       90.26897
2010    8       5       0.3392956       80.08017
2010    8       6       0.3878665       88.58426
2010    8       7       0.4469543       98.5128
2010    9       0       0.6679545       131.5024
2010    9       1       0.5981264       120.9189
2010    9       2       0.4346594       95.93036
2010    9       3       0.09359719      28.90573
2010    9       4       0.0995505       30.22797
2010    9       5       0.1739106       46.69107
2010    9       6       0.2600195       64.0723
2010    9       7       0.3246336       76.48714
2010    10      0       0.264243        65.30022
2010    10      1       0.2989905       71.5522
2010    10      2       0.5460255       111.8924
2010    10      3       0.573285        117.4092
2010    10      4       0.2680328       65.9446
2010    10      5       0.387955        87.09074
2010    10      6       0.2149766       55.48038
2010    10      7       0.2545372       63.3432
2010    11      0       0.3259439       77.32947
2010    11      1       0.3254717       77.98378
2010    11      2       0.2698491       66.95991
2010    11      3       0.2059131       53.76325
2010    11      4       0.2570968       64.28454
2010    11      5       0.3581112       83.87564
2010    11      6       0.3955266       91.04474
2010    11      7       0.3949192       91.23955
2010    12      0       0.3697661       87.17925
2010    12      1       0.3586513       85.04512
2010    12      2       0.3612754       85.28287
2010    12      3       0.3389551       80.9122
2010    12      4       0.3301549       78.70003
2010    12      5       0.3705537       85.42134
2010    12      6       0.4570481       100.346
2010    12      7       0.5887645       120.8392
2010    13      0       0.7725767       145.3017
2010    13      1       1.00755         170.5729
2010    13      2       1.048214        174.3278
2010    13      3       0.9799963       168.2401
2010    13      4       0.7176674       139.2273
2010    13      5       0.5058315       109.1171
2010    13      6       0.3089653       75.71171
2010    13      7       0.3030469       73.49485
2010    14      0       0.2979767       72.64414
2010    14      1       0.3158523       76.06688
2010    14      2       0.3502824       82.38866
2010    14      3       0.4133497       93.38396
2010    14      4       0.3765558       87.35427
2010    14      5       0.3262805       78.26513
2010    14      6       0.3189219       76.27776
2010    14      7       0.2979378       72.54478
2010    15      0       0.2857337       70.44465
2010    15      1       0.2917818       71.39802
2010    15      2       0.2752834       68.0503
2010    15      3       0.2715232       67.33454
2010    15      4       0.2488571       63.07002
2010    15      5       0.2031315       53.92736
2010    15      6       0.2042041       54.26431
2010    15      7       0.2192653       57.6324
2010    16      0       0.2367356       61.33818
2010    16      1       0.2322267       60.12662
2010    16      2       0.2207209       57.56726
2010    16      3       0.2164702       56.5508
2010    16      4       0.2006789       53.0314
2010    16      5       0.1915015       51.02479
2010    16      6       0.2308508       59.28895
2010    16      7       0.2505266       63.27173
2010    17      0       0.2166322       56.81144
2010    17      1       0.1690447       46.81714
2010    17      2       0.1367257       39.4352
2010    17      3       0.1256853       36.93499
2010    17      4       0.1159481       34.59881
2010    17      5       0.1157296       34.68193
2010    17      6       0.1282839       37.57389
2010    17      7       0.2548949       65.80432
2010    18      0       0.3948898       92.95757
2010    18      1       0.3528505       85.21981
2010    18      2       0.3668134       87.45932
2010    18      3       0.4252729       97.79749
2010    18      4       0.3877739       90.90981
2010    18      5       0.3755405       88.49133
2010    18      6       0.4220194       96.68641
2010    18      7       0.5319941       114.7748
2010    19      0       0.5297112       114.8309
2010    19      1       0.2881164       72.62688
2010    19      2       0.3805425       89.39751
2010    19      3       0.4913429       107.0141
2010    19      4       0.08131859      26.41376
2010    19      5       0.08087469      26.12199
2010    19      6       0.1506183       42.73458
2010    19      7       0.2253249       58.76392
2010    20      0       0.2318336       60.32773
2010    20      1       0.2483072       64.32163
2010    20      2       0.2534464       65.58917
2010    20      3       0.2223781       58.92798
2010    20      4       0.1821441       50.08215
2010    20      5       0.1858422       50.4961
2010    20      6       0.2302873       59.24396
2010    20      7       0.262409        65.56832
2010    21      0       0.2489652       63.35579
2010    21      1       0.2013819       53.43534
2010    21      2       0.1773714       48.02803
2010    21      3       0.1862897       49.89531
2010    21      4       0.1979363       52.01243
2010    21      5       0.1796013       47.90471
2010    21      6       0.1709095       45.67363
2010    21      7       0.2024163       51.87091
2010    22      0       0.24381         60.10353
2010    22      1       0.3700314       83.27843
2010    22      2       0.5661669       114.5495
2010    22      3       0.7280029       136.6649
2010    22      4       0.5519469       115.2393
2010    22      5       0.5049842       109.3861
2010    22      6       0.548695        115.888
2010    22      7       0.4469475       100.0414
2010    23      0       0.2971125       72.79545
2010    23      1       0.2462411       62.03079
2010    23      2       0.2530372       63.08915
2010    23      3       0.315827        75.8576
2010    23      4       0.260433        65.86902
2010    23      5       0.1391982       40.3094
2010    23      6       0.07405094      24.55686
2010    23      7       0.09666452      30.0371
2010    24      0       0.1737388       47.13244
2010    24      1       0.2327961       59.67594
2010    24      2       0.2680823       66.99974
2010    24      3       0.2480999       63.24583
2010    24      4       0.25104         63.60351
2010    24      5       0.2485972       63.10461
2010    24      6       0.3071638       73.82309
2010    24      7       0.3841456       87.12183
2010    25      0       0.4102737       91.11509
2010    25      1       0.3932822       87.42154
2010    25      2       0.3482691       81.24859
2010    25      3       0.3384608       79.93576
2010    25      4       0.2638306       66.03075
2010    25      5       0.2683203       66.42199
2010    25      6       0.3878457       88.70707
2010    25      7       0.5696443       118.3262
2010    26      0       0.603019        123.8236
2010    26      1       0.486698        106.3515
2010    26      2       0.4585996       101.4608
2010    26      3       0.1185624       34.9574
2010    26      4       0.1091545       32.78648
2010    26      5       0.1461209       41.31587
2010    26      6       0.2156309       56.66414
2010    26      7       0.2814959       69.98644
2010    27      0       0.3186187       77.2361
2010    27      1       0.3884364       90.24239
2010    27      2       0.4269493       96.9085
2010    27      3       0.4714041       104.3676
2010    27      4       0.4413323       99.46997
2010    27      5       0.4761663       105.0186
2010    27      6       0.5029882       108.5919
2010    27      7       0.4631285       102.3842
2010    28      0       0.4405241       98.76703
2010    28      1       0.4213875       95.5592
2010    28      2       0.3788278       88.00517
2010    28      3       0.3594564       84.15229
2010    28      4       0.3595843       84.26586
2010    28      5       0.375569        87.27432
2010    28      6       0.3606323       84.77379
2010    28      7       0.340628        81.27949
2010    29      0       0.3722898       87.54526
2010    29      1       0.409871        93.88456
2010    29      2       0.5059297       108.9664
2010    29      3       0.6192481       126.0587
2010    29      4       0.6886121       135.7728
2010    29      5       0.6674664       133.4018
2010    29      6       0.5357933       113.9577
2010    29      7       0.6561717       131.485
2010    30      0       0.5816432       121.008
2010    30      1       0.6972806       137.8091
2010    30      2       0.9122289       164.8808
2010    30      3       0.9188823       166.6259
2010    30      4       0.7562529       147.6709
2010    30      5       0.6461266       132.2506
2010    30      6       0.617319        127.6213
2010    30      7       0.9451671       167.633
2010    31      0       1.036837        176.9981
2010    31      1       1.032622        175.6175
2010    31      2       1.154933        184.8913
2010    31      3       1.304381        194.2913
2010    31      4       0.7661438       144.1094
2010    31      5       0.7192649       136.5639
2010    31      6       0.5381692       111.5634
2010    31      7       0.4100409       90.84937
2011    1       0       0.2270698       57.29061
2011    1       1       0.2576754       63.74365
2011    1       2       0.3007461       72.61189
2011    1       3       0.3762181       86.34524
2011    1       4       0.4175312       93.74959
2011    1       5       0.5368932       112.5724
2011    1       6       0.9625319       163.5514
2011    1       7       0.9859861       167.8375
2011    2       0       1.001039        169.7511
2011    2       1       1.014591        172.092
2011    2       2       1.13099         182.8389
2011    2       3       1.64704         216.481
2011    2       4       1.763555        222.9448
2011    2       5       1.787704        223.8714
2011    2       6       2.157418        237.8621
2011    2       7       1.941929        229.385
2011    3       0       0.8065041       150.7569
2011    3       1       0.4579199       102.5369
2011    3       2       0.4427083       100.295
2011    3       3       0.2546583       65.12919
2011    3       4       0.1426848       40.72979
2011    3       5       0.1504619       42.42221
2011    3       6       0.1568357       43.49767
2011    3       7       0.22828         58.40276
2011    4       0       0.2059842       53.65125
2011    4       1       0.1323913       38.27992
2011    4       2       0.1666138       45.25485
2011    4       3       0.1789101       47.86578
2011    4       4       0.2183598       55.82268
2011    4       5       0.2657625       64.72104
2011    4       6       0.2463207       61.02064
2011    4       7       0.1937231       51.05468
2011    5       0       0.2236241       57.25768
2011    5       1       0.2443895       61.12245
2011    5       2       0.3134287       74.07067
2011    5       3       0.4214191       93.09778
2011    5       4       0.5658752       115.9978
2011    5       5       0.7532862       141.8787
2011    5       6       1.138643        182.0494
2011    5       7       1.558616        211.606
2011    6       0       1.553411        211.7153
2011    6       1       1.535533        211.4082
2011    6       2       1.47457         208.2785
2011    6       3       1.553787        213.0857
2011    6       4       1.528722        212.6904
2011    6       5       1.376681        202.9201
2011    6       6       1.114592        182.7554
2011    6       7       1.307472        198.0163
2011    7       0       1.396736        204.2909
2011    7       1       1.253191        193.2978
2011    7       2       1.170256        186.2596
2011    7       3       0.7722366       144.8779
2011    7       4       0.1576019       43.57332
2011    7       5       0.1243413       36.03222
2011    7       6       0.3025223       71.77524
2011    7       7       0.4055222       91.64572
2011    8       0       0.6761347       132.5952
2011    8       1       0.645556        130.1978
2011    8       2       0.6564318       130.7206
2011    8       3       0.7035951       136.3736
2011    8       4       0.7129121       137.0757
2011    8       5       0.5971111       122.2012
2011    8       6       0.5275124       112.6114
2011    8       7       0.3356704       80.53582
2011    9       0       0.2824111       70.24012
2011    9       1       0.2482042       63.44645
2011    9       2       0.2714709       67.6616
2011    9       3       0.3130616       75.15701
2011    9       4       0.3395853       79.86897
2011    9       5       0.3313626       78.3902
2011    9       6       0.3190282       76.17082
2011    9       7       0.2877061       70.55401
2011    10      0       0.3176805       76.13407
2011    10      1       0.3013262       72.90179
2011    10      2       0.3210874       76.76306
2011    10      3       0.3166258       75.52716
2011    10      4       0.3322473       78.22867
2011    10      5       0.3782441       86.44501
2011    10      6       0.3904027       88.74498
2011    10      7       0.4486251       98.77487
2011    11      0       0.5010127       107.921
2011    11      1       0.3591279       85.4157
2011    11      2       0.2645481       67.6733
2011    11      3       0.2411344       62.32961
2011    11      4       0.2201889       58.03555
2011    11      5       0.2649799       67.30791
2011    11      6       0.3178721       76.88184
2011    11      7       0.2506865       62.52483
2011    12      0       0.4192114       93.80293
2011    12      1       0.5072819       108.2561
2011    12      2       0.5110004       109.8556
2011    12      3       0.3515273       84.12317
2011    12      4       0.2626048       67.03929
2011    12      5       0.3558572       84.28664
2011    12      6       0.4537179       101.9673
2011    12      7       0.67087         133.982
2011    13      0       0.8350951       153.9054
2011    13      1       0.8341421       152.7112
2011    13      2       0.7666822       145.4481
2011    13      3       0.8025358       149.2707
2011    13      4       0.7993032       148.9211
2011    13      5       0.9104605       161.1848
2011    13      6       1.256612        192.7673
2011    13      7       1.735172        221.2534
2011    14      0       1.452008        206.099
2011    14      1       0.9551632       166.9697
2011    14      2       0.5643108       119.7954
2011    14      3       0.3699293       86.46302
2011    14      4       0.3058902       73.1977
2011    14      5       0.4215089       94.2688
2011    14      6       0.576494        119.0028
2011    14      7       0.8961628       160.3505
2011    15      0       1.064985        177.5566
2011    15      1       1.141974        184.5666
2011    15      2       1.068358        177.5084
2011    15      3       1.108063        181.063
2011    15      4       1.046904        175.5978
2011    15      5       0.8721532       157.5411
2011    15      6       1.200731        188.3282
2011    15      7       0.9317529       165.9746
2011    16      0       0.6808989       136.1871
2011    16      1       0.6245456       128.1028
2011    16      2       0.6659458       133.6632
2011    16      3       0.4746525       104.6164
2011    16      4       0.4986203       108.3638
2011    16      5       0.4479053       100.5055
2011    16      6       0.7012425       138.2882
2011    16      7       0.7819162       148.6281
2011    17      0       0.6969948       137.4532
2011    17      1       0.7280476       140.9404
2011    17      2       0.9077279       161.7594
2011    17      3       1.101064        180.0308
2011    17      4       1.065232        175.8877
2011    17      5       1.142009        181.7099
2011    17      6       1.164379        183.2197
2011    17      7       0.7519544       139.955
2011    18      0       0.2446803       60.14757
2011    18      1       0.1069361       31.57884
2011    18      2       0.09602045      29.55205
2011    18      3       0.1107982       33.07202
2011    18      4       0.1962152       52.38794
2011    18      5       0.3194091       77.36956
2011    18      6       0.3089605       75.43588
2011    18      7       0.275433        68.96067
2011    19      0       0.1512848       42.37927
2011    19      1       0.1272516       36.42236
2011    19      2       0.1652725       44.3464
2011    19      3       0.3234252       75.60858
2011    19      4       0.4095508       90.47758
2011    19      5       0.6493368       126.9696
2011    19      6       0.6798187       130.3296
2011    19      7       0.6763978       129.1131
2011    20      0       0.8078808       145.2907
2011    20      1       0.992429        166.7791
2011    20      2       1.025378        169.0186
2011    20      3       1.29118         191.1011
2011    20      4       1.458722        202.3932
2011    20      5       1.465813        202.858
2011    20      6       1.678629        215.0576
2011    20      7       1.478369        203.6903
2011    21      0       1.499474        204.6973
2011    21      1       1.442399        201.7523
2011    21      2       1.387779        197.7619
2011    21      3       0.6266437       124.2543
2011    21      4       0.5577737       113.1106
2011    21      5       0.8537894       149.804
2011    21      6       1.269695        186.5845
2011    21      7       1.006544        164.9339
2011    22      0       0.7202167       135.6726
2011    22      1       0.319394        75.4117
2011    22      2       0.2324855       58.82137
2011    22      3       0.2741806       66.21491
2011    22      4       0.2931823       70.32869
2011    22      5       0.2560236       63.39777
2011    22      6       0.4404866       97.26892
2011    22      7       0.4946844       106.5692
2011    23      0       0.4139333       93.50686
2011    23      1       0.3249177       77.11927
2011    23      2       0.3265735       77.48535
2011    23      3       0.3343915       79.21884
2011    23      4       0.3875972       89.00119
2011    23      5       0.4440555       98.62619
2011    23      6       0.4438788       98.74512
2011    23      7       0.572265        118.375
2011    24      0       0.8285133       151.2023
2011    24      1       1.249892        188.7179
2011    24      2       0.3329804       78.5663
2011    24      3       0.1519401       41.88298
2011    24      4       0.2357039       59.55363
2011    24      5       0.4661571       100.7412
2011    24      6       0.5849739       119.2656
2011    24      7       0.8869707       157.9198
2011    25      0       1.176378        185.9472
2011    25      1       1.152513        184.4092
2011    25      2       1.125191        181.9706
2011    25      3       1.209366        188.1893
2011    25      4       1.049608        174.7821
2011    25      5       0.6467192       130.3449
2011    25      6       0.6584857       130.8221
2011    25      7       0.7899117       147.2662
2011    26      0       1.029197        173.3071
2011    26      1       0.9128036       162.7281
2011    26      2       0.8402655       154.7753
2011    26      3       0.9555036       166.8987
2011    26      4       1.161475        185.5794
2011    26      5       1.06687         177.6309
2011    26      6       0.8040538       150.4345
2011    26      7       0.7759336       146.9394
2011    27      0       0.6401445       130.0879
2011    27      1       0.5369621       114.5321
2011    27      2       0.5877492       122.6837
2011    27      3       0.5565986       119.172
2011    27      4       0.5229833       113.7194
2011    27      5       0.5862037       122.2489
2011    27      6       0.738281        142.1381
2011    27      7       0.8154609       151.4238
2011    28      0       0.9213137       163.8709
2011    28      1       0.7187443       140.8189
2011    28      2       0.4111495       95.46498
2011    28      3       0.5569349       119.1149
2011    28      4       0.62696         129.2091
2011    28      5       0.7056758       139.5297
2011    28      6       0.8891404       161.0134
2011    28      7       0.8700278       159.2736
2011    29      0       0.6550499       133.0914
2011    29      1       0.4112211       95.4782
2011    29      2       0.3950888       92.73302
2011    29      3       0.3676454       87.3365
2011    29      4       0.3207576       78.17163
2011    29      5       0.345365        82.6059
2011    29      6       0.5270301       113.5288
2011    29      7       0.9665414       167.6474
2011    30      0       1.257315        193.232
2011    30      1       1.015161        174.5677
2011    30      2       0.9641792       169.5203
2011    30      3       1.053045        178.2798
2011    30      4       1.08413         181.4105
2011    30      5       1.073642        180.5615
2011    30      6       1.274044        198.0236
2011    30      7       1.685054        223.4552
2011    31      0       1.564842        216.8518
2011    31      1       1.330992        202.509
2011    31      2       0.9419991       168.8475
2011    31      3       0.7233811       142.5668
2011    31      4       0.8791553       162.1749
2011    31      5       0.8620015       160.2785
2011    31      6       0.8573897       159.7487
2011    31      7       0.8564499       159.6806
2012    1       0       0.5807569       119.8402
2012    1       1       0.3042055       74.08509
2012    1       2       0.3470819       81.79189
2012    1       3       0.3861683       88.62613
2012    1       4       0.4610861       100.597
2012    1       5       0.4923332       106.42
2012    1       6       0.3551699       83.0779
2012    1       7       0.5011391       108.639
2012    2       0       0.5392228       114.8461
2012    2       1       0.5295402       114.418
2012    2       2       0.4589107       103.1336
2012    2       3       0.3928852       91.27678
2012    2       4       0.3814599       89.19204
2012    2       5       0.258786        65.88394
2012    2       6       0.1896404       51.10996
2012    2       7       0.1948913       52.38497
2012    3       0       0.2424987       62.45654
2012    3       1       0.1918902       51.96067
2012    3       2       0.2151838       57.03371
2012    3       3       0.2395965       62.18765
2012    3       4       0.2616558       66.86004
2012    3       5       0.2737591       69.37365
2012    3       6       0.2700676       68.67588
2012    3       7       0.2877096       72.20801
2012    4       0       0.2781352       70.25842
2012    4       1       0.2461187       63.62164
2012    4       2       0.2254179       59.29169
2012    4       3       0.2171512       57.5365
2012    4       4       0.2107986       56.10353
2012    4       5       0.1887448       51.30061
2012    4       6       0.1737925       47.95245
2012    4       7       0.1599498       44.86054
2012    5       0       0.1934417       52.47839
2012    5       1       0.1550393       43.43479
2012    5       2       0.1612562       44.26757
2012    5       3       0.1800528       48.30527
2012    5       4       0.1835241       48.76706
2012    5       5       0.2061783       52.91198
2012    5       6       0.239452        59.39694
2012    5       7       0.3272824       75.96387
2012    6       0       0.4048623       89.88198
2012    6       1       0.4448026       96.56516
2012    6       2       0.5222989       109.1799
2012    6       3       0.5521349       114.4637
2012    6       4       0.3496177       82.01449
2012    6       5       0.2289739       58.87779
2012    6       6       0.2914674       70.51766
2012    6       7       0.1711987       46.42077
2012    7       0       0.109301        32.76575
2012    7       1       0.1696957       46.26011
2012    7       2       0.1415292       39.91144
2012    7       3       0.1525241       42.32155
2012    7       4       0.1631452       44.5974
2012    7       5       0.1302127       37.33474
2012    7       6       0.2177249       56.3962
2012    7       7       0.2120668       55.66196
2012    8       0       0.1768612       48.49892
2012    8       1       0.1633754       45.64909
2012    8       2       0.1652048       46.0664
2012    8       3       0.1427302       40.9845
2012    8       4       0.1426693       40.65079
2012    8       5       0.1627957       44.70669
2012    8       6       0.2031998       53.04874
2012    8       7       0.252192        63.24311
2012    9       0       0.315001        75.47318
2012    9       1       0.3487329       81.91621
2012    9       2       0.3934905       89.5879
2012    9       3       0.3440364       80.69581
2012    9       4       0.1208182       35.82863
2012    9       5       0.1026946       31.03724
2012    9       6       0.1366796       38.70307
2012    9       7       0.1592517       43.7465
2012    10      0       0.1779335       47.78289
2012    10      1       0.1632777       43.99445
2012    10      2       0.184304        48.67179
2012    10      3       0.2219817       57.4043
2012    10      4       0.2468524       62.93292
2012    10      5       0.2216229       57.93946
2012    10      6       0.2019883       53.93065
2012    10      7       0.2291157       59.54738
2012    11      0       0.2159823       56.50547
2012    11      1       0.1626052       44.56919
2012    11      2       0.2912672       70.07979
2012    11      3       0.3943834       88.39678
2012    11      4       0.4485085       97.66607
2012    11      5       0.4372012       98.45926
2012    11      6       0.4350223       98.52169
2012    11      7       0.3893659       89.95906
2012    12      0       0.3450828       81.26297
2012    12      1       0.3757544       87.53734
2012    12      2       0.4697957       103.5384
2012    12      3       0.4366684       97.79109
2012    12      4       0.4017571       91.39226
2012    12      5       0.3861196       87.811
2012    12      6       0.3963828       89.05045
2012    12      7       0.380903        86.9363
2012    13      0       0.3121599       75.14091
2012    13      1       0.2530645       64.08379
2012    13      2       0.2701005       67.28208
2012    13      3       0.2228102       57.91219
2012    13      4       0.2285512       59.31617
2012    13      5       0.2737684       68.83623
2012    13      6       0.2492648       64.30227
2012    13      7       0.2502186       64.35572
2012    14      0       0.191456        51.64347
2012    14      1       0.2514644       63.90521
2012    14      2       0.5639662       118.079
2012    14      3       0.7945964       148.8372
2012    14      4       0.8488325       154.8104
2012    14      5       0.8262043       152.0293
2012    14      6       0.8385742       153.4782
2012    14      7       0.7966132       148.5097
2012    15      0       0.6563682       130.8741
2012    15      1       0.522562        112.0381
2012    15      2       0.5646317       119.0891
2012    15      3       0.7708458       147.06
2012    15      4       0.8043148       150.5462
2012    15      5       0.6634285       132.4348
2012    15      6       0.5257          112.7869
2012    15      7       0.4336892       97.88223
2012    16      0       0.3922685       90.18313
2012    16      1       0.5490926       115.1336
2012    16      2       0.8018809       149.3516
2012    16      3       0.9627284       166.8588
2012    16      4       0.9386848       164.8124
2012    16      5       0.871871        158.2935
2012    16      6       0.9551836       167.2135
2012    16      7       0.9766216       169.0979
2012    17      0       0.8944054       159.9244
2012    17      1       1.082803        177.644
2012    17      2       1.22587         190.4862
2012    17      3       1.427993        204.088
2012    17      4       0.7960547       148.6963
2012    17      5       0.5086071       108.8603
2012    17      6       1.157889        183.7085
2012    17      7       0.9313238       159.279
2012    18      0       0.5190167       107.3263
2012    18      1       0.4744363       100.3469
2012    18      2       0.5333955       109.2975
2012    18      3       0.7748645       140.8732
2012    18      4       0.5996032       118.4895
2012    18      5       0.51364         106.0224
2012    18      6       0.4573337       96.97337
2012    18      7       0.7014294       131.4417
2012    19      0       0.577826        117.0829
2012    19      1       0.2156365       55.4329
2012    19      2       0.3434549       79.36553
2012    19      3       0.4860135       103.1059
2012    19      4       0.3627674       82.62865
2012    19      5       0.3082687       71.56478
2012    19      6       0.3968122       87.26662
2012    19      7       0.5227128       108.4807
2012    20      0       0.6509534       127.704
2012    20      1       0.7633896       143.2838
2012    20      2       0.8384736       152.8877
2012    20      3       0.9266584       162.7726
2012    20      4       0.9973838       170.7682
2012    20      5       1.047028        176.1958
2012    20      6       1.117445        182.3843
2012    20      7       0.870173        159.4672
2012    21      0       0.6475667       133.2225
2012    21      1       0.480121        107.2104
2012    21      2       0.4654763       104.3364
2012    21      3       0.5503128       116.7143
2012    21      4       0.5906076       122.6881
2012    21      5       0.5680778       119.8051
2012    21      6       0.541876        116.1322
2012    21      7       0.5399329       116.0291
2012    22      0       0.5335819       115.48
2012    22      1       0.5088854       111.2994
2012    22      2       0.5022363       109.9356
2012    22      3       0.546058        116.7843
2012    22      4       0.7167711       140.5121
2012    22      5       0.8246669       153.8553
2012    22      6       0.7798877       148.929
2012    22      7       0.7741524       148.5851
2012    23      0       0.6926071       138.0012
2012    23      1       0.5116132       111.3172
2012    23      2       0.4498653       101.674
2012    23      3       0.4052332       94.13569
2012    23      4       0.3712144       87.71925
2012    23      5       0.4741153       104.3831
2012    23      6       0.5584805       117.0325
2012    23      7       0.5420268       114.7074
2012    24      0       0.4263738       95.90115
2012    24      1       0.3349069       78.94391
2012    24      2       0.3740727       86.33552
2012    24      3       0.4928704       106.1452
2012    24      4       0.4504565       99.54381
2012    24      5       0.3629501       84.37711
2012    24      6       0.4386806       97.34261
2012    24      7       0.6450319       127.6309
2012    25      0       0.6306934       125.637
2012    25      1       0.6205028       125.5895
2012    25      2       0.6083284       125.2463
2012    25      3       0.5558036       117.7022
2012    25      4       0.4472456       100.3092
2012    25      5       0.3820151       88.6037
2012    25      6       0.3495732       82.57831
2012    25      7       0.6045061       123.367
2012    26      0       0.626235        125.5106
2012    26      1       0.7368352       138.3932
2012    26      2       0.606386        121.9464
2012    26      3       0.1520626       42.29031
2012    26      4       0.2795575       68.48563
2012    26      5       0.6272542       127.0148
2012    26      6       0.7063997       138.0996
2012    26      7       0.6613708       132.4297
2012    27      0       0.6193258       126.4723
2012    27      1       0.4826731       106.0907
2012    27      2       0.4397133       98.69467
2012    27      3       0.4199824       95.46799
2012    27      4       0.4361753       97.36205
2012    27      5       0.4540193       99.62821
2012    27      6       0.4805213       102.9156
2012    27      7       0.5595837       115.2788
2012    28      0       0.4598235       101.3028
2012    28      1       0.4563596       100.9551
2012    28      2       0.6356216       128.3582
2012    28      3       0.6244892       126.4294
2012    28      4       0.6873986       133.8082
2012    28      5       0.7708118       144.2468
2012    28      6       1.015445        171.4103
2012    28      7       0.9161233       162.5011
2012    29      0       0.9111785       160.7987
2012    29      1       1.231277        190.6781
2012    29      2       0.7438014       144.3115
2012    29      3       0.5668672       118.836
2012    29      4       0.7300656       140.8482
2012    29      5       0.5278727       113.433
2012    29      6       0.6034981       124.7012
2012    29      7       0.6433245       130.257
2012    30      0       0.6584007       132.5386
2012    30      1       0.5807291       122.0224
2012    30      2       0.5805474       122.2014
2012    30      3       0.5794326       121.9559
2012    30      4       0.544539        116.5219
2012    30      5       0.5415081       115.8808
2012    30      6       0.5204501       113.1611
2012    30      7       0.5683063       121.0209
2012    31      0       0.5793857       122.7443
2012    31      1       0.4793567       106.9358
2012    31      2       0.4472798       101.8221
2012    31      3       0.4422228       100.9406
2012    31      4       0.3383919       81.89403
2012    31      5       0.3180442       78.0766
2012    31      6       0.3569967       85.50828
2012    31      7       0.4286339       98.62572
2013    1       0       0.4223641       96.46809
2013    1       1       0.3596658       85.38204
2013    1       2       0.3683685       86.48805
2013    1       3       0.3471289       81.94563
2013    1       4       0.3888656       88.98326
2013    1       5       0.3925523       89.86176
2013    1       6       0.395837        90.87516
2013    1       7       0.3815004       88.85486
2013    2       0       0.3480191       83.49024
2013    2       1       0.2994154       74.60864
2013    2       2       0.2829486       71.33252
2013    2       3       0.255952        65.96078
2013    2       4       0.2470513       64.24647
2013    2       5       0.2579294       66.26384
2013    2       6       0.2936437       73.3965
2013    2       7       0.3272127       79.00993
2013    3       0       0.2542154       63.72482
2013    3       1       0.2536009       63.01552
2013    3       2       0.4985666       106.0876
2013    3       3       0.7253866       137.038
2013    3       4       1.249478        189.5141
2013    3       5       1.308193        196.3131
2013    3       6       1.585761        215.6206
2013    3       7       1.491859        210.652
2013    4       0       0.69217         138.3449
2013    4       1       0.1627551       45.72587
2013    4       2       0.1133917       34.00154
2013    4       3       0.1581961       44.12216
2013    4       4       0.1922183       52.09204
2013    4       5       0.3406437       81.57167
2013    4       6       0.2352661       61.44424
2013    4       7       0.194975        53.08772
2013    5       0       0.2138872       56.90502
2013    5       1       0.145603        41.20856
2013    5       2       0.1681415       45.4367
2013    5       3       0.2553816       63.32821
2013    5       4       0.2185605       56.38883
2013    5       5       0.3019274       72.24507
2013    5       6       0.3456908       79.97409
2013    5       7       0.2762609       67.82808
2013    6       0       0.2422416       61.85712
2013    6       1       0.3685413       86.15468
2013    6       2       0.3961711       91.28555
2013    6       3       0.3546128       84.14373
2013    6       4       0.3007818       73.43588
2013    6       5       0.274358        68.59396
2013    6       6       0.2031787       53.96687
2013    6       7       0.14716         41.1431
2013    7       0       0.136414        38.89323
2013    7       1       0.1523109       42.46078
2013    7       2       0.2529319       63.53672
2013    7       3       0.232292        59.25312
2013    7       4       0.2241638       57.16606
2013    7       5       0.2437057       60.56646
2013    7       6       0.4138911       90.94851
2013    7       7       0.8663439       152.0272
2013    8       0       0.8371099       150.094
2013    8       1       0.8307361       149.0121
2013    8       2       1.006264        167.1004
2013    8       3       1.029758        169.2268
2013    8       4       1.006328        166.6019
2013    8       5       0.7559498       138.7284
2013    8       6       0.4832224       102.098
2013    8       7       0.4618784       98.39962
2013    9       0       0.784722        142.2921
2013    9       1       0.8188098       147.4203
2013    9       2       0.816119        146.8895
2013    9       3       0.6575408       127.5835
2013    9       4       0.5619695       114.4477
2013    9       5       0.5167812       108.0767
2013    9       6       0.5011988       106.1127
2013    9       7       0.5276521       110.8567
2013    10      0       0.6635254       129.2165
2013    10      1       0.6934575       134.2289
2013    10      2       0.2687433       67.5004
2013    10      3       0.1413122       40.58113
2013    10      4       0.1024163       31.29642
2013    10      5       0.1287586       37.42615
2013    10      6       0.168017        46.42899
2013    10      7       0.1801699       49.20029
2013    11      0       0.160223        44.89821
2013    11      1       0.1600592       44.77162
2013    11      2       0.2045366       54.02631
2013    11      3       0.2655592       66.24566
2013    11      4       0.2907412       70.99056
2013    11      5       0.3091801       74.33753
2013    11      6       0.4134123       93.24618
2013    11      7       0.4977677       107.6481
2013    12      0       0.50607         109.5274
2013    12      1       0.523999        112.2436
2013    12      2       0.519437        112.0423
2013    12      3       0.5291055       113.6146
2013    12      4       0.5627916       118.0474
2013    12      5       0.5416304       115.0663
2013    12      6       0.5206787       111.8442
2013    12      7       0.5463584       116.0245
2013    13      0       0.5656509       119.4668
2013    13      1       0.5291841       114.2212
2013    13      2       0.5078815       110.8358
2013    13      3       0.4958179       109.1698
2013    13      4       0.4383341       99.96039
2013    13      5       0.3655848       86.93685
2013    13      6       0.3964588       92.42507
2013    13      7       0.4587633       103.6411
2013    14      0       0.4618826       104.311
2013    14      1       0.4208024       97.14874
2013    14      2       0.4365868       99.93481
2013    14      3       0.4579581       103.8838
2013    14      4       0.4570187       103.9534
2013    14      5       0.4218901       98.0763
2013    14      6       0.4089691       95.92832
2013    14      7       0.4533465       103.8444
2013    15      0       0.5006261       111.6329
2013    15      1       0.4095414       96.27575
2013    15      2       0.3500781       85.2843
2013    15      3       0.3256599       79.64371
2013    15      4       0.3242757       78.87421
2013    15      5       0.3711778       86.09367
2013    15      6       0.3750655       87.0099
2013    15      7       0.2863782       71.2832
2013    16      0       0.2908031       71.54065
2013    16      1       0.3420682       80.25057
2013    16      2       0.4478035       99.0057
2013    16      3       0.8691639       158.4754
2013    16      4       0.8030682       150.518
2013    16      5       0.6963619       137.4793
2013    16      6       0.3077025       76.47151
2013    16      7       0.307471        76.48978
2013    17      0       0.315164        77.74829
2013    17      1       0.171962        46.5592
2013    17      2       0.2404597       61.05249
2013    17      3       0.4087076       93.77733
2013    17      4       0.4401104       99.72889
2013    17      5       0.1542506       43.52296
2013    17      6       0.1397176       39.58041
2013    17      7       0.2178338       56.44466
2013    18      0       0.3003839       71.95137
2013    18      1       0.3169024       74.62387
2013    18      2       0.4526181       98.0593
2013    18      3       0.5947772       119.5146
2013    18      4       0.592235        120.5276
2013    18      5       0.6867441       134.1604
2013    18      6       0.6490332       129.68
2013    18      7       0.8033808       148.9761
2013    19      0       0.9297087       162.6327
2013    19      1       1.233791        188.9273
2013    19      2       1.394237        201.588
2013    19      3       1.199562        188.4421
2013    19      4       0.8635606       156.8745
2013    19      5       0.8628955       157.1658
2013    19      6       0.5444627       115.5965
2013    19      7       0.5087146       108.4593
2013    20      0       0.6117325       123.8421
2013    20      1       0.7435827       140.7822
2013    20      2       1.463014        204.9247
2013    20      3       1.448156        205.8239
2013    20      4       1.505787        208.1488
2013    20      5       0.9223923       160.1843
2013    20      6       0.8006784       146.16
2013    20      7       0.6105116       122.6783
2013    21      0       0.6539415       128.2789
2013    21      1       0.9593867       164.8887
2013    21      2       1.173828        184.9928
2013    21      3       0.4753997       103.0874
2013    21      4       0.1320108       37.33143
2013    21      5       0.1241974       35.99852
2013    21      6       0.1198865       35.10344
2013    21      7       0.1744598       47.74062
2013    22      0       0.2119058       56.4536
2013    22      1       0.1738712       47.74333
2013    22      2       0.2907901       72.18598
2013    22      3       0.2629986       66.99967
2013    22      4       0.2093157       56.12539
2013    22      5       0.2133812       56.75825
2013    22      6       0.1713512       47.36704
2013    22      7       0.1580269       44.21409
2013    23      0       0.203967        54.16934
2013    23      1       0.178908        48.68145
2013    23      2       0.2525275       63.6209
2013    23      3       0.2441146       62.4811
2013    23      4       0.2124948       55.93862
2013    23      5       0.2313          59.99509
2013    23      6       0.2775716       68.76366
2013    23      7       0.3834675       87.50165
2013    24      0       0.4570744       100.6584
2013    24      1       0.5154865       110.1851
2013    24      2       0.6490899       129.5804
2013    24      3       0.7230267       139.331
2013    24      4       0.6525425       130.3239
2013    24      5       0.6156924       125.5559
2013    24      6       0.6080335       124.2956
2013    24      7       0.4843734       105.3794
2013    25      0       0.4811522       104.3957
2013    25      1       0.526269        111.2791
2013    25      2       0.6016799       122.8038
2013    25      3       0.5524755       115.9363
2013    25      4       0.4175196       93.88804
2013    25      5       0.3952988       89.2866
2013    25      6       0.3893594       88.07218
2013    25      7       0.4504812       98.64011
2013    26      0       0.4431537       97.7431
2013    26      1       0.2691638       66.0209
2013    26      2       0.3329083       77.1977
2013    26      3       0.4343234       94.18498
2013    26      4       0.3537215       80.7083
2013    26      5       0.2666494       65.13148
2013    26      6       0.2385587       60.06776
2013    26      7       0.3011581       72.30376
2013    27      0       0.4025239       91.08271
2013    27      1       0.3743309       86.47342
2013    27      2       0.4477327       98.92791
2013    27      3       0.5636895       115.6937
2013    27      4       0.8157117       147.596
2013    27      5       0.6171313       123.4454
2013    27      6       0.7535586       143.0619
2013    27      7       0.8538111       155.2381
2013    28      0       0.658106        130.4824
2013    28      1       0.606676        123.0545
2013    28      2       0.8050014       148.747
2013    28      3       0.9358582       162.3131
2013    28      4       0.9192128       159.5363
2013    28      5       0.9661532       164.5985
2013    28      6       1.145473        181.5747
2013    28      7       1.180937        185.2521
2013    29      0       1.253493        191.704
2013    29      1       1.153146        183.6165
2013    29      2       1.005357        169.0443
2013    29      3       0.7933503       147.5181
2013    29      4       0.5562563       116.8734
2013    29      5       0.4866238       106.3043
2013    29      6       0.6049779       124.34
2013    29      7       1.025492        173.1591
2013    30      0       1.246265        191.4256
2013    30      1       1.187124        185.9625
2013    30      2       1.255388        190.3065
2013    30      3       1.337811        195.682
2013    30      4       1.419238        202.1112
2013    30      5       1.212433        188.2855
2013    30      6       1.029382        173.3014
2013    30      7       1.019795        173.1473
2013    31      0       0.9081623       162.7067
2013    31      1       0.6618972       133.3771
2013    31      2       0.5739187       120.8434
2013    31      3       0.5332622       114.5115
2013    31      4       0.3811821       89.1102
2013    31      5       0.17384         47.68344
2013    31      6       0.1314483       38.00597
2013    31      7       0.1645463       45.42123
2014    1       0       0.724892        138.7775
2014    1       1       1.162003        181.7009
2014    1       2       1.183798        182.7256
2014    1       3       1.131426        177.9129
2014    1       4       1.106051        176.263
2014    1       5       0.8190024       148.5104
2014    1       6       1.302024        192.0767
2014    1       7       1.476218        202.5363
2014    2       0       1.200674        183.7207
2014    2       1       1.049475        171.6962
2014    2       2       0.8562756       154.1896
2014    2       3       0.565256        118.3695
2014    2       4       0.4195671       95.21631
2014    2       5       0.3950136       89.41539
2014    2       6       0.5027043       106.8224
2014    2       7       0.612078        122.9379
2014    3       0       0.7166155       135.838
2014    3       1       0.6373882       126.2923
2014    3       2       0.6688279       131.9073
2014    3       3       0.684389        135.4288
2014    3       4       0.5167204       112.1785
2014    3       5       0.3565645       85.00284
2014    3       6       0.329157        78.66981
2014    3       7       0.4363519       96.3021
2014    4       0       0.5542625       114.3263
2014    4       1       0.5843174       118.9255
2014    4       2       0.8810499       156.4276
2014    4       3       1.052991        174.3435
2014    4       4       1.090988        178.1733
2014    4       5       1.205806        189.6894
2014    4       6       0.9695099       168.8766
2014    4       7       0.8261022       151.8333
2014    5       0       0.6616989       129.022
2014    5       1       0.5462784       112.7095
2014    5       2       0.5529393       114.2468
2014    5       3       0.5784423       118.4307
2014    5       4       0.6007864       121.6712
2014    5       5       0.6073192       122.9441
2014    5       6       0.7059614       136.1232
2014    5       7       0.8017698       148.5404
2014    6       0       0.8280842       152.3793
2014    6       1       0.8311947       152.4531
2014    6       2       1.167302        185.179
2014    6       3       1.530416        209.8412
2014    6       4       1.592288        214.1133
2014    6       5       1.596445        214.9002
2014    6       6       1.437991        204.9434
2014    6       7       0.5587392       118.1365
2014    7       0       0.3608358       84.88687
2014    7       1       0.4614938       102.9475
2014    7       2       0.4895717       106.7098
2014    7       3       0.5396393       113.2869
2014    7       4       0.4038128       92.36
2014    7       5       0.2561904       64.26918
2014    7       6       0.296516        71.90136
2014    7       7       0.3187173       75.59697
2014    8       0       0.3194683       74.63479
2014    8       1       0.2353854       58.69912
2014    8       2       0.1718465       46.00205
2014    8       3       0.1326023       38.14376
2014    8       4       0.1349684       38.71384
2014    8       5       0.1639266       45.46205
2014    8       6       0.1619013       45.06981
2014    8       7       0.1436375       40.69827
2014    9       0       0.1348113       38.4702
2014    9       1       0.1546701       42.63367
2014    9       2       0.2001156       51.85957
2014    9       3       0.2420056       59.96529
2014    9       4       0.2656666       64.43923
2014    9       5       0.3097483       73.00497
2014    9       6       0.370252        83.84267
2014    9       7       0.3882746       87.27597
2014    10      0       0.3908732       88.0146
2014    10      1       0.4019627       89.17168
2014    10      2       0.4222549       92.31611
2014    10      3       0.4439733       96.13408
2014    10      4       0.5051705       105.4132
2014    10      5       0.3263442       76.43517
2014    10      6       0.374109        85.33627
2014    10      7       0.4973925       107.1965
2014    11      0       0.8047962       148.6875
2014    11      1       1.102419        180.6199
2014    11      2       0.7091582       135.8907
2014    11      3       0.4382255       95.72374
2014    11      4       0.3665327       83.22222
2014    11      5       0.3329685       77.3067
2014    11      6       0.3208855       75.31645
2014    11      7       0.3804871       86.85678
2014    12      0       0.375449        86.69425
2014    12      1       0.3454314       81.6765
2014    12      2       0.3333561       79.91028
2014    12      3       0.2809078       70.08474
2014    12      4       0.2584656       65.52702
2014    12      5       0.2970045       73.28559
2014    12      6       0.4194318       95.23956
2014    12      7       0.5338041       113.2688
2014    13      0       0.668015        131.8289
2014    13      1       0.6728327       132.5839
2014    13      2       0.6989405       136.1004
2014    13      3       0.7921169       145.4313
2014    13      4       1.061384        172.2088
2014    13      5       0.9117936       158.303
2014    13      6       0.6659608       130.0832
2014    13      7       0.6737069       131.0509
2014    14      0       0.7315751       138.1381
2014    14      1       0.5141211       108.8884
2014    14      2       0.4066494       91.98495
2014    14      3       0.3735911       86.40916
2014    14      4       0.3448507       81.2313
2014    14      5       0.2394028       60.97018
2014    14      6       0.2252463       57.62477
2014    14      7       0.368932        84.89557
2014    15      0       0.5277012       111.2276
2014    15      1       0.5496181       115.2045
2014    15      2       0.6404615       128.1002
2014    15      3       0.5032318       109.3016
2014    15      4       0.1580181       44.63502
2014    15      5       0.1564591       43.42081
2014    15      6       0.1704678       46.66312
2014    15      7       0.1724082       47.09864
2014    16      0       0.157674        44.27778
2014    16      1       0.1616443       45.1534
2014    16      2       0.2252096       58.84045
2014    16      3       0.2404084       62.18314
2014    16      4       0.2210453       58.07343
2014    16      5       0.2304007       59.73103
2014    16      6       0.3070113       74.70832
2014    16      7       0.3325997       80.12917
2014    17      0       0.3371702       81.54879
2014    17      1       0.2873025       72.04032
2014    17      2       0.2658375       67.35616
2014    17      3       0.266573        67.49543
2014    17      4       0.2497926       64.22715
2014    17      5       0.1403887       40.46674
2014    17      6       0.2001192       53.93711
2014    17      7       0.2374223       61.55581
2014    18      0       0.1474451       41.60722
2014    18      1       0.2022596       53.73846
2014    18      2       0.2621536       65.99657
2014    18      3       0.2245009       58.11701
2014    18      4       0.1755003       47.87147
2014    18      5       0.1860675       50.0173
2014    18      6       0.1923804       51.49063
2014    18      7       0.1891425       51.06936
2014    19      0       0.2178119       57.37618
2014    19      1       0.2189521       57.65913
2014    19      2       0.2082894       55.04611
2014    19      3       0.2018892       53.64248
2014    19      4       0.2174665       56.80501
2014    19      5       0.2101623       55.27915
2014    19      6       0.1890554       50.88925
2014    19      7       0.1939112       51.86697
2014    20      0       0.215611        56.41223
2014    20      1       0.2019382       53.55955
2014    20      2       0.2191765       57.08221
2014    20      3       0.2682262       66.79559
2014    20      4       0.3483624       81.22881
2014    20      5       0.4089953       91.39741
2014    20      6       0.5021564       106.0401
2014    20      7       0.4387003       96.73815
2014    21      0       0.442746        97.58485
2014    21      1       0.4433264       97.85989
2014    21      2       0.4204129       94.24386
2014    21      3       0.3731274       86.28776
2014    21      4       0.451062        98.72092
2014    21      5       0.498276        106.9141
2014    21      6       0.4673789       102.684
2014    21      7       0.5471687       115.6808
2014    22      0       0.5574725       116.965
2014    22      1       0.5076669       109.7439
2014    22      2       0.668376        133.1356
2014    22      3       0.7394055       142.2113
2014    22      4       0.6261482       126.863
2014    22      5       0.5664353       118.2564
2014    22      6       0.5251324       112.4481
2014    22      7       0.5053036       109.7669
2014    23      0       0.4043288       93.50746
2014    23      1       0.2308411       60.45525
2014    23      2       0.1594731       44.91212
2014    23      3       0.1615211       45.29447
2014    23      4       0.1881023       50.96045
2014    23      5       0.1921174       51.46827
2014    23      6       0.3639717       85.02845
2014    23      7       0.7653964       144.7459
2014    24      0       0.9828588       168.3192
2014    24      1       1.016105        171.5825
2014    24      2       0.8225274       151.0787
2014    24      3       0.5277307       111.1176
2014    24      4       0.4191484       93.33869
2014    24      5       0.3584          82.72146
2014    24      6       0.4663876       101.4028
2014    24      7       0.7020547       135.5958
2014    25      0       0.7629901       143.3519
2014    25      1       0.6006072       121.9768
2014    25      2       0.5277158       110.9247
2014    25      3       0.6765284       132.2331
2014    25      4       0.6854608       133.6056
2014    25      5       0.6100866       123.5737
2014    25      6       0.5326531       113.0364
2014    25      7       0.5587941       117.2917
2014    26      0       0.4169059       93.98071
2014    26      1       0.3194986       76.76353
2014    26      2       0.3509981       81.81769
2014    26      3       0.5981526       120.7226
2014    26      4       0.4281058       95.74592
2014    26      5       0.4785927       103.2824
2014    26      6       0.6072215       123.4038
2014    26      7       0.5041108       108.0576
2014    27      0       0.4702716       101.3117
2014    27      1       0.5904473       119.8655
2014    27      2       0.639012        127.435
2014    27      3       0.7088351       137.6417
2014    27      4       0.6296495       127.5115
2014    27      5       0.5514613       115.4046
2014    27      6       0.5814372       119.1084
2014    27      7       0.7921999       145.1488
2014    28      0       0.5770771       119.9479
2014    28      1       0.4094429       93.71474
2014    28      2       0.2874167       70.36834
2014    28      3       0.3455871       79.94984
2014    28      4       0.3809433       86.48324
2014    28      5       0.6476292       128.5609
2014    28      6       0.6022223       122.9969
2014    28      7       0.6349869       126.7222
2014    29      0       0.805338        148.1507
2014    29      1       0.8575889       155.3543
2014    29      2       0.7329935       142.0318
2014    29      3       0.6286993       128.3988
2014    29      4       0.5180431       112.2595
2014    29      5       0.3928267       91.33055
2014    29      6       0.4541507       101.5247
2014    29      7       0.660553        131.2939
2014    30      0       0.6940239       136.0327
2014    30      1       0.7991981       149.0985
2014    30      2       0.8138752       150.4985
2014    30      3       0.8802555       156.8851
2014    30      4       0.7549729       142.6992
2014    30      5       0.07464255      24.67371
2014    30      6       0.08789721      27.64434
2014    30      7       0.1674262       45.26679
2014    31      0       0.2650042       65.96765
2014    31      1       0.4181601       93.45611
2014    31      2       0.4675269       101.7391
2014    31      3       0.5631819       116.0563
2014    31      4       0.6941143       134.0415
2014    31      5       0.7627065       142.9846
2014    31      6       0.8180859       149.789
2014    31      7       0.7708469       144.2904
2015    1       0       0.3147572       73.89193
2015    1       1       0.2158433       54.8077
2015    1       2       0.3261172       75.72127
2015    1       3       0.5604916       114.0838
2015    1       4       0.7707658       142.4203
2015    1       5       0.9596905       163.3822
2015    1       6       1.189242        183.0047
2015    1       7       1.211137        185.188
2015    2       0       1.132616        179.2277
2015    2       1       0.9911398       166.4235
2015    2       2       0.6672938       131.0371
2015    2       3       0.4529109       99.6229
2015    2       4       0.5975453       120.7079
2015    2       5       0.5583386       114.9505
2015    2       6       0.6005268       119.3901
2015    2       7       0.6141698       120.994
2015    3       0       0.7277792       136.7875
2015    3       1       0.3983324       89.39321
2015    3       2       0.3876036       87.35756
2015    3       3       0.4578101       98.86104
2015    3       4       0.5024012       105.3766
2015    3       5       0.4976789       104.5022
2015    3       6       0.4426809       96.07095
2015    3       7       0.4279959       94.81868
2015    4       0       0.5008773       107.0116
2015    4       1       0.386168        88.56706
2015    4       2       0.323053        77.26478
2015    4       3       0.2893238       71.03251
2015    4       4       0.1911813       51.305
2015    4       5       0.1017975       31.21316
2015    4       6       0.1002453       30.71781
2015    4       7       0.1289155       37.34735
2015    5       0       0.1395958       39.8266
2015    5       1       0.1319629       38.11682
2015    5       2       0.144107        40.86748
2015    5       3       0.149551        42.07668
2015    5       4       0.1319386       38.07099
2015    5       5       0.1211059       35.56041
2015    5       6       0.1125383       33.54535
2015    5       7       0.1111668       33.25194
2015    6       0       0.1056825       31.98391
2015    6       1       0.08279417      26.44548
2015    6       2       0.07782683      25.25687
2015    6       3       0.08239884      26.33324
2015    6       4       0.09956443      30.3058
2015    6       5       0.1458938       40.78741
2015    6       6       0.1989782       52.53952
2015    6       7       0.1863304       50.09549
2015    7       0       0.1748192       47.71688
2015    7       1       0.2015413       53.24675
2015    7       2       0.2381082       60.37288
2015    7       3       0.2793873       68.39155
2015    7       4       0.3948556       89.36702
2015    7       5       0.4306825       95.46281
2015    7       6       0.4349078       96.41085
2015    7       7       0.4486758       98.99491
2015    8       0       0.4714145       102.9619
2015    8       1       0.3891544       89.75464
2015    8       2       0.3645519       85.57364
2015    8       3       0.3982803       91.169
2015    8       4       0.4076052       92.98766
2015    8       5       0.32521         78.81709
2015    8       6       0.2554856       65.47719
2015    8       7       0.3057918       75.52036
2015    9       0       0.3123954       77.05762
2015    9       1       0.2564088       65.85005
2015    9       2       0.2642073       67.38723
2015    9       3       0.297595        73.77706
2015    9       4       0.2837352       71.07768
2015    9       5       0.2983314       73.53054
2015    9       6       0.3114837       76.15739
2015    9       7       0.3302996       79.97821
2015    10      0       0.2992138       74.20709
2015    10      1       0.1783468       49.24621
2015    10      2       0.1232511       36.61153
2015    10      3       0.1087701       33.0653
2015    10      4       0.1037355       31.72478
2015    10      5       0.1142691       33.98034
2015    10      6       0.1379647       39.36482
2015    10      7       0.2172579       55.87316
2015    11      0       0.3199715       75.35698
2015    11      1       0.3094683       73.45789
2015    11      2       0.3993976       88.54326
2015    11      3       0.5212089       107.9903
2015    11      4       0.8359151       149.1167
2015    11      5       1.497202        206.6659
2015    11      6       1.265803        191.7386
2015    11      7       1.717349        218.3182
2015    12      0       2.034354        231.4536
2015    12      1       1.72104         220.6616
2015    12      2       1.313852        196.4784
2015    12      3       0.5861463       123.3677
2015    12      4       0.3029784       75.72781
2015    12      5       0.2765515       70.4749
2015    12      6       0.25003         64.93013
2015    12      7       0.202874        54.79806
2015    13      0       0.2295313       60.10467
2015    13      1       0.2671769       67.55358
2015    13      2       0.2884529       71.28466
2015    13      3       0.2804174       69.78507
2015    13      4       0.2679587       67.00393
2015    13      5       0.2658057       65.53411
2015    13      6       0.280162        68.37049
2015    13      7       0.3046808       73.29146
2015    14      0       0.3240897       76.86331
2015    14      1       0.2863145       68.70338
2015    14      2       0.3340143       77.64916
2015    14      3       0.4201635       93.319
2015    14      4       0.4920715       105.3573
2015    14      5       0.5822441       119.0993
2015    14      6       0.6850547       133.8855
2015    14      7       0.8054283       149.7486
2015    15      0       0.8473512       155.189
2015    15      1       0.7597663       144.6111
2015    15      2       0.6445574       128.8191
2015    15      3       0.7284659       140.7994
2015    15      4       0.7484094       143.9934
2015    15      5       0.6243985       127.8835
2015    15      6       0.6434516       130.6298
2015    15      7       0.7923246       149.967
2015    16      0       0.9021174       162.7564
2015    16      1       0.7197661       141.3793
2015    16      2       0.5855822       121.8458
2015    16      3       0.5350811       112.7401
2015    16      4       0.5101415       108.6454
2015    16      5       0.4825117       105.2579
2015    16      6       0.666786        133.0943
2015    16      7       0.8790666       158.6957
2015    17      0       0.8290351       153.5769
2015    17      1       0.7036192       138.7415
2015    17      2       0.6705349       134.2389
2015    17      3       0.672792        134.1849
2015    17      4       0.7572128       144.4283
2015    17      5       0.676981        133.5148
2015    17      6       0.7358218       141.5538
2015    17      7       0.9174905       162.3732
2015    18      0       0.9397132       164.0077
2015    18      1       0.8883793       157.8382
2015    18      2       0.8467304       153.3899
2015    18      3       0.9126568       160.6068
2015    18      4       1.000727        168.3963
2015    18      5       0.9572791       162.925
2015    18      6       1.041602        171.6363
2015    18      7       1.246265        189.1035
2015    19      0       1.515052        207.1475
2015    19      1       1.490613        206.0154
2015    19      2       1.601741        212.5936
2015    19      3       1.536018        209.0681
2015    19      4       1.172261        184.3893
2015    19      5       1.267623        191.5208
2015    19      6       1.07595         175.652
2015    19      7       0.7558411       144.2875
2015    20      0       0.6540606       132.2014
2015    20      1       0.3995205       92.87477
2015    20      2       0.2266488       59.61501
2015    20      3       0.2088548       55.74519
2015    20      4       0.1878373       51.11269
2015    20      5       0.1692096       46.61398
2015    20      6       0.1673427       46.33935
2015    20      7       0.2646148       67.29663
2015    21      0       0.3813197       89.45913
2015    21      1       0.2063281       54.7645
2015    21      2       0.1682542       46.03947
2015    21      3       0.1958904       51.7184
2015    21      4       0.3082053       73.4625
2015    21      5       0.3780648       85.42293
2015    21      6       0.3189814       75.1659
2015    21      7       0.3141463       74.54958
2015    22      0       0.4318407       95.68629
2015    22      1       0.466998        102.4269
2015    22      2       0.4316257       96.06899
2015    22      3       0.519817        109.4305
2015    22      4       0.4905565       105.762
2015    22      5       0.4914964       104.9913
2015    22      6       0.5452641       112.4672
2015    22      7       0.3841062       87.144
2015    23      0       0.2973131       71.05787
2015    23      1       0.5037806       107.0192
2015    23      2       0.2301674       58.6094
2015    23      3       0.2257843       59.27212
2015    23      4       0.2948152       72.97089
2015    23      5       0.3604477       85.3726
2015    23      6       0.4932415       106.8912
2015    23      7       0.4787873       104.4899
2015    24      0       0.4304848       97.41046
2015    24      1       0.4132165       94.75942
2015    24      2       0.5218025       111.7216
2015    24      3       0.5444578       115.3081
2015    24      4       0.6100077       124.1008
2015    24      5       0.8622874       155.129
2015    24      6       0.7321302       141.3766
2015    24      7       0.6404128       130.184
2015    25      0       0.5296469       114.1358
2015    25      1       0.5414118       114.645
2015    25      2       0.8338343       153.6689
2015    25      3       1.142501        184.6785
2015    25      4       0.8172989       153.1844
2015    25      5       0.5257161       114.2609
2015    25      6       0.4950931       108.5981
2015    25      7       0.4216898       96.74488
2015    26      0       0.3282282       80.14687
2015    26      1       0.2350696       61.17016
2015    26      2       0.2592833       65.72253
2015    26      3       0.2838438       70.34999
2015    26      4       0.272949        67.9661
2015    26      5       0.2636399       65.99368
2015    26      6       0.2980759       72.76524
2015    26      7       0.3777554       87.72574
2015    27      0       0.5081574       110.2178
2015    27      1       0.5234781       112.7226
2015    27      2       0.533451        114.1204
2015    27      3       0.5329956       114.1072
2015    27      4       0.4738646       104.8409
2015    27      5       0.4183427       95.55484
2015    27      6       0.3830458       89.43568
2015    27      7       0.4653239       104.2496
2015    28      0       0.4826655       107.3103
2015    28      1       0.3720265       87.83347
2015    28      2       0.2873123       71.55017
2015    28      3       0.2271027       59.18266
2015    28      4       0.184357        50.16725
2015    28      5       0.1652347       46.00357
2015    28      6       0.1497282       42.57227
2015    28      7       0.1876281       51.46766
2015    29      0       0.2623073       67.24799
2015    29      1       0.2521745       64.93979
2015    29      2       0.2441961       62.94414
2015    29      3       0.2322115       60.17178
2015    29      4       0.2641078       66.41262
2015    29      5       0.3079474       75.155
2015    29      6       0.3424883       82.09201
2015    29      7       0.4312985       98.10516
2015    30      0       0.5024446       110.0237
2015    30      1       0.4365584       99.51339
2015    30      2       0.4120647       95.23429
2015    30      3       0.394849        91.96624
2015    30      4       0.3214324       78.21867
2015    30      5       0.2369018       61.22161
2015    30      6       0.2467958       63.21679
2015    30      7       0.3647532       86.68287
2015    31      0       0.4523618       102.1754
2015    31      1       0.4047545       94.10683
2015    31      2       0.3818268       89.77159
2015    31      3       0.3127864       76.32559
2015    31      4       0.3033422       73.88836
2015    31      5       0.3541791       83.09898
2015    31      6       0.4261643       95.63106
2015    31      7       0.4545775       100.6592
2016    1       0       0.4924065       108.9533
2016    1       1       0.3971912       93.0003
2016    1       2       0.445938        100.8801
2016    1       3       0.5115083       111.2982
2016    1       4       0.7461832       142.9973
2016    1       5       0.8030468       150.0626
2016    1       6       0.7488788       144.8331
2016    1       7       0.6517348       132.5077
2016    2       0       0.4979795       109.7565
2016    2       1       0.3946759       92.03424
2016    2       2       0.3878078       90.75938
2016    2       3       0.3314961       80.46465
2016    2       4       0.2592692       66.04193
2016    2       5       0.2255633       58.85519
2016    2       6       0.2483325       63.3235
2016    2       7       0.2546684       64.42019
2016    3       0       0.254035        64.03016
2016    3       1       0.2316482       59.54154
2016    3       2       0.2321724       59.48139
2016    3       3       0.2195377       56.98073
2016    3       4       0.2186738       56.63779
2016    3       5       0.2140414       55.55342
2016    3       6       0.2339406       59.57687
2016    3       7       0.2615993       65.28862
2016    4       0       0.2690481       66.84221
2016    4       1       0.2721625       67.31167
2016    4       2       0.2609165       65.306
2016    4       3       0.2437709       62.16952
2016    4       4       0.2676268       66.83776
2016    4       5       0.2862288       71.04608
2016    4       6       0.3186549       77.00522
2016    4       7       0.3304619       78.91461
2016    5       0       0.3808252       87.27007
2016    5       1       0.5752102       116.4362
2016    5       2       0.6001878       122.8156
2016    5       3       1.045943        174.2217
2016    5       4       1.273913        194.5005
2016    5       5       1.561529        212.1537
2016    5       6       1.785313        222.9366
2016    5       7       1.825307        224.649
2016    6       0       1.176235        186.8705
2016    6       1       1.025283        172.3174
2016    6       2       0.9023692       160.5686
2016    6       3       0.7984824       149.4526
2016    6       4       1.217051        189.981
2016    6       5       0.6035491       125.1708
2016    6       6       0.155373        43.97513
2016    6       7       0.1034789       31.72799
2016    7       0       0.09555755      29.63139
2016    7       1       0.1921336       51.16351
2016    7       2       0.2787395       68.64353
2016    7       3       0.3474691       81.48314
2016    7       4       0.2928998       70.86356
2016    7       5       0.8259508       148.5334
2016    7       6       1.189364        179.6699
2016    7       7       0.8751402       152.2146
2016    8       0       0.8417277       149.1625
2016    8       1       0.5857265       117.2819
2016    8       2       0.4698643       99.95758
2016    8       3       0.4714523       101.3401
2016    8       4       0.3705097       85.22028
2016    8       5       0.2774259       68.38483
2016    8       6       0.2221637       57.52122
2016    8       7       0.2799749       68.6796
2016    9       0       0.3433792       79.85844
2016    9       1       0.6918531       134.1447
2016    9       2       0.9468843       164.6463
2016    9       3       1.139824        182.9333
2016    9       4       0.8831941       159.5604
2016    9       5       0.6396218       129.3381
2016    9       6       0.7609048       144.8894
2016    9       7       0.8520733       155.706
2016    10      0       0.6868098       136.0448
2016    10      1       0.4646624       103.5227
2016    10      2       0.3797698       88.89857
2016    10      3       0.3562933       84.5433
2016    10      4       0.2981861       73.35351
2016    10      5       0.2292907       60.17526
2016    10      6       0.1775423       49.17108
2016    10      7       0.2432213       62.45066
2016    11      0       0.3513315       82.44419
2016    11      1       0.3586842       83.00668
2016    11      2       0.3063175       73.91665
2016    11      3       0.3031297       72.87361
2016    11      4       0.3218912       76.72367
2016    11      5       0.2747009       67.65315
2016    11      6       0.2876429       70.26697
2016    11      7       0.3896292       89.77966
2016    12      0       1.044218        174.3623
2016    12      1       0.2084735       54.51416
2016    12      2       0.2339669       59.33943
2016    12      3       0.3412828       80.51653
2016    12      4       0.4786303       104.6685
2016    12      5       0.4224481       95.41968
2016    12      6       0.3347944       80.00972
2016    12      7       0.3327892       79.8481
2016    13      0       0.421693        95.23461
2016    13      1       0.4903207       106.9129
2016    13      2       0.5330904       113.9383
2016    13      3       0.5140382       110.6282
2016    13      4       0.4701708       103.8953
2016    13      5       0.5521925       116.4222
2016    13      6       1.088423        179.2564
2016    13      7       1.2487          193.188
2016    14      0       1.31541         198.4061
2016    14      1       1.178378        188.6672
2016    14      2       1.308541        198.8141
2016    14      3       1.236669        193.9977
2016    14      4       1.084135        180.9728
2016    14      5       0.890305        161.519
2016    14      6       0.9560031       166.6817
2016    14      7       1.013544        171.9809
2016    15      0       0.8277511       152.1656
2016    15      1       0.7614819       144.5279
2016    15      2       0.8403636       154.8781
2016    15      3       0.9157058       163.2951
2016    15      4       0.7901998       148.8925
2016    15      5       0.7809181       147.3846
2016    15      6       0.8617652       156.4998
2016    15      7       1.034919        173.9931
2016    16      0       0.986551        169.7366
2016    16      1       0.7703471       146.7496
2016    16      2       0.5486375       116.7629
2016    16      3       0.4445321       100.2321
2016    16      4       0.4240928       96.88239
2016    16      5       0.4210172       96.42882
2016    16      6       0.4489093       101.1446
2016    16      7       0.4974683       109.0342
2016    17      0       0.5672434       119.7231
2016    17      1       0.4912884       108.2172
2016    17      2       0.4314286       98.25341
2016    17      3       0.439039        99.39284
2016    17      4       0.4333082       98.42893
2016    17      5       0.3933231       91.54967
2016    17      6       0.3959527       92.35906
2016    17      7       0.652017        132.603
2016    18      0       0.8013156       151.5055
2016    18      1       0.6138203       127.183
2016    18      2       0.4487187       101.6204
2016    18      3       0.3805643       89.64389
2016    18      4       0.3262076       79.45798
2016    18      5       0.2968037       73.73999
2016    18      6       0.3271116       79.87013
2016    18      7       0.4856883       107.957
2016    19      0       0.5785704       122.0704
2016    19      1       0.5392362       115.9906
2016    19      2       0.4571633       102.1147
2016    19      3       0.4311149       96.98261
2016    19      4       0.4172978       94.43915
2016    19      5       0.4285673       96.26325
2016    19      6       0.5509396       115.3752
2016    19      7       0.703297        136.6808
2016    20      0       0.6270203       126.8191
2016    20      1       0.4321846       97.19817
2016    20      2       0.3487901       83.20899
2016    20      3       0.3047949       74.74961
2016    20      4       0.1916898       51.19644
2016    20      5       0.1556132       42.82457
2016    20      6       0.2249497       57.39524
2016    20      7       0.3192338       76.63437
2016    21      0       0.3843806       88.6898
2016    21      1       0.3804039       87.98829
2016    21      2       0.4465418       99.03826
2016    21      3       0.5018775       108.3288
2016    21      4       0.5142631       109.6118
2016    21      5       0.5522561       114.5737
2016    21      6       0.4494608       98.84213
2016    21      7       0.4530679       98.83777
2016    22      0       0.4646113       100.6735
2016    22      1       0.6735093       132.1359
2016    22      2       0.6150085       126.92
2016    22      3       0.3467281       81.72234
2016    22      4       0.5493815       115.7275
2016    22      5       0.5751792       119.9852
2016    22      6       0.1104413       32.70398
2016    22      7       0.1148763       33.69073
2016    23      0       0.160602        43.96203
2016    23      1       0.2336718       59.6062
2016    23      2       0.288708        71.21213
2016    23      3       0.3396295       80.91925
2016    23      4       0.3329364       79.86277
2016    23      5       0.3648526       85.19283
2016    23      6       0.4164959       93.45863
2016    23      7       0.437018        96.91695
2016    24      0       0.5273548       111.5502
2016    24      1       0.5732987       119.1915
2016    24      2       0.597708        122.9819
2016    24      3       0.6080995       124.4323
2016    24      4       0.7626712       144.4514
2016    24      5       0.7635923       145.4781
2016    24      6       0.5497649       117.2507
2016    24      7       0.360165        85.69454
2016    25      0       0.4260549       96.50106
2016    25      1       0.3846365       89.24558
2016    25      2       0.4456342       99.63536
2016    25      3       0.5009914       108.9276
2016    25      4       0.442368        99.13599
2016    25      5       0.4496503       99.70933
2016    25      6       0.548228        114.7077
2016    25      7       0.8208562       149.627
2016    26      0       1.088728        176.4032
2016    26      1       0.7116314       138.4555
2016    26      2       0.6002344       124.5723
2016    26      3       0.544408        116.9158
2016    26      4       0.4706348       104.6473
2016    26      5       0.424352        96.31842
2016    26      6       0.431472        97.20359
2016    26      7       0.463983        102.0134
2016    27      0       0.4920437       106.1101
2016    27      1       0.4785783       104.0798
2016    27      2       0.4835798       105.4386
2016    27      3       0.4598635       101.9384
2016    27      4       0.4787733       105.0694
2016    27      5       0.4946306       107.687
2016    27      6       0.5399307       114.9928
2016    27      7       0.704398        137.6142
2016    28      0       0.7054392       137.0677
2016    28      1       0.6055548       123.673
2016    28      2       0.5355536       114.3498
2016    28      3       0.4399175       99.19678
2016    28      4       0.3909685       88.57183
2016    28      5       0.5510647       112.7213
2016    28      6       0.8322944       153.6873
2016    28      7       0.6436498       129.3146
2016    29      0       0.5292585       111.2572
2016    29      1       0.3587165       82.49737
2016    29      2       0.2031133       52.741
2016    29      3       0.1079503       32.24435
2016    29      4       0.2013416       52.87772
2016    29      5       0.2670511       65.91755
2016    29      6       0.2425817       61.16829
2016    29      7       0.3160904       74.88447
2016    30      0       0.5723309       115.6907
2016    30      1       0.3681243       83.91619
2016    30      2       0.1955005       51.44286
2016    30      3       0.2077311       53.41394
2016    30      4       0.2842848       68.03375
2016    30      5       0.3686149       82.85372
2016    30      6       0.3896986       87.16959
2016    30      7       0.7530914       138.7506
2016    31      0       0.7840914       142.24
2016    31      1       0.5909201       118.4891
2016    31      2       0.4706712       101.0905
2016    31      3       0.342892        79.73466
2016    31      4       0.3208145       75.78665
2016    31      5       0.309437        74.04158
2016    31      6       0.3474151       80.82004
2016    31      7       0.5477276       113.4193
2017    1       0       0.2982281       73.10336
2017    1       1       0.2870445       70.8662
2017    1       2       0.2723305       67.80782
2017    1       3       0.2708486       67.37648
2017    1       4       0.2172314       56.99259
2017    1       5       0.1590152       44.62553
2017    1       6       0.1352724       39.19291
2017    1       7       0.1201655       35.6238
2017    2       0       0.1088381       32.89936
2017    2       1       0.1014847       31.14462
2017    2       2       0.1019633       31.17956
2017    2       3       0.1017341       30.98226
2017    2       4       0.1092037       32.66892
2017    2       5       0.1167253       34.40163
2017    2       6       0.1257311       36.52607
2017    2       7       0.1363069       38.9019
2017    3       0       0.136623        38.87136
2017    3       1       0.1300609       37.51338
2017    3       2       0.1304069       37.78207
2017    3       3       0.1352019       38.95074
2017    3       4       0.1226751       36.0354
2017    3       5       0.1118371       33.51676
2017    3       6       0.1124239       33.79281
2017    3       7       0.1184495       35.17182
2017    4       0       0.1767047       48.3907
2017    4       1       0.1527304       42.22732
2017    4       2       0.1835652       48.19861
2017    4       3       0.2563607       62.16982
2017    4       4       0.3269292       74.91847
2017    4       5       0.4624408       97.92889
2017    4       6       0.5075563       105.0327
2017    4       7       0.5569004       113.1428
2017    5       0       0.9797689       164.6428
2017    5       1       0.7416388       138.7402
2017    5       2       1.125484        180.4889
2017    5       3       1.322723        197.098
2017    5       4       1.298298        193.6441
2017    5       5       1.144891        182.728
2017    5       6       0.296378        73.08642
2017    5       7       0.3090417       75.65371
2017    6       0       0.233955        60.55261
2017    6       1       0.2248527       59.07561
2017    6       2       0.2182837       57.89098
2017    6       3       0.202475        54.14917
2017    6       4       0.2426703       62.15092
2017    6       5       0.3084487       75.24791
2017    6       6       0.3315815       79.88365
2017    6       7       0.436012        98.04481
2017    7       0       0.5726854       119.5854
2017    7       1       0.6088705       125.459
2017    7       2       0.6822869       134.8869
2017    7       3       0.8796516       157.269
2017    7       4       0.8853033       157.8891
2017    7       5       1.036338        173.3319
2017    7       6       1.244188        191.3602
2017    7       7       1.266209        193.8267
2017    8       0       1.241878        193.0537
2017    8       1       1.088077        180.4384
2017    8       2       1.194738        189.1998
2017    8       3       1.229342        191.7022
2017    8       4       1.071398        178.1151
2017    8       5       0.9327837       164.5336
2017    8       6       0.9562785       166.7307
2017    8       7       0.8857125       158.7389
2017    9       0       0.6421141       128.696
2017    9       1       0.5900077       121.1039
2017    9       2       0.5817419       120.1891
2017    9       3       0.5749609       119.4828
2017    9       4       0.5363437       113.9327
2017    9       5       0.5342723       113.905
2017    9       6       0.5253691       113.0786
2017    9       7       0.4984774       109.7303
2017    10      0       0.4794444       107.1133
2017    10      1       0.3879363       91.35151
2017    10      2       0.3120896       77.02485
2017    10      3       0.2852847       71.90995
2017    10      4       0.2717088       69.16863
2017    10      5       0.2415603       62.91071
2017    10      6       0.2297898       59.96324
2017    10      7       0.3074017       74.57289
2017    11      0       0.3470783       81.43137
2017    11      1       0.3272627       77.50514
2017    11      2       0.422287        93.26831
2017    11      3       0.5136173       107.8408
2017    11      4       0.3524332       83.20955
2017    11      5       0.2965377       73.32365
2017    11      6       0.2954881       73.36174
2017    11      7       0.3705253       87.71189
2017    12      0       0.4646308       104.2798
2017    12      1       0.4201725       96.91484
2017    12      2       0.4409136       100.3033
2017    12      3       0.4944673       108.7029
2017    12      4       0.432031        98.41546
2017    12      5       0.3297321       80.27284
2017    12      6       0.3273391       79.97576
2017    12      7       0.3634347       87.40643
2017    13      0       0.3872324       91.91372
2017    13      1       0.3166198       78.57585
2017    13      2       0.2756752       70.09837
2017    13      3       0.255161        65.78101
2017    13      4       0.2100628       56.26798
2017    13      5       0.1785168       49.29435
2017    13      6       0.1748012       48.54951
2017    13      7       0.2263073       60.20033
2017    14      0       0.3140607       78.38104
2017    14      1       0.248447        65.01987
2017    14      2       0.2309949       61.29852
2017    14      3       0.2127686       57.35524
2017    14      4       0.1976026       53.90639
2017    14      5       0.1826686       50.47976
2017    14      6       0.2053268       55.52087
2017    14      7       0.3141936       78.17867
2017    15      0       0.4447154       101.9499
2017    15      1       0.3793415       89.86918
2017    15      2       0.3890623       90.29728
2017    15      3       0.5963509       121.7517
2017    15      4       0.6679392       131.4332
2017    15      5       0.862894        154.3929
2017    15      6       0.9956744       168.7126
2017    15      7       0.8220555       151.827
2017    16      0       0.743236        142.8294
2017    16      1       0.5786357       120.7798
2017    16      2       0.4757556       105.2998
2017    16      3       0.458413        102.5513
2017    16      4       0.4545694       101.6623
2017    16      5       0.4910484       107.6899
2017    16      6       0.5374795       115.5296
2017    16      7       0.6014441       125.2113
2017    17      0       0.6381243       130.4971
2017    17      1       0.5088957       111.2536
2017    17      2       0.49476         109.255
2017    17      3       0.5891439       124.1163
2017    17      4       0.6473894       132.6808
2017    17      5       0.578547        123.0282
2017    17      6       0.6046506       127.0936
2017    17      7       0.6716162       136.4675
2017    18      0       0.7537639       147.0848
2017    18      1       0.7794616       149.7489
2017    18      2       0.6833133       137.3796
2017    18      3       0.6335302       130.7009
2017    18      4       0.5643936       120.6896
2017    18      5       0.4812585       107.4788
2017    18      6       0.4971453       109.8143
2017    18      7       0.5268666       114.4528
2017    19      0       0.7524289       145.9087
2017    19      1       0.6731833       135.2928
2017    19      2       0.7625193       147.3546
2017    19      3       0.5848142       123.2698
2017    19      4       0.4860934       107.3849
2017    19      5       0.7266383       142.4085
2017    19      6       0.9038435       163.1133
2017    19      7       1.055128        178.2517
2017    20      0       1.206708        190.9675
2017    20      1       0.9245006       164.3357
2017    20      2       0.7304804       141.0374
2017    20      3       0.6288254       126.7739
2017    20      4       0.509304        108.7734
2017    20      5       0.7979639       146.7404
2017    20      6       0.8484745       154.629
2017    20      7       0.6836783       135.1771
2017    21      0       0.5866865       120.5815
2017    21      1       0.8203167       150.0277
2017    21      2       1.005244        169.9387
2017    21      3       1.193035        186.8014
2017    21      4       1.781801        224.6661
2017    21      5       1.326299        197.6808
2017    21      6       1.019275        170.9635
2017    21      7       0.7940171       148.61
2017    22      0       0.9473038       166.2328
2017    22      1       0.8863523       157.8709
2017    22      2       0.9160157       159.4568
2017    22      3       0.586383        121.5919
2017    22      4       0.5140167       109.9922
2017    22      5       0.5742826       118.3483
2017    22      6       0.9698896       165.7243
2017    22      7       0.7441753       140.1237
2017    23      0       0.394996        89.00515
2017    23      1       0.420884        92.57921
2017    23      2       0.5022234       105.8147
2017    23      3       0.2269975       57.37142
2017    23      4       0.1716731       46.23708
2017    23      5       0.1679842       45.71514
2017    23      6       0.2023079       53.23451
2017    23      7       0.2091056       55.03529
2017    24      0       0.2176941       56.46078
2017    24      1       0.2973064       71.99167
2017    24      2       0.4862234       105.8941
2017    24      3       0.6578829       131.6311
2017    24      4       0.7667348       145.9477
2017    24      5       0.7773136       147.1972
2017    24      6       0.8028872       150.7202
2017    24      7       0.9214371       163.84
2017    25      0       0.8422266       155.3739
2017    25      1       0.7982248       150.0373
2017    25      2       1.059105        176.1982
2017    25      3       1.497738        206.4298
2017    25      4       0.811632        150.2119
2017    25      5       0.1765475       48.50334
2017    25      6       0.1364337       39.15782
2017    25      7       0.173966        47.08156
2017    26      0       0.3353242       78.6489
2017    26      1       0.2840656       69.61976
2017    26      2       0.4954522       106.7566
2017    26      3       0.8242688       151.872
2017    26      4       1.077246        178.7488
2017    26      5       1.422836        204.8939
2017    26      6       1.579968        214.9634
2017    26      7       1.931966        230.5747
2017    27      0       1.659923        219.7819
2017    27      1       1.344909        201.9688
2017    27      2       0.975499        171.3339
2017    27      3       0.6230995       128.8936
2017    27      4       0.1763619       47.39521
2017    27      5       0.2229189       58.57114
2017    27      6       0.0847465       27.08927
2017    27      7       0.1187703       35.2565
2017    28      0       0.2226192       57.79925
2017    28      1       0.3799245       88.56996
2017    28      2       0.3268339       78.75047
2017    28      3       0.2497564       62.76878
2017    28      4       0.4017152       91.11769
2017    28      5       0.6266825       126.2889
2017    28      6       0.6458711       128.9573
2017    28      7       0.5778426       119.4412
2017    29      0       0.3989126       91.81896
2017    29      1       0.2853136       71.95518
2017    29      2       0.3050961       75.75112
2017    29      3       0.4222373       97.22711
2017    29      4       0.4488704       101.7789
2017    29      5       0.4954399       109.0099
2017    29      6       0.5887906       122.8052
2017    29      7       0.6613763       132.995
2017    30      0       0.7756633       147.1928
2017    30      1       0.8559846       156.4203
2017    30      2       0.971007        169.4399
2017    30      3       0.8006125       151.9383
2017    30      4       0.5036224       111.1546
2017    30      5       0.6467412       131.3454
2017    30      6       0.8764228       160.1751
2017    30      7       0.2853011       71.85565
2017    31      0       0.1447068       40.45719
2017    31      1       0.1954577       51.27117
2017    31      2       0.3631366       84.12522
2017    31      3       0.2491789       62.62299
2017    31      4       0.2659615       66.26503
2017    31      5       0.3759698       86.69438
2017    31      6       0.4884978       106.0221
2017    31      7       0.6047422       123.9601
2018    1       0       0.3891593       87.94929
2018    1       1       0.4771363       102.7881
2018    1       2       0.6287076       125.9077
2018    1       3       0.7952821       146.5778
2018    1       4       0.812523        148.4922
2018    1       5       0.7305078       138.3001
2018    1       6       0.6456486       128.4368
2018    1       7       0.4144898       94.14698
2018    2       0       0.4606827       102.7402
2018    2       1       0.3075995       75.68006
2018    2       2       0.2729211       68.55396
2018    2       3       0.3215798       77.89343
2018    2       4       0.3411599       81.31468
2018    2       5       0.3231674       77.97574
2018    2       6       0.2601728       65.9289
2018    2       7       0.2554935       65.02558
2018    3       0       0.2615315       66.40232
2018    3       1       0.2492022       64.14231
2018    3       2       0.2222208       58.46675
2018    3       3       0.2110708       55.78249
2018    3       4       0.1886829       50.76894
2018    3       5       0.1577576       43.5961
2018    3       6       0.1658102       45.05673
2018    3       7       0.1939913       50.92413
2018    4       0       0.2234264       56.77657
2018    4       1       0.1539494       43.07052
2018    4       2       0.09641581      29.9154
2018    4       3       0.1325103       37.79872
2018    4       4       0.158145        43.18114
2018    4       5       0.1310111       37.10337
2018    4       6       0.157001        42.72339
2018    4       7       0.20294         52.32109
2018    5       0       0.1934295       50.30853
2018    5       1       0.2540726       62.66738
2018    5       2       0.4252687       93.24291
2018    5       3       0.362187        83.36299
2018    5       4       0.3686633       84.76527
2018    5       5       0.4439198       97.22617
2018    5       6       0.4267915       95.83875
2018    5       7       0.3786482       88.26619
2018    6       0       0.3387845       81.10617
2018    6       1       0.3040531       74.11782
2018    6       2       0.3492257       82.37695
2018    6       3       0.4668246       101.5437
2018    6       4       0.5635955       115.2932
2018    6       5       0.5127769       107.7089
2018    6       6       0.4009273       90.27056
2018    6       7       0.3343811       78.89429
2018    7       0       0.3823606       87.68967
2018    7       1       0.4352961       96.5932
2018    7       2       0.5178233       109.1734
2018    7       3       0.6533362       128.2518
2018    7       4       0.6334798       125.1429
2018    7       5       0.8132739       145.8166
2018    7       6       1.352976        195.7698
2018    7       7       1.610154        213.6229
2018    8       0       1.357871        199.0409
2018    8       1       1.087065        179.326
2018    8       2       1.111337        181.9462
2018    8       3       1.282251        195.6486
2018    8       4       1.08988         179.5017
2018    8       5       0.7202922       137.9749
2018    8       6       0.8004432       146.3927
2018    8       7       1.102166        178.6733
2018    9       0       0.9951466       170.6336
2018    9       1       0.6357512       127.4531
2018    9       2       0.5390694       112.7386
2018    9       3       0.6094046       122.5406
2018    9       4       0.4765584       103.7265
2018    9       5       0.4592495       101.8982
2018    9       6       0.5318232       112.6012
2018    9       7       0.5853968       121.1736
2018    10      0       0.6931697       134.9149
2018    10      1       1.276645        192.2789
2018    10      2       1.703711        219.11
2018    10      3       2.008378        232.2133
2018    10      4       1.926557        229.1282
2018    10      5       1.863918        226.9933
2018    10      6       2.174294        238.0521
2018    10      7       2.176355        238.5288
2018    11      0       1.948853        231.1182
2018    11      1       1.793465        224.713
2018    11      2       1.670181        218.891
2018    11      3       1.048506        176.7735
2018    11      4       0.6439356       131.3252
2018    11      5       0.4965892       109.8308
2018    11      6       0.5531194       119.2497
2018    11      7       0.7414773       145.7571
2018    12      0       0.6616486       135.5792
2018    12      1       0.5404891       117.6912
2018    12      2       0.3512651       83.67103
2018    12      3       0.3861148       88.8106
2018    12      4       0.7818425       145.6924
2018    12      5       1.510802        210.9832
2018    12      6       0.674519        136.0222
2018    12      7       0.6192647       128.7259
2018    13      0       0.7905863       150.649
2018    13      1       1.046923        177.8054
2018    13      2       1.043912        177.6713
2018    13      3       0.7796719       149.826
2018    13      4       0.6323109       130.6974
2018    13      5       0.5493183       117.6157
2018    13      6       0.7743485       148.7693
2018    13      7       0.6306158       129.64
2018    14      0       0.4146447       94.95605
2018    14      1       0.3122246       75.95273
2018    14      2       0.3438766       81.62095
2018    14      3       0.3974283       90.7867
2018    14      4       0.4996676       107.5251
2018    14      5       0.5748539       118.7204
2018    14      6       0.5110057       108.9269
2018    14      7       0.2513712       63.69737
2018    15      0       0.196551        51.65117
2018    15      1       0.2558566       63.54619
2018    15      2       0.3605382       83.34119
2018    15      3       0.6844438       133.1114
2018    15      4       0.8604793       153.8633
2018    15      5       0.2380128       60.66478
2018    15      6       0.1746384       46.80434
2018    15      7       0.2015544       52.18265
2018    16      0       0.2814414       67.84524
2018    16      1       0.392888        88.30027
2018    16      2       0.3729221       85.32508
2018    16      3       0.2707628       66.82309
2018    16      4       0.2724782       67.30609
2018    16      5       0.2758212       67.74953
2018    16      6       0.2564017       63.81082
2018    16      7       0.2430617       61.24005
2018    17      0       0.3718111       85.09999
2018    17      1       0.5137478       108.7051
2018    17      2       0.4484734       99.20592
2018    17      3       0.2792958       69.2108
2018    17      4       0.1980659       52.22481
2018    17      5       0.230631        58.22822
2018    17      6       0.2710303       65.65231
2018    17      7       0.4617971       98.89105
2018    18      0       0.4737817       100.5589
2018    18      1       0.3332886       77.39788
2018    18      2       0.3523545       81.31126
2018    18      3       0.2152729       55.44133
2018    18      4       0.1566425       43.21112
2018    18      5       0.1567197       43.30685
2018    18      6       0.2339928       58.68991
2018    18      7       0.4553672       98.07372
2018    19      0       0.5606927       114.5616
2018    19      1       0.8085388       145.3168
2018    19      2       0.908721        157.5501
2018    19      3       0.561485        116.6384
2018    19      4       0.4511752       100.0017
2018    19      5       0.3860091       89.30616
2018    19      6       0.3003263       73.83326
2018    19      7       0.299062        73.10007
2018    20      0       0.3922873       89.0273
2018    20      1       0.5668544       116.0897
2018    20      2       0.6438058       128.3132
2018    20      3       0.9769919       168.2801
2018    20      4       1.372662        200.7641
2018    20      5       1.494927        209.3905
2018    20      6       1.712288        219.8041
2018    20      7       2.217173        239.9698
2018    21      0       2.066632        236.2533
2018    21      1       1.73479         223.5536
2018    21      2       1.792742        225.8577
2018    21      3       1.938297        231.8164
2018    21      4       1.808168        226.0425
2018    21      5       1.830638        226.9303
2018    21      6       1.628289        216.4364
2018    21      7       1.502428        209.2929
2018    22      0       1.326633        198.1399
2018    22      1       1.476521        207.1843
2018    22      2       1.59238         214.1958
2018    22      3       1.646207        216.8516
2018    22      4       1.676844        218.675
2018    22      5       1.821173        223.9687
2018    22      6       1.726008        219.6955
2018    22      7       1.736983        220.1335
2018    23      0       1.017423        173.1659
2018    23      1       0.8110668       151.7632
2018    23      2       0.9130424       162.5907
2018    23      3       0.1487131       42.40707
2018    23      4       0.144318        41.30972
2018    23      5       0.1414935       40.21596
2018    23      6       0.1202809       34.85028
2018    23      7       0.2289158       59.30412
2018    24      0       0.2706927       67.89775
2018    24      1       0.1302918       37.12871
2018    24      2       0.1181997       34.38336
2018    24      3       0.1468256       40.35749
2018    24      4       0.2133421       53.96541
2018    24      5       0.3171365       74.09237
2018    24      6       0.3985342       90.07506
2018    24      7       0.3357384       80.52002
2018    25      0       0.251171        64.09444
2018    25      1       0.3347008       79.47672
2018    25      2       0.4829753       105.3438
2018    25      3       0.5532002       116.4233
2018    25      4       0.7223868       139.1781
2018    25      5       0.76298         142.9344
2018    25      6       0.3480687       81.87671
2018    25      7       0.1581612       43.57256
2018    26      0       0.1941553       51.04978
2018    26      1       0.1757377       47.22833
2018    26      2       0.2337371       58.72971
2018    26      3       0.2130648       54.62639
2018    26      4       0.1581716       43.7159
2018    26      5       0.2056113       53.72375
2018    26      6       0.3027587       72.80489
2018    26      7       0.3638489       83.7937
2018    27      0       0.3339621       78.5781
2018    27      1       0.1884434       50.10377
2018    27      2       0.2594787       64.28535
2018    27      3       0.2630939       65.26881
2018    27      4       0.2391156       60.69888
2018    27      5       0.2206637       57.2777
2018    27      6       0.2227555       57.32042
2018    27      7       0.277613        68.5804
2018    28      0       0.3091902       75.37055
2018    28      1       0.2945947       73.02008
2018    28      2       0.386256        89.46987
2018    28      3       0.5277154       112.6466
2018    28      4       0.6245116       127.2837
2018    28      5       0.678289        135.0671
2018    28      6       0.7534038       144.4493
2018    28      7       0.7443554       143.9222
2018    29      0       0.594785        124.6202
2018    29      1       0.4446863       101.0788
2018    29      2       0.5138776       112.6233
2018    29      3       0.5442447       117.6366
2018    29      4       0.5906883       124.766
2018    29      5       0.6095622       127.3037
2018    29      6       0.6151662       127.4645
2018    29      7       0.7845573       149.5263
2018    30      0       0.8504463       157.5193
2018    30      1       0.7485804       145.5776
2018    30      2       0.7081591       140.3899
2018    30      3       0.6300119       129.9115
2018    30      4       0.6032627       126.058
2018    30      5       0.6398028       131.3574
2018    30      6       0.5451968       117.889
2018    30      7       0.6412457       132.8433
2018    31      0       0.6049684       128.3653
2018    31      1       0.4194043       98.87162
2018    31      2       0.3442942       84.99509
2018    31      3       0.1831026       50.67209
2018    31      4       0.1874942       50.65181
2018    31      5       0.2751387       69.11299
2018    31      6       0.4203506       96.55727
2018    31      7       0.5055724       110.0612
