####################################################################################################
# Month: 11Nov                                                                                     #
# Station: OVRO                                                                                    #
# Frequency: 230 GHz                                                                               #
# Columns are: year    day     tau     Tb (K)                                                      #
####################################################################################################
2009    1       0.2966106       74.69733
2009    2       0.29953338      75.41335375
2009    3       0.26647846      68.59959625
2009    4       0.28296115      71.59853125
2009    5       0.32349204      78.72107625
2009    6       0.23869364      61.19392
2009    7       0.30953488      76.1305875
2009    8       0.2941381       72.40393625
2009    9       0.21177441      54.48904
2009    10      0.29438525      71.25714
2009    11      0.35532129      82.77471875
2009    12      0.6026252       123.2242625
2009    13      0.58893742      118.17785125
2009    14      0.35110508      81.8732225
2009    15      0.23321635      59.1841175
2009    16      0.34705384      82.36299125
2009    17      0.24254835      62.77904375
2009    18      0.24168254      61.58409875
2009    19      0.16636285      44.342395
2009    20      0.15535631      43.05292125
2009    21      0.3102743       75.6816525
2009    22      0.34172515      81.073285
2009    23      0.31210886      75.06896
2009    24      0.31137432      75.6082925
2009    25      0.40721407      93.01052375
2009    26      0.17825396      47.63081875
2009    27      0.24905264      63.09362875
2009    28      0.65680697      128.36203
2009    29      0.32688971      73.890045
2009    30      0.20622612      54.5447875
2010    1       0.5706371       122.268675
2010    2       0.5985215       128.2664
2010    3       0.6087808       130.51745
2010    4       0.62769816      133.04625
2010    5       0.65270112      135.275575
2010    6       0.59464199      124.832125
2010    7       0.72094237      141.0995375
2010    8       0.58110599      116.50650875
2010    9       0.25623051      63.24105375
2010    10      0.41974499      94.5080225
2010    11      0.29153822      67.89274875
2010    12      0.2231289       56.34266375
2010    13      0.38470456      88.9016675
2010    14      0.58387432      122.365825
2010    15      0.53431954      115.54925
2010    16      0.31163758      75.17554875
2010    17      0.1722787       46.4066425
2010    18      0.20659475      54.4899275
2010    19      0.30412365      73.77151875
2010    20      0.57432774      118.56897875
2010    21      0.34771416      79.57636625
2010    22      0.32666584      76.3192475
2010    23      0.35096784      81.39459
2010    24      0.21966074      54.5005675
2010    25      0.11622061      33.33874875
2010    26      0.16992884      46.3500725
2010    27      0.26293595      63.91840375
2010    28      0.40453968      89.04386375
2010    29      0.1341858       36.451755
2010    30      0.28914811      69.05890125
2011    1       0.30695065      75.69576
2011    2       0.10940625      32.0728125
2011    3       0.19905849      52.73198625
2011    4       0.5148416       108.31068875
2011    5       0.3168778       74.0841175
2011    6       0.4705296       101.2774825
2011    7       0.39433418      88.30127625
2011    8       0.190252        50.05574375
2011    9       0.18759518      50.0188125
2011    10      0.14249326      39.7200625
2011    11      0.39397726      85.35607125
2011    12      0.56276414      117.407575
2011    13      0.63449745      128.0673375
2011    14      0.52409511      112.8345125
2011    15      0.39253531      91.23544625
2011    16      0.57498309      121.507625
2011    17      0.34981848      82.48416125
2011    18      0.3011063       74.298375
2011    19      0.37245418      87.28231875
2011    20      0.43396164      93.3340675
2011    21      0.50964705      105.99096
2011    22      0.24978518      63.0268975
2011    23      0.22194411      57.794685
2011    24      0.29631838      72.4007725
2011    25      0.35479309      83.2031175
2011    26      0.34554981      82.70269375
2011    27      0.33255908      80.82487
2011    28      0.17498002      47.2728125
2011    29      0.27855761      69.476455
2011    30      0.25547272      65.047955
2012    1       0.41169355      93.58405
2012    2       0.51546176      111.5228775
2012    3       0.40286196      93.282225
2012    4       0.44777566      101.31223625
2012    5       0.48965962      110.26625
2012    6       0.32951338      81.58412375
2012    7       0.32338654      79.89564625
2012    8       0.40867224      94.147305
2012    9       0.41651149      93.36306375
2012    10      0.33122639      76.14671
2012    11      0.22029224      55.6836175
2012    12      0.33003886      77.82800625
2012    13      0.26062492      65.7136575
2012    14      0.27975588      69.3772
2012    15      0.36769925      86.144105
2012    16      0.68983868      133.26505375
2012    17      0.84268409      155.1605625
2012    18      0.74596838      141.6886125
2012    19      0.53631728      113.903875
2012    20      0.62155949      128.0560125
2012    21      0.51805808      112.156515
2012    22      0.50301051      110.2327
2012    23      0.31796855      77.44672
2012    24      0.25635619      65.93666
2012    25      0.22357798      58.67015125
2012    26      0.22296501      57.99225875
2012    27      0.24333354      62.0281125
2012    28      0.5659986       118.8081625
2012    29      0.8474919       156.2628875
2012    30      0.71540996      140.0025375
2013    1       0.25669335      65.83776875
2013    2       0.22183781      58.60663125
2013    3       0.2540101       64.93921875
2013    4       0.359085        82.97154375
2013    5       0.18555059      48.9192825
2013    6       0.40273645      92.26167125
2013    7       0.51026239      110.5400325
2013    8       0.41554261      95.434575
2013    9       0.40340106      93.85150125
2013    10      0.30333096      73.82665875
2013    11      0.31186462      76.07354
2013    12      0.44417001      98.3166825
2013    13      0.4660941       105.1063625
2013    14      0.30618431      75.2667575
2013    15      0.31195929      75.6960725
2013    16      0.40030384      91.9531125
2013    17      0.39839384      93.61229875
2013    18      0.38784556      90.9856325
2013    19      0.58217955      119.9562425
2013    20      0.83711415      154.0599875
2013    21      0.82615401      151.474675
2013    22      0.73820546      140.678475
2013    23      0.73010006      139.7975125
2013    24      0.65911119      129.8499625
2013    25      0.28677347      70.35430375
2013    26      0.36771092      86.92490625
2013    27      0.49913376      108.45707375
2013    28      0.51191953      110.05449
2013    29      0.4608033       100.99479
2013    30      0.40161919      91.6325025
2014    1       0.66259705      130.9981125
2014    2       0.55491919      114.382145
2014    3       0.1946003       50.3335275
2014    4       0.40398069      91.71641
2014    5       0.6454687       133.5623375
2014    6       0.52591156      116.238575
2014    7       0.410166        96.68168875
2014    8       0.46523756      105.72503625
2014    9       0.51572651      113.926325
2014    10      0.32486602      79.3277625
2014    11      0.29551089      74.28325375
2014    12      0.37229608      87.56670375
2014    13      0.65078918      130.32081875
2014    14      0.44934785      99.78985375
2014    15      0.33874188      79.79112875
2014    16      0.26384017      62.1592625
2014    17      0.15876602      42.967
2014    18      0.15048561      41.39675125
2014    19      0.40473181      90.8677225
2014    20      0.40178452      91.30375125
2014    21      0.49588911      106.91277875
2014    22      0.68383236      136.0180625
2014    23      0.27147586      65.21449375
2014    24      0.28290634      69.07263125
2014    25      0.29885208      72.7876
2014    26      0.35326084      84.561985
2014    27      0.30890568      76.20062375
2014    28      0.2034671       53.90284
2014    29      0.16808696      45.83902125
2014    30      0.26510536      64.04573875
2015    1       0.33580559      81.40014875
2015    2       0.62990526      126.75257625
2015    3       0.70788084      135.1702875
2015    4       0.45500198      98.08334
2015    5       0.22304388      55.63327375
2015    6       0.2948971       71.53035625
2015    7       0.16317571      44.84942125
2015    8       0.2607105       65.3300025
2015    9       0.4527926       99.50021875
2015    10      0.5159223       108.0601175
2015    11      0.10379727      29.903665
2015    12      0.18480909      49.05967875
2015    13      0.22731256      58.87302375
2015    14      0.33606748      80.741175
2015    15      0.3081976       73.34822125
2015    16      0.36242468      81.2473525
2015    17      0.37093135      84.6791425
2015    18      0.31253905      75.75585875
2015    19      0.33183117      81.03543625
2015    20      0.40986526      95.65167
2015    21      0.44426546      100.2003375
2015    22      0.35990108      85.480725
2015    23      0.32370522      78.4626275
2015    24      0.325286        78.7504825
2015    25      0.40088085      90.06058875
2015    26      0.32227054      74.05220375
2015    27      0.31904002      73.61966375
2015    28      0.29020929      67.7328125
2015    29      0.18613352      48.47605375
2015    30      0.13989099      38.56427875
2016    1       0.49617074      107.9460625
2016    2       0.36385756      86.10308125
2016    3       0.25878325      67.1783175
2016    4       0.39767026      93.5386275
2016    5       0.48351979      109.3656
2016    6       0.47041978      105.10143
2016    7       0.90612952      165.208425
2016    8       0.78952749      153.1477625
2016    9       0.62144469      130.822025
2016    10      0.60390219      127.92395
2016    11      0.51527438      114.1998125
2016    12      0.55691759      119.1704
2016    13      0.47530451      107.31065125
2016    14      0.39593618      93.276035
2016    15      0.2785658       70.890285
2016    16      0.31652279      75.9613075
2016    17      0.29263304      70.85649375
2016    18      0.30423605      73.20099625
2016    19      0.34138615      81.89361
2016    20      0.41955404      94.98387625
2016    21      0.80368059      149.293275
2016    22      0.39928656      92.66767875
2016    23      0.37104748      86.285565
2016    24      0.15932594      43.8059925
2016    25      0.14078711      39.44065625
2016    26      0.14829601      40.96770625
2016    27      0.4091055       91.4469925
2016    28      0.51830068      108.5741625
2016    29      0.27204479      67.01596875
2016    30      0.31954846      76.70317
2017    1       0.61626096      130.312725
2017    2       0.66196274      137.1169625
2017    3       0.5369632       116.49762375
2017    4       0.57118274      121.1226
2017    5       0.44824324      101.15924625
2017    6       0.24945966      63.7273275
2017    7       0.17602588      48.01012625
2017    8       0.30254121      73.71243875
2017    9       0.49679169      110.72066125
2017    10      0.31128085      77.74616125
2017    11      0.32211346      78.948385
2017    12      0.40119289      92.6158525
2017    13      0.31037138      76.10536625
2017    14      0.53214505      115.057545
2017    15      0.52768711      114.0603025
2017    16      0.77607859      151.1771875
2017    17      0.70406412      137.77679125
2017    18      0.18205478      50.22746125
2017    19      0.16505964      45.36066625
2017    20      0.5011368       105.97523875
2017    21      1.01462368      177.844275
2017    22      0.80220301      157.0289625
2017    23      0.67215428      140.019975
2017    24      0.61939014      129.81775
2017    25      0.51191456      113.93135
2017    26      0.45247211      104.9522875
2017    27      0.49589455      108.44501375
2017    28      0.37401934      89.17304125
2017    29      0.37033071      87.04944875
2017    30      0.30613431      75.8541375
2018    1       0.60313935      124.67536375
2018    2       0.57740166      124.1683325
2018    3       0.50405734      111.76736125
2018    4       0.64193974      132.717325
2018    5       0.55757967      121.4231375
2018    6       0.42792794      98.46584
2018    7       0.31800056      77.35209
2018    8       0.26360596      65.77243
2018    9       0.11183875      33.13312375
2018    10      0.13066726      37.230515
2018    11      0.16241568      44.741845
2018    12      0.11553208      33.70642625
2018    13      0.16779691      45.8813875
2018    14      0.27319856      67.90952375
2018    15      0.3050707       74.86864875
2018    16      0.36447381      86.1446125
2018    17      0.32509453      78.93777
2018    18      0.33369755      80.82369875
2018    19      0.2418954       62.71459
2018    20      0.25352499      62.75260125
2018    21      0.31806946      76.18383
2018    22      0.56570341      118.50970625
2018    23      0.63197745      127.5517525
2018    24      0.69043336      138.6747875
2018    25      0.54195181      115.03355875
2018    26      0.30723074      74.46229375
2018    27      0.55956794      118.8558625
2018    28      0.67243189      134.0557375
2018    29      1.02120109      171.8320875
2018    30      0.58368022      120.9394375
