####################################################################################################
# Month: 07Jul                                                                                     #
# Station: GARS                                                                                    #
# Frequency: 230 GHz                                                                               #
# Columns are: year    day     segment         tau     Tb (K)                                      #
####################################################################################################
2009    1       0       0.5873032       119.831
2009    1       1       0.618408        123.4209
2009    1       2       0.5751657       113.9971
2009    1       3       1.119355        173.5053
2009    1       4       0.3482281       78.29973
2009    1       5       0.3659679       81.53378
2009    1       6       0.5398982       109.3991
2009    1       7       0.5409388       112.51
2009    2       0       0.4569008       96.65952
2009    2       1       0.4669808       97.88223
2009    2       2       0.4702697       98.25439
2009    2       3       0.4449988       94.2306
2009    2       4       0.2854161       66.70638
2009    2       5       0.2840439       66.45958
2009    2       6       0.382191        83.84918
2009    2       7       0.4294078       91.58449
2009    3       0       0.5471874       109.4284
2009    3       1       0.5852157       114.6688
2009    3       2       0.5931522       115.9027
2009    3       3       0.5878466       115.341
2009    3       4       0.6734518       127.2673
2009    3       5       0.7515579       137.8645
2009    3       6       0.7888778       142.4478
2009    3       7       0.8654751       151.1414
2009    4       0       0.8097561       145.5943
2009    4       1       0.6619162       127.6397
2009    4       2       0.5303288       109.2541
2009    4       3       0.5977664       119.1904
2009    4       4       0.830982        148.4215
2009    4       5       0.8651441       152.4696
2009    4       6       0.9338457       160.5004
2009    4       7       0.9144995       159.5873
2009    5       0       0.9155449       160.3508
2009    5       1       1.038795        172.716
2009    5       2       1.12005         180.246
2009    5       3       1.145004        182.5351
2009    5       4       1.22148         188.5289
2009    5       5       1.128045        180.0891
2009    5       6       1.024285        169.5922
2009    5       7       0.8635483       152.4303
2009    6       0       0.7030139       132.9301
2009    6       1       0.6145203       121.468
2009    6       2       0.5534176       112.9946
2009    6       3       0.4965977       104.5797
2009    6       4       0.474873        101.3511
2009    6       5       0.4465208       96.84263
2009    6       6       0.463982        99.71661
2009    6       7       0.5722692       116.0736
2009    7       0       0.4811397       101.9696
2009    7       1       0.3674664       82.69342
2009    7       2       0.3431819       78.08668
2009    7       3       0.3386006       77.06443
2009    7       4       0.3390454       76.79754
2009    7       5       0.3875168       85.11935
2009    7       6       0.4198032       90.58705
2009    7       7       0.56311         112.7866
2009    8       0       0.7111585       132.4725
2009    8       1       0.8025191       143.5595
2009    8       2       0.9384618       158.7824
2009    8       3       0.9451195       159.8131
2009    8       4       0.9114414       156.3069
2009    8       5       0.8548943       150.411
2009    8       6       0.7328629       136.5857
2009    8       7       0.6734246       129.1934
2009    9       0       0.6652874       127.5135
2009    9       1       0.5153752       105.593
2009    9       2       0.4011829       86.99941
2009    9       3       0.3932681       85.37418
2009    9       4       0.4080735       87.76707
2009    9       5       0.4302432       91.62464
2009    9       6       0.4610107       97.09531
2009    9       7       0.3997867       87.41096
2009    10      0       0.3876013       85.57708
2009    10      1       0.3690243       82.47413
2009    10      2       0.3776823       84.11115
2009    10      3       0.3797923       84.45984
2009    10      4       0.4360944       93.63866
2009    10      5       0.6233668       121.3024
2009    10      6       0.8222211       146.0298
2009    10      7       0.9439487       159.3888
2009    11      0       1.020032        167.2774
2009    11      1       0.7588998       139.3248
2009    11      2       0.2853523       66.25885
2009    11      3       0.2324926       56.87196
2009    11      4       0.1681083       43.51275
2009    11      5       0.1627747       42.12409
2009    11      6       0.09441522      26.43652
2009    11      7       0.0909382       25.59408
2009    12      0       0.09379613      26.19125
2009    12      1       0.09772276      27.00792
2009    12      2       0.1950704       48.5526
2009    12      3       0.222955        54.35382
2009    12      4       0.1933266       48.42651
2009    12      5       0.1702225       43.29881
2009    12      6       0.1531578       39.46464
2009    12      7       0.1467392       38.25563
2009    13      0       0.117759        31.15583
2009    13      1       0.1417311       36.34394
2009    13      2       0.1290868       33.72899
2009    13      3       0.1196996       31.79862
2009    13      4       0.1691112       43.88324
2009    13      5       0.1481206       39.28822
2009    13      6       0.1672138       42.4511
2009    13      7       0.1771263       44.72019
2009    14      0       0.1820339       45.93815
2009    14      1       0.201206        50.01953
2009    14      2       0.3187993       72.63655
2009    14      3       0.3017676       69.41995
2009    14      4       0.2727278       64.027
2009    14      5       0.2452683       59.00162
2009    14      6       0.2795304       65.7468
2009    14      7       0.3533298       79.28923
2009    15      0       0.5971925       117.4658
2009    15      1       0.7013166       132.1168
2009    15      2       0.8650584       152.3072
2009    15      3       1.109958        177.3519
2009    15      4       1.199266        183.5355
2009    15      5       0.9411087       159.6151
2009    15      6       0.4983408       106.0141
2009    15      7       0.5155894       108.5843
2009    16      0       0.7306329       140.5475
2009    16      1       0.5328891       108.0384
2009    16      2       0.3699359       81.72255
2009    16      3       0.3948924       85.70177
2009    16      4       0.3747032       81.97011
2009    16      5       0.3662627       82.36589
2009    16      6       0.2261807       56.03809
2009    16      7       0.1797131       46.62534
2009    17      0       0.1789198       46.63912
2009    17      1       0.1689093       44.42085
2009    17      2       0.1094166       30.76588
2009    17      3       0.1041862       29.53984
2009    17      4       0.2833129       66.00233
2009    17      5       0.3319553       75.62442
2009    17      6       0.4638628       98.02266
2009    17      7       0.6595949       126.9808
2009    18      0       1.155562        180.2796
2009    18      1       1.156684        181.8711
2009    18      2       1.371618        199.0123
2009    18      3       1.359338        198.5134
2009    18      4       1.055049        173.4128
2009    18      5       1.009323        170.0594
2009    18      6       0.794605        148.8035
2009    18      7       0.6751396       134.6531
2009    19      0       0.6957524       136.7627
2009    19      1       0.8620072       155.0148
2009    19      2       0.7022991       135.8721
2009    19      3       0.7778153       144.5218
2009    19      4       0.9553327       163.9301
2009    19      5       0.8020721       147.3828
2009    19      6       0.6231369       124.2948
2009    19      7       0.4688447       100.4602
2009    20      0       0.3533047       80.51239
2009    20      1       0.4647632       99.63529
2009    20      2       1.165548        181.5911
2009    20      3       1.194686        184.4067
2009    20      4       1.205492        184.7502
2009    20      5       1.039619        169.9656
2009    20      6       1.096553        175.0943
2009    20      7       1.08189         173.4138
2009    21      0       0.7465943       137.8892
2009    21      1       0.5977628       118.1908
2009    21      2       0.4314787       92.66954
2009    21      3       0.2579007       60.83014
2009    21      4       0.2625145       61.27222
2009    21      5       0.2657865       61.68643
2009    21      6       0.1937965       49.44896
2009    21      7       0.2092895       50.75793
2009    22      0       0.2218101       53.2458
2009    22      1       0.2176711       52.44902
2009    22      2       0.1496605       38.74473
2009    22      3       0.1315207       35.11449
2009    22      4       0.1348857       36.81969
2009    22      5       0.3182542       75.19015
2009    22      6       0.5370673       113.8131
2009    22      7       0.3222914       77.1047
2009    23      0       0.4150044       91.59658
2009    23      1       0.4489348       97.84732
2009    23      2       0.5398314       111.9538
2009    23      3       0.6735137       131.0568
2009    23      4       1.315057        195.0034
2009    23      5       1.395206        200.6673
2009    23      6       1.337402        196.2868
2009    23      7       1.149096        181.7941
2009    24      0       0.804045        146.8483
2009    24      1       0.7171654       135.7003
2009    24      2       0.4842726       102.3618
2009    24      3       0.5238388       107.9459
2009    24      4       0.4794563       100.8547
2009    24      5       0.4817752       101.2707
2009    24      6       0.4283001       92.73939
2009    24      7       0.4044823       88.90588
2009    25      0       0.4301051       92.78396
2009    25      1       0.3929892       86.20782
2009    25      2       0.3655551       81.05392
2009    25      3       0.3308425       74.56329
2009    25      4       0.240341        57.00154
2009    25      5       0.2267876       53.95191
2009    25      6       0.2137388       51.24897
2009    25      7       0.1968963       47.88968
2009    26      0       0.204311        49.33348
2009    26      1       0.1987257       48.12247
2009    26      2       0.2193385       52.05746
2009    26      3       0.216364        51.39618
2009    26      4       0.2027022       48.75023
2009    26      5       0.1966675       47.55906
2009    26      6       0.2539884       58.59592
2009    26      7       0.1981412       47.82951
2009    27      0       0.213871        50.69468
2009    27      1       0.1923081       46.46169
2009    27      2       0.1692216       42.00325
2009    27      3       0.1808748       44.58552
2009    27      4       0.2338238       55.11216
2009    27      5       0.2548043       59.03458
2009    27      6       0.2287711       54.03061
2009    27      7       0.1940907       47.17217
2009    28      0       0.1805108       44.34934
2009    28      1       0.191942        46.54577
2009    28      2       0.2276321       53.8662
2009    28      3       0.2689098       62.02057
2009    28      4       0.3351333       74.3119
2009    28      5       0.5617625       115.7408
2009    28      6       0.321312        75.84273
2009    28      7       0.2170256       55.07083
2009    29      0       0.1971987       48.69342
2009    29      1       0.1834307       45.92001
2009    29      2       0.2084173       51.24299
2009    29      3       0.1990618       49.68886
2009    29      4       0.1753738       45.08476
2009    29      5       0.1765252       45.25304
2009    29      6       0.1940613       48.94509
2009    29      7       0.1977017       50.63749
2009    30      0       0.2106306       52.4192
2009    30      1       0.2556668       61.24491
2009    30      2       0.2514642       60.44892
2009    30      3       0.2442968       59.98128
2009    30      4       0.2541355       62.39249
2009    30      5       0.2661428       65.32568
2009    30      6       0.3985906       91.56818
2009    30      7       0.4111619       94.22936
2009    31      0       0.5216657       108.6386
2009    31      1       0.6303353       124.3567
2009    31      2       0.8364312       150.2306
2009    31      3       0.6916001       133.0385
2009    31      4       0.7563714       140.9219
2009    31      5       1.008222        167.7194
2009    31      6       1.027253        169.8357
2009    31      7       0.8301109       149.9868
2010    1       0       0.4884846       102.2379
2010    1       1       0.5534024       111.7089
2010    1       2       0.6832713       129.1046
2010    1       3       0.694174        130.0986
2010    1       4       0.653634        124.1948
2010    1       5       0.5457654       108.8605
2010    1       6       0.4862442       99.83888
2010    1       7       0.442111        92.83649
2010    2       0       0.3834501       83.20955
2010    2       1       0.3732552       81.48384
2010    2       2       0.3874231       83.98673
2010    2       3       0.3810637       83.10081
2010    2       4       0.3945446       85.48053
2010    2       5       0.5021707       102.5679
2010    2       6       0.5991305       116.6137
2010    2       7       0.6186908       119.6314
2010    3       0       0.6064862       117.9566
2010    3       1       0.6155598       119.1528
2010    3       2       0.5680052       112.2293
2010    3       3       0.5404638       108.3057
2010    3       4       0.5080062       107.0309
2010    3       5       0.4456347       96.80227
2010    3       6       0.4123679       91.25752
2010    3       7       0.3825943       86.12471
2010    4       0       0.4411422       95.58207
2010    4       1       0.3983004       88.20581
2010    4       2       0.3640404       82.31878
2010    4       3       0.3161711       73.66169
2010    4       4       0.3182113       74.58222
2010    4       5       0.3173247       74.62327
2010    4       6       0.2947608       67.07239
2010    4       7       0.2372195       56.23618
2010    5       0       0.2446995       57.57966
2010    5       1       0.2521688       59.01945
2010    5       2       0.250219        58.85879
2010    5       3       0.2376534       56.61907
2010    5       4       0.1816598       45.76759
2010    5       5       0.1785132       45.37936
2010    5       6       0.1877585       47.44255
2010    5       7       0.1874255       47.51061
2010    6       0       0.1955205       49.36845
2010    6       1       0.213675        53.1028
2010    6       2       0.3769035       83.75864
2010    6       3       0.4091062       89.44032
2010    6       4       0.3955874       87.27989
2010    6       5       0.4513151       96.70135
2010    6       6       0.4567244       97.77731
2010    6       7       0.4807822       101.7054
2010    7       0       0.5271046       108.9195
2010    7       1       0.5244275       108.5748
2010    7       2       0.6051696       120.4027
2010    7       3       0.5475013       112.2769
2010    7       4       0.415895        91.75612
2010    7       5       0.3995389       89.11715
2010    7       6       0.5415842       111.0651
2010    7       7       1.040524        170.1824
2010    8       0       1.028888        169.351
2010    8       1       1.376777        197.542
2010    8       2       1.377135        197.8327
2010    8       3       1.392369        198.5467
2010    8       4       1.12134         178.1701
2010    8       5       1.190308        183.8437
2010    8       6       1.371853        197.4738
2010    8       7       1.368915        197.4085
2010    9       0       1.54941         208.5764
2010    9       1       1.427576        201.1766
2010    9       2       1.269749        189.9418
2010    9       3       1.217414        185.8651
2010    9       4       1.215595        186.3477
2010    9       5       1.228885        186.8867
2010    9       6       1.178687        181.9062
2010    9       7       0.5193592       106.5291
2010    10      0       0.4347503       92.9627
2010    10      1       0.5582087       112.1516
2010    10      2       0.4766195       100.2534
2010    10      3       0.4492524       96.21859
2010    10      4       0.6782787       129.3041
2010    10      5       0.7467706       137.5415
2010    10      6       0.6897663       130.0209
2010    10      7       0.4934147       101.5904
2010    11      0       0.4055885       87.10965
2010    11      1       0.3159199       71.64771
2010    11      2       0.3282313       74.0472
2010    11      3       0.3193967       72.75853
2010    11      4       0.2603238       61.97516
2010    11      5       0.3776481       83.81442
2010    11      6       0.6836168       130.5521
2010    11      7       1.248805        187.4832
2010    12      0       1.163656        180.7435
2010    12      1       1.129057        177.743
2010    12      2       1.05425         170.4703
2010    12      3       0.7198225       134.1511
2010    12      4       0.4451134       94.86697
2010    12      5       0.4805273       100.276
2010    12      6       0.4553956       96.10122
2010    12      7       0.4474057       94.86988
2010    13      0       0.5307488       107.6599
2010    13      1       0.4146521       89.57269
2010    13      2       0.3417357       77.39029
2010    13      3       0.373131        83.22874
2010    13      4       0.3935778       90.38104
2010    13      5       0.3921367       90.80088
2010    13      6       0.2916339       69.88916
2010    13      7       0.2834414       68.88971
2010    14      0       0.4625833       101.6163
2010    14      1       0.7154912       138.8989
2010    14      2       1.06853         178.6971
2010    14      3       1.013133        175.3196
2010    14      4       1.049265        178.5186
2010    14      5       1.16199         188.0624
2010    14      6       1.197825        190.7816
2010    14      7       0.9454659       167.1678
2010    15      0       0.9181516       164.0559
2010    15      1       2.06554         236.8004
2010    15      2       2.04419         235.1854
2010    15      3       1.554593        211.7411
2010    15      4       1.58776         213.0889
2010    15      5       0.5016658       105.5195
2010    15      6       0.1397525       37.61415
2010    15      7       0.08047707      24.07799
2010    16      0       0.09965197      28.46336
2010    16      1       0.121618        33.4303
2010    16      2       0.1231891       33.88243
2010    16      3       0.1364232       37.03397
2010    16      4       0.2003706       50.69122
2010    16      5       0.2094419       52.1716
2010    16      6       0.8497293       149.5968
2010    16      7       1.004139        165.5816
2010    17      0       1.120775        175.7814
2010    17      1       1.294939        188.914
2010    17      2       1.288627        188.3787
2010    17      3       0.69116         130.8196
2010    17      4       0.8795491       153.023
2010    17      5       0.5941839       118.179
2010    17      6       1.089245        175.0385
2010    17      7       0.9468757       162.5769
2010    18      0       1.283953        192.1621
2010    18      1       1.226812        187.3537
2010    18      2       1.394711        198.7576
2010    18      3       1.364973        198.7709
2010    18      4       1.569345        212.4089
2010    18      5       1.467388        207.2609
2010    18      6       1.66824         218.1009
2010    18      7       1.917739        228.8108
2010    19      0       1.485453        206.1425
2010    19      1       1.116656        178.2861
2010    19      2       0.9281941       160.328
2010    19      3       1.087403        175.3406
2010    19      4       1.35814         196.3482
2010    19      5       1.408588        199.6269
2010    19      6       1.395697        198.5663
2010    19      7       0.7699211       141.1632
2010    20      0       0.3163909       72.53877
2010    20      1       0.2611789       62.52364
2010    20      2       0.2725338       65.56304
2010    20      3       0.3294558       76.62085
2010    20      4       0.448696        97.17266
2010    20      5       1.199813        185.8454
2010    20      6       1.525598        209.4277
2010    20      7       1.488222        207.5123
2010    21      0       1.474815        206.2637
2010    21      1       0.9238919       160.5194
2010    21      2       0.3820753       85.64662
2010    21      3       0.3461438       78.98161
2010    21      4       0.3227749       74.60904
2010    21      5       0.3005136       70.13857
2010    21      6       0.2598113       62.32068
2010    21      7       0.2668582       63.64437
2010    22      0       0.2618568       62.49782
2010    22      1       0.3060929       70.7883
2010    22      2       0.3681955       81.88688
2010    22      3       0.3550505       79.51946
2010    22      4       0.3142034       72.16234
2010    22      5       0.2436139       58.95703
2010    22      6       0.2684341       64.22614
2010    22      7       0.4547731       97.3324
2010    23      0       0.5370258       109.976
2010    23      1       0.673648        128.7493
2010    23      2       0.9815306       162.7987
2010    23      3       1.011776        165.6951
2010    23      4       1.097349        173.7327
2010    23      5       0.9794812       163.0461
2010    23      6       0.740545        137.7218
2010    23      7       0.6315653       123.9255
2010    24      0       0.8347628       149.4448
2010    24      1       1.121282        178.4323
2010    24      2       1.156839        182.4347
2010    24      3       1.308364        194.26
2010    24      4       1.233659        188.4707
2010    24      5       1.2526          189.9473
2010    24      6       1.5488          209.4365
2010    24      7       1.425684        201.9747
2010    25      0       1.314349        194.4758
2010    25      1       1.439002        203.4561
2010    25      2       1.49916         207.7679
2010    25      3       1.577688        212.7029
2010    25      4       1.508006        209.101
2010    25      5       1.507277        209.4119
2010    25      6       1.607771        214.0371
2010    25      7       1.226578        187.8046
2010    26      0       0.9273439       161.2593
2010    26      1       0.7917502       145.9646
2010    26      2       0.6697651       130.1188
2010    26      3       0.9322272       160.5873
2010    26      4       0.9534405       163.335
2010    26      5       1.134616        180.9024
2010    26      6       1.563098        210.5923
2010    26      7       1.707105        217.901
2010    27      0       1.648569        214.6223
2010    27      1       1.452004        202.7423
2010    27      2       1.309149        192.9859
2010    27      3       1.354559        196.0022
2010    27      4       1.248021        188.4925
2010    27      5       1.193815        184.3904
2010    27      6       0.9893515       166.5963
2010    27      7       0.3852422       85.60093
2010    28      0       0.3834206       84.25675
2010    28      1       0.2429837       58.42347
2010    28      2       0.1979625       49.37485
2010    28      3       0.2052598       50.783
2010    28      4       0.215572        53.06937
2010    28      5       0.3425075       77.42503
2010    28      6       0.6213995       121.1993
2010    28      7       0.9088458       156.1744
2010    29      0       0.4890156       102.256
2010    29      1       0.3189793       72.95807
2010    29      2       0.231411        55.93699
2010    29      3       0.2340508       56.23365
2010    29      4       0.2023388       49.70443
2010    29      5       0.1477168       38.32892
2010    29      6       0.1251161       33.49196
2010    29      7       0.1666583       42.2254
2010    30      0       0.1659949       42.06871
2010    30      1       0.1680435       42.46893
2010    30      2       0.1863255       46.20933
2010    30      3       0.1905147       46.93301
2010    30      4       0.1910055       46.94526
2010    30      5       0.2019598       49.1788
2010    30      6       0.1617705       41.20541
2010    30      7       0.1559641       40.27521
2010    31      0       0.1741754       44.41489
2010    31      1       0.1460622       38.54888
2010    31      2       0.1194383       32.81867
2010    31      3       0.1300362       35.30973
2010    31      4       0.1794778       46.06353
2010    31      5       0.08677727      25.54235
2010    31      6       0.09595849      27.61658
2010    31      7       0.1365483       36.69822
2011    1       0       0.1838586       45.91686
2011    1       1       0.1721636       43.46473
2011    1       2       0.1598756       41.04366
2011    1       3       0.1452627       38.23395
2011    1       4       0.1375481       36.69701
2011    1       5       0.1343551       36.06862
2011    1       6       0.1388576       37.1684
2011    1       7       0.1531562       40.37537
2011    2       0       0.1859532       47.28659
2011    2       1       0.3159292       74.11329
2011    2       2       0.7288772       139.2254
2011    2       3       0.9079461       160.9819
2011    2       4       0.7920038       148.762
2011    2       5       0.9351215       160.939
2011    2       6       1.186697        184.1935
2011    2       7       0.9338267       161.5641
2011    3       0       0.8863004       157.4392
2011    3       1       0.7453667       141.8201
2011    3       2       0.8450716       153.75
2011    3       3       1.081535        177.4429
2011    3       4       1.028257        173.0417
2011    3       5       1.031802        172.8054
2011    3       6       1.055971        174.3585
2011    3       7       0.9960657       168.1247
2011    4       0       0.8887178       157.1373
2011    4       1       0.7701251       144.1967
2011    4       2       0.9410995       163.1376
2011    4       3       1.007825        169.4328
2011    4       4       0.5812353       118.7496
2011    4       5       0.460686        100.1064
2011    4       6       0.3775273       85.66772
2011    4       7       0.886234        157.7498
2011    5       0       0.298148        71.68808
2011    5       1       0.5146721       109.7526
2011    5       2       0.663665        131.8543
2011    5       3       0.680656        133.8759
2011    5       4       0.722633        138.9021
2011    5       5       0.6721108       132.1157
2011    5       6       0.4569551       100.4571
2011    5       7       0.388078        88.65894
2011    6       0       0.3973641       90.26839
2011    6       1       0.3526429       82.19346
2011    6       2       0.3246647       76.76311
2011    6       3       0.3208351       75.85745
2011    6       4       0.3370774       78.8786
2011    6       5       0.343205        80.06036
2011    6       6       0.3311703       77.79255
2011    6       7       0.3198601       75.64981
2011    7       0       0.3254402       76.64462
2011    7       1       0.3231197       76.0509
2011    7       2       0.3365449       78.28474
2011    7       3       0.2988664       71.09569
2011    7       4       0.2859724       68.43181
2011    7       5       0.2802191       67.01266
2011    7       6       0.2750314       65.89409
2011    7       7       0.2907929       68.89024
2011    8       0       0.3194218       74.15525
2011    8       1       0.3868997       85.97239
2011    8       2       0.4430174       95.03476
2011    8       3       0.4665667       98.61028
2011    8       4       0.55043         111.237
2011    8       5       0.6189677       120.9222
2011    8       6       0.7493769       137.9409
2011    8       7       0.7477993       138.042
2011    9       0       0.6824518       129.9317
2011    9       1       0.6178237       121.2402
2011    9       2       0.5343043       109.2554
2011    9       3       0.3443435       78.12773
2011    9       4       0.2934153       68.67247
2011    9       5       0.258165        61.71643
2011    9       6       0.2307556       56.33224
2011    9       7       0.2240619       55.00413
2011    10      0       0.2140986       52.91752
2011    10      1       0.1994447       49.72816
2011    10      2       0.1938033       49.86173
2011    10      3       0.192222        49.59118
2011    10      4       0.2334537       56.63283
2011    10      5       0.3344741       75.75271
2011    10      6       0.4980328       102.89
2011    10      7       0.5356104       108.6419
2011    11      0       0.6027874       118.5776
2011    11      1       0.6033238       118.9804
2011    11      2       0.6394673       123.948
2011    11      3       0.5876133       116.5479
2011    11      4       0.4141822       89.93011
2011    11      5       0.423147        91.52617
2011    11      6       0.4190916       90.87444
2011    11      7       0.3668099       81.94192
2011    12      0       0.3503845       79.13304
2011    12      1       0.4008609       87.92693
2011    12      2       0.3890878       85.95391
2011    12      3       0.4207751       91.22836
2011    12      4       0.4084076       89.0998
2011    12      5       0.3445237       78.14713
2011    12      6       0.3017187       70.5689
2011    12      7       0.3371828       77.446
2011    13      0       0.3344754       77.01435
2011    13      1       0.2975669       69.84415
2011    13      2       0.2709255       64.31365
2011    13      3       0.4419052       97.57666
2011    13      4       0.2002178       50.41072
2011    13      5       0.2407588       58.93572
2011    13      6       0.3425715       77.94813
2011    13      7       0.4727948       99.58341
2011    14      0       0.4596132       100.2967
2011    14      1       0.3637556       83.4836
2011    14      2       0.3919189       88.6695
2011    14      3       0.5420878       113.4423
2011    14      4       0.5283121       111.3279
2011    14      5       0.4804157       100.7058
2011    14      6       0.6027279       119.072
2011    14      7       0.5314002       108.931
2011    15      0       0.5899174       117.0502
2011    15      1       0.6236423       121.0201
2011    15      2       0.6765246       127.2827
2011    15      3       0.517761        104.6412
2011    15      4       0.3132274       70.62792
2011    15      5       0.2432698       57.39534
2011    15      6       0.2371914       56.16506
2011    15      7       0.2477046       58.33965
2011    16      0       0.2880888       66.22895
2011    16      1       0.353488        78.13579
2011    16      2       0.4616025       96.44103
2011    16      3       0.6704771       127.2371
2011    16      4       0.4470243       95.44284
2011    16      5       0.3477529       78.63115
2011    16      6       0.3540346       79.56202
2011    16      7       0.6088896       119.3366
2011    17      0       0.6873786       129.945
2011    17      1       0.6571824       126.2914
2011    17      2       0.530242        107.8349
2011    17      3       0.4121797       88.29939
2011    17      4       0.2974703       67.61055
2011    17      5       0.2481673       57.91458
2011    17      6       0.2361          57.10179
2011    17      7       0.2068723       49.79562
2011    18      0       0.1831658       45.16416
2011    18      1       0.1645419       41.4513
2011    18      2       0.1766245       43.97305
2011    18      3       0.2009288       48.94614
2011    18      4       0.2261863       54.04416
2011    18      5       0.2870038       65.78803
2011    18      6       0.3518332       77.64327
2011    18      7       0.7268845       132.7205
2011    19      0       0.5509711       110.394
2011    19      1       0.6626443       126.0846
2011    19      2       0.6966133       130.8692
2011    19      3       0.6489316       124.6986
2011    19      4       0.762395        138.7264
2011    19      5       0.2959527       68.63859
2011    19      6       0.2057961       51.13966
2011    19      7       0.2087032       51.69425
2011    20      0       0.2375769       57.33065
2011    20      1       0.2515521       59.86508
2011    20      2       0.2191498       54.52697
2011    20      3       0.3206969       74.20779
2011    20      4       0.3574575       81.43897
2011    20      5       0.417244        91.88568
2011    20      6       0.4210937       92.93825
2011    20      7       0.4126252       91.14264
2011    21      0       0.4132879       91.6508
2011    21      1       0.4558728       98.27481
2011    21      2       0.4885095       103.9306
2011    21      3       0.4553943       99.70671
2011    21      4       0.603161        124.2476
2011    21      5       0.6415499       130.5728
2011    21      6       0.4142637       88.97703
2011    21      7       0.3573462       79.06281
2011    22      0       0.5786031       113.4852
2011    22      1       0.3955529       90.00355
2011    22      2       0.4678867       102.5109
2011    22      3       0.3870156       87.73106
2011    22      4       0.2218698       56.23334
2011    22      5       0.1788798       46.8838
2011    22      6       0.2615321       63.58358
2011    22      7       0.2791752       66.67798
2011    23      0       0.3425691       77.59369
2011    23      1       0.3442257       76.13984
2011    23      2       0.3514162       77.47852
2011    23      3       0.3709537       81.06033
2011    23      4       0.3833598       83.19228
2011    23      5       0.4295998       90.77728
2011    23      6       0.3827978       87.17428
2011    23      7       0.3863561       87.6785
2011    24      0       0.3917305       88.21742
2011    24      1       0.3800458       83.00354
2011    24      2       0.4200991       89.54694
2011    24      3       0.3855429       83.58256
2011    24      4       0.3690599       83.27523
2011    24      5       0.3256778       76.12517
2011    24      6       0.3054667       72.67797
2011    24      7       0.2988301       70.53071
2011    25      0       0.2645082       63.231
2011    25      1       0.2485604       58.45438
2011    25      2       0.2307283       55.07
2011    25      3       0.2324375       55.4256
2011    25      4       0.2683884       64.02929
2011    25      5       0.2615086       62.80589
2011    25      6       0.2213627       55.25418
2011    25      7       0.2565654       62.17879
2011    26      0       0.2588162       60.87019
2011    26      1       0.2587036       61.21433
2011    26      2       0.3289051       74.51475
2011    26      3       0.5524297       110.6735
2011    26      4       0.3866855       84.50807
2011    26      5       0.3417618       76.56163
2011    26      6       0.313568        71.75234
2011    26      7       0.2485094       59.69657
2011    27      0       0.1845786       46.88052
2011    27      1       0.1361865       36.53161
2011    27      2       0.1517151       39.75905
2011    27      3       0.1645127       42.29794
2011    27      4       0.1582279       40.68856
2011    27      5       0.1647102       41.80344
2011    27      6       0.1553413       39.84461
2011    27      7       0.1377957       36.11454
2011    28      0       0.1713387       43.80463
2011    28      1       0.1201036       32.66718
2011    28      2       0.1168097       31.88352
2011    28      3       0.1242413       33.08989
2011    28      4       0.140097        36.67425
2011    28      5       0.1674209       42.65891
2011    28      6       0.2617674       63.1588
2011    28      7       0.4844392       100.6411
2011    29      0       0.6837714       128.1669
2011    29      1       0.5795113       113.8768
2011    29      2       0.259124        60.52758
2011    29      3       0.1974815       48.49532
2011    29      4       0.1872323       46.24752
2011    29      5       0.1544497       39.6148
2011    29      6       0.2269061       54.96773
2011    29      7       0.1982975       48.753
2011    30      0       0.1639071       41.71504
2011    30      1       0.1512328       39.01125
2011    30      2       0.1510404       39.05021
2011    30      3       0.1332621       35.27765
2011    30      4       0.1357037       35.93552
2011    30      5       0.1578046       40.74614
2011    30      6       0.183408        46.09121
2011    30      7       0.2260907       54.8024
2011    31      0       0.2833172       65.90488
2011    31      1       0.3186847       72.44486
2011    31      2       0.3152865       71.93019
2011    31      3       0.3486426       77.91581
2011    31      4       0.3477962       77.7712
2011    31      5       0.3386021       76.24871
2011    31      6       0.4381579       93.22055
2011    31      7       0.3227444       76.42182
2012    1       0       0.9609307       162.0845
2012    1       1       0.7845017       142.7101
2012    1       2       0.4733627       99.96028
2012    1       3       0.3991502       87.74687
2012    1       4       0.4163936       90.58769
2012    1       5       0.405824        88.82055
2012    1       6       0.4233584       91.65058
2012    1       7       0.4660951       98.41585
2012    2       0       0.4556182       96.59309
2012    2       1       0.4879815       101.5037
2012    2       2       0.4488134       95.31438
2012    2       3       0.4505742       95.60688
2012    2       4       0.380444        83.85562
2012    2       5       0.3830903       84.11128
2012    2       6       0.4080626       88.15403
2012    2       7       0.4052481       87.45894
2012    3       0       0.3787415       82.67571
2012    3       1       0.4192633       89.26506
2012    3       2       0.489173        100.3657
2012    3       3       0.4894176       100.4204
2012    3       4       0.4503976       94.41031
2012    3       5       0.4823313       99.46106
2012    3       6       0.6658148       128.2615
2012    3       7       0.6670189       130.925
2012    4       0       0.6366464       126.8836
2012    4       1       0.5599258       115.61
2012    4       2       0.3964022       88.42496
2012    4       3       0.3380379       78.16209
2012    4       4       0.2283824       55.0964
2012    4       5       0.1868          46.75083
2012    4       6       0.1957603       48.55226
2012    4       7       0.2130779       52.01518
2012    5       0       0.2277231       54.89596
2012    5       1       0.2077492       50.88546
2012    5       2       0.2203136       53.35478
2012    5       3       0.2384425       56.90859
2012    5       4       0.2711993       63.07329
2012    5       5       0.3635716       79.4214
2012    5       6       0.3152323       71.01348
2012    5       7       0.3662143       80.12022
2012    6       0       0.3272416       73.41593
2012    6       1       0.3890968       84.2284
2012    6       2       0.3658337       80.64303
2012    6       3       0.380905        83.66262
2012    6       4       0.3008772       69.6037
2012    6       5       0.2678478       63.33331
2012    6       6       0.2821708       66.14728
2012    6       7       0.3101993       71.50319
2012    7       0       0.4271155       91.81766
2012    7       1       0.6129927       119.6804
2012    7       2       0.6134516       120.0857
2012    7       3       0.6302885       122.5566
2012    7       4       0.6028368       118.8997
2012    7       5       0.6147419       120.5741
2012    7       6       0.7482556       137.6872
2012    7       7       0.7691972       140.2737
2012    8       0       0.7025567       132.5964
2012    8       1       0.6982026       132.7273
2012    8       2       0.9994718       166.2349
2012    8       3       1.081082        173.778
2012    8       4       1.087339        174.3225
2012    8       5       1.017834        167.6997
2012    8       6       0.8607178       151.5563
2012    8       7       0.7873039       143.067
2012    9       0       0.7440902       137.8718
2012    9       1       0.7839399       142.412
2012    9       2       0.8928134       154.7224
2012    9       3       1.015084        167.3523
2012    9       4       0.8780551       154.2696
2012    9       5       0.9590741       162.9939
2012    9       6       1.191924        183.5708
2012    9       7       1.012037        167.5158
2012    10      0       0.870773        152.9722
2012    10      1       0.8247522       147.8691
2012    10      2       0.8898893       155.234
2012    10      3       0.975757        164.2008
2012    10      4       0.924152        158.9738
2012    10      5       0.9099734       157.5458
2012    10      6       0.9641745       163.27
2012    10      7       1.033182        170.0779
2012    11      0       1.11054         176.9707
2012    11      1       1.105174        176.36
2012    11      2       1.049847        171.4744
2012    11      3       0.9751253       164.4979
2012    11      4       0.5905943       118.787
2012    11      5       0.527545        109.5964
2012    11      6       0.4802588       102.3759
2012    11      7       0.5581467       114.4006
2012    12      0       0.587972        118.6652
2012    12      1       0.6527894       127.4388
2012    12      2       0.7412878       138.6181
2012    12      3       0.7621316       141.2286
2012    12      4       0.8810484       154.6891
2012    12      5       1.031074        169.637
2012    12      6       0.9879708       165.6058
2012    12      7       0.9070617       157.4278
2012    13      0       0.8596172       152.203
2012    13      1       0.871913        153.196
2012    13      2       0.9293845       159.5452
2012    13      3       0.9784294       164.5673
2012    13      4       1.113111        176.7372
2012    13      5       1.313998        192.3083
2012    13      6       0.7188886       135.0349
2012    13      7       0.6034423       119.3494
2012    14      0       0.4167021       90.57355
2012    14      1       0.3482518       78.56995
2012    14      2       0.322183        74.05041
2012    14      3       0.3281944       75.23376
2012    14      4       0.3403634       77.64181
2012    14      5       0.3482715       79.20856
2012    14      6       0.3863935       85.95664
2012    14      7       0.45172         96.88775
2012    15      0       0.5343372       109.4951
2012    15      1       0.7560157       139.0459
2012    15      2       1.053794        169.681
2012    15      3       0.9021052       154.7699
2012    15      4       0.5630478       112.6513
2012    15      5       0.3421121       76.61121
2012    15      6       0.1619014       41.88662
2012    15      7       0.1188389       32.69128
2012    16      0       0.1147032       31.97409
2012    16      1       0.1131804       31.81722
2012    16      2       0.1185753       33.10316
2012    16      3       0.140158        38.13722
2012    16      4       0.1729061       45.51803
2012    16      5       0.2255846       56.63763
2012    16      6       0.5120595       107.9724
2012    16      7       0.7839324       145.1239
2012    17      0       1.136028        180.2625
2012    17      1       1.35556         196.4497
2012    17      2       1.32357         194.9038
2012    17      3       1.40954         201.3214
2012    17      4       1.711637        218.4057
2012    17      5       2.049281        233.467
2012    17      6       2.017913        233.2382
2012    17      7       1.793217        224.3162
2012    18      0       1.665703        217.3543
2012    18      1       1.519283        208.5873
2012    18      2       1.553232        211.3789
2012    18      3       1.675286        218.3379
2012    18      4       1.976422        231.6738
2012    18      5       2.311151        243.1979
2012    18      6       2.235174        240.7354
2012    18      7       2.474465        246.8306
2012    19      0       1.818011        224.9482
2012    19      1       1.544321        210.5326
2012    19      2       1.398668        200.7326
2012    19      3       1.261774        190.542
2012    19      4       1.081277        174.9111
2012    19      5       1.021389        168.9736
2012    19      6       0.9755494       164.0604
2012    19      7       0.743717        138.171
2012    20      0       0.7731533       141.4423
2012    20      1       0.7284078       136.249
2012    20      2       0.3670717       83.23315
2012    20      3       0.4694122       100.6356
2012    20      4       0.8219071       148.4822
2012    20      5       1.003051        167.8113
2012    20      6       1.395285        199.986
2012    20      7       1.495084        206.4855
2012    21      0       1.556524        209.6806
2012    21      1       1.429009        201.8174
2012    21      2       1.377774        198.4698
2012    21      3       1.324584        194.7778
2012    21      4       1.334809        194.9651
2012    21      5       1.444925        202.4561
2012    21      6       1.315484        194.1421
2012    21      7       1.136075        180.2023
2012    22      0       1.071143        174.5899
2012    22      1       1.016847        168.9377
2012    22      2       1.397127        199.3122
2012    22      3       1.259204        189.4834
2012    22      4       1.11745         177.7861
2012    22      5       1.297241        191.9382
2012    22      6       1.127419        179.9284
2012    22      7       1.322743        194.6658
2012    23      0       1.226491        187.406
2012    23      1       1.290381        192.0636
2012    23      2       1.487767        205.0981
2012    23      3       1.596072        211.6323
2012    23      4       1.640778        214.0247
2012    23      5       1.487088        205.2237
2012    23      6       1.280679        191.2672
2012    23      7       0.9851553       165.7732
2012    24      0       0.661315        128.004
2012    24      1       0.4978773       104.261
2012    24      2       0.4672058       99.85244
2012    24      3       0.5547188       113.1631
2012    24      4       0.7194678       134.9743
2012    24      5       1.128294        177.9274
2012    24      6       1.137554        179.1217
2012    24      7       1.168266        181.5004
2012    25      0       1.167892        182.0598
2012    25      1       1.209525        185.2934
2012    25      2       1.165117        181.3924
2012    25      3       1.112086        176.9651
2012    25      4       1.117134        176.8266
2012    25      5       0.9121234       156.6031
2012    25      6       0.5964611       117.8772
2012    25      7       0.5256584       106.8501
2012    26      0       0.434094        92.41058
2012    26      1       0.3701999       81.51133
2012    26      2       0.3918519       85.21034
2012    26      3       0.4351286       92.74376
2012    26      4       0.4237038       91.34848
2012    26      5       0.4437628       94.75681
2012    26      6       0.4252699       91.69394
2012    26      7       0.4299488       92.34212
2012    27      0       0.412659        89.54081
2012    27      1       0.4069771       88.68157
2012    27      2       0.3877245       85.16107
2012    27      3       0.3712769       82.1323
2012    27      4       0.3590205       79.83355
2012    27      5       0.3518581       78.48259
2012    27      6       0.3520084       78.49939
2012    27      7       0.4311555       91.76236
2012    28      0       0.4697686       97.93213
2012    28      1       0.4939863       101.7632
2012    28      2       0.6670295       125.8668
2012    28      3       0.7370488       134.5344
2012    28      4       0.7419865       135.154
2012    28      5       0.8235347       144.41
2012    28      6       0.7239399       133.2351
2012    28      7       0.6086831       118.7063
2012    29      0       0.599291        117.5476
2012    29      1       0.6425052       123.5499
2012    29      2       0.6774643       128.2252
2012    29      3       0.6986885       131.0971
2012    29      4       0.7823658       141.5469
2012    29      5       0.7145129       133.5975
2012    29      6       0.8478252       149.5173
2012    29      7       0.9814286       163.2901
2012    30      0       1.088718        173.6879
2012    30      1       0.5068047       105.2156
2012    30      2       0.4486196       95.91567
2012    30      3       0.5705675       114.8223
2012    30      4       0.7719395       141.2313
2012    30      5       1.092966        175.7543
2012    30      6       0.9502013       162.9977
2012    30      7       0.4655582       99.33527
2012    31      0       0.4228059       91.80312
2012    31      1       0.4044779       88.6105
2012    31      2       0.3632302       81.17813
2012    31      3       0.3558337       79.59165
2012    31      4       0.3496287       78.41265
2012    31      5       0.3844725       84.59218
2012    31      6       0.4088387       88.66291
2012    31      7       0.3667272       81.30202
2013    1       0       0.4378023       94.91693
2013    1       1       0.3492294       79.4883
2013    1       2       0.3341964       77.10625
2013    1       3       0.3822805       85.87296
2013    1       4       0.4972296       104.9637
2013    1       5       0.4782484       101.9098
2013    1       6       0.4166429       91.74507
2013    1       7       0.3183782       74.18706
2013    2       0       0.3398151       78.19802
2013    2       1       0.3128887       73.27094
2013    2       2       0.3812813       85.41451
2013    2       3       0.4834169       106.5053
2013    2       4       0.4732455       104.267
2013    2       5       0.4932394       106.4636
2013    2       6       0.5811506       119.1363
2013    2       7       1.09933         171.7936
2013    3       0       0.6343335       122.8383
2013    3       1       0.7891807       142.1346
2013    3       2       0.80966         144.5247
2013    3       3       0.8230881       145.861
2013    3       4       1.141972        176.4569
2013    3       5       1.099414        172.8376
2013    3       6       0.8452957       148.4662
2013    3       7       1.008794        166.1198
2013    4       0       1.020106        167.9235
2013    4       1       0.9901602       165.0139
2013    4       2       0.9203324       158.177
2013    4       3       0.9274048       158.9752
2013    4       4       0.984695        164.6659
2013    4       5       0.8938927       155.1506
2013    4       6       0.852102        150.4242
2013    4       7       0.8688153       152.3905
2013    5       0       0.7880657       143.2086
2013    5       1       0.7259697       135.7116
2013    5       2       0.5649165       114.0925
2013    5       3       0.4468652       95.85237
2013    5       4       0.4011036       88.14637
2013    5       5       0.4435178       95.1442
2013    5       6       0.5911461       117.871
2013    5       7       0.8126357       146.5152
2013    6       0       0.7625491       141.0497
2013    6       1       0.617477        122.3623
2013    6       2       0.8922415       155.6425
2013    6       3       1.15386         180.5005
2013    6       4       1.145709        180.1475
2013    6       5       1.068534        173.139
2013    6       6       1.025901        169.0018
2013    6       7       1.033599        169.3755
2013    7       0       1.076592        173.0386
2013    7       1       1.053713        170.8225
2013    7       2       1.03429         168.8508
2013    7       3       0.8800024       153.3074
2013    7       4       0.8096028       144.9901
2013    7       5       0.7261937       134.6098
2013    7       6       0.6112402       119.4822
2013    7       7       0.6556029       124.95
2013    8       0       0.5276188       107.349
2013    8       1       0.6653289       127.3083
2013    8       2       0.9020814       155.2942
2013    8       3       0.6914081       131.1996
2013    8       4       0.863222        151.1188
2013    8       5       0.7122229       133.4566
2013    8       6       0.6250789       121.5453
2013    8       7       0.8188478       146.0406
2013    9       0       0.807609        145.5078
2013    9       1       0.9046264       156.2389
2013    9       2       0.925076        158.8157
2013    9       3       0.8053771       145.9052
2013    9       4       0.8845065       154.1566
2013    9       5       0.7420354       136.7684
2013    9       6       0.4152496       90.26567
2013    9       7       0.3681333       84.92436
2013    10      0       0.3315909       75.79154
2013    10      1       0.3393582       77.24515
2013    10      2       0.6686061       130.5128
2013    10      3       0.7332786       142.3672
2013    10      4       0.7731728       148.5335
2013    10      5       1.026622        169.9701
2013    10      6       1.506606        206.8479
2013    10      7       1.427973        201.4882
2013    11      0       1.191693        184.1881
2013    11      1       1.054927        172.2738
2013    11      2       1.261169        189.2719
2013    11      3       1.176454        182.5843
2013    11      4       1.300558        191.9198
2013    11      5       0.8670777       153.0684
2013    11      6       0.98109         164.8129
2013    11      7       1.045159        170.5136
2013    12      0       1.153204        179.5471
2013    12      1       1.052693        171.01
2013    12      2       0.6987081       133.017
2013    12      3       0.5542321       113.0499
2013    12      4       0.4783509       101.2514
2013    12      5       0.4501585       96.45434
2013    12      6       0.5292642       108.7713
2013    12      7       0.4453987       95.97881
2013    13      0       0.4432616       95.55095
2013    13      1       0.5028566       104.9625
2013    13      2       0.6936137       131.6881
2013    13      3       0.8893985       154.5056
2013    13      4       1.006313        166.4663
2013    13      5       0.8958223       155.0953
2013    13      6       0.8357599       149.07
2013    13      7       0.7976737       144.6679
2013    14      0       0.7788285       141.9978
2013    14      1       0.6381003       123.6256
2013    14      2       0.4730121       98.92088
2013    14      3       0.3989138       86.55328
2013    14      4       0.331427        74.81357
2013    14      5       0.2789811       65.23998
2013    14      6       0.2456319       58.90367
2013    14      7       0.2447455       58.56362
2013    15      0       0.3722947       85.19794
2013    15      1       0.4544992       99.65021
2013    15      2       0.5312486       111.2417
2013    15      3       0.5329141       111.7024
2013    15      4       0.6084925       123.9633
2013    15      5       0.7361715       135.454
2013    15      6       0.9400867       158.8516
2013    15      7       1.065451        171.805
2013    16      0       1.27973         190.1028
2013    16      1       1.404536        199.4862
2013    16      2       1.31835         193.6064
2013    16      3       1.289238        191.3575
2013    16      4       0.6424703       124.1106
2013    16      5       0.4558537       96.09947
2013    16      6       0.3262989       75.66699
2013    16      7       0.2750791       65.52273
2013    17      0       0.3050026       70.96716
2013    17      1       0.2827482       66.62334
2013    17      2       0.2209018       55.1776
2013    17      3       0.3991905       90.1282
2013    17      4       0.4956473       106.5108
2013    17      5       0.5375707       108.3384
2013    17      6       0.933263        158.6538
2013    17      7       0.9091639       157.789
2013    18      0       0.5395832       110.4778
2013    18      1       0.3807465       84.45942
2013    18      2       0.38556         85.06437
2013    18      3       0.4486269       95.73467
2013    18      4       0.4804933       100.9332
2013    18      5       0.446006        95.6602
2013    18      6       0.3920025       86.35554
2013    18      7       0.4376894       93.31383
2013    19      0       0.4535954       95.67235
2013    19      1       0.69526         129.9121
2013    19      2       0.7656421       138.5763
2013    19      3       0.5269129       106.5138
2013    19      4       0.3539586       78.19626
2013    19      5       0.3127204       70.92294
2013    19      6       0.3164613       71.45371
2013    19      7       0.254272        61.11892
2013    20      0       0.172039        43.52227
2013    20      1       0.142728        37.51178
2013    20      2       0.1609348       42.31461
2013    20      3       0.2610236       61.78351
2013    20      4       0.3101913       73.61659
2013    20      5       0.4072757       91.31629
2013    20      6       0.5840057       120.1498
2013    20      7       0.3728087       85.31117
2013    21      0       0.3340712       77.58109
2013    21      1       0.3836955       86.65681
2013    21      2       0.821144        149.1628
2013    21      3       1.382479        199.3547
2013    21      4       1.476724        206.992
2013    21      5       1.222095        189.9976
2013    21      6       1.463021        206.4212
2013    21      7       2.169511        238.63
2013    22      0       1.478937        207.8319
2013    22      1       1.211773        189.1831
2013    22      2       1.384936        202.3589
2013    22      3       1.257261        192.3292
2013    22      4       1.223932        188.1278
2013    22      5       1.096984        177.8493
2013    22      6       0.8265596       151.2873
2013    22      7       0.8008163       147.6696
2013    23      0       0.7922838       145.6212
2013    23      1       0.7179997       136.139
2013    23      2       0.4329898       95.01048
2013    23      3       0.3110543       73.57435
2013    23      4       0.3260446       75.58021
2013    23      5       0.3712657       83.81316
2013    23      6       1.024486        169.8791
2013    23      7       1.294507        193.3816
2013    24      0       1.395973        200.5722
2013    24      1       0.8937021       157.6673
2013    24      2       0.9284928       161.1586
2013    24      3       0.9770387       166.2608
2013    24      4       0.9548431       164.1936
2013    24      5       1.03976         172.5975
2013    24      6       1.492187        206.5428
2013    24      7       1.282039        190.9906
2013    25      0       1.357473        196.3713
2013    25      1       1.182824        183.7174
2013    25      2       1.258696        189.5571
2013    25      3       1.359707        197.4279
2013    25      4       1.351239        196.5548
2013    25      5       1.056523        172.4543
2013    25      6       0.7898036       143.9732
2013    25      7       0.7466262       138.0432
2013    26      0       0.710045        132.5892
2013    26      1       0.5686326       112.9717
2013    26      2       0.4302928       91.28925
2013    26      3       0.3330838       74.55564
2013    26      4       0.2793476       64.48326
2013    26      5       0.3135007       70.60551
2013    26      6       0.2536207       59.81743
2013    26      7       0.2383513       56.78293
2013    27      0       0.2537477       59.84365
2013    27      1       0.2707445       63.15034
2013    27      2       0.2851655       65.93026
2013    27      3       0.2872935       66.31217
2013    27      4       0.2097544       51.54544
2013    27      5       0.207729        51.32099
2013    27      6       0.2030405       50.5409
2013    27      7       0.1801121       45.88776
2013    28      0       0.1699336       43.62236
2013    28      1       0.1761365       44.84036
2013    28      2       0.1697716       45.19285
2013    28      3       0.2810844       68.57326
2013    28      4       0.2827967       68.26793
2013    28      5       0.2461469       60.13941
2013    28      6       0.5466634       108.3932
2013    28      7       0.3794405       82.05258
2013    29      0       0.2153286       51.858
2013    29      1       0.1937446       47.54363
2013    29      2       0.3353678       74.61355
2013    29      3       0.1692697       43.05047
2013    29      4       0.2946444       68.0289
2013    29      5       0.4048865       87.84123
2013    29      6       0.472769        98.83812
2013    29      7       0.5024555       103.0353
2013    30      0       0.3887888       84.47366
2013    30      1       0.3660464       80.34326
2013    30      2       0.4440034       92.61356
2013    30      3       0.3319633       73.47627
2013    30      4       0.2014381       49.09277
2013    30      5       0.1663393       42.06399
2013    30      6       0.1529337       39.49811
2013    30      7       0.2336997       56.01048
2013    31      0       0.3114603       70.65847
2013    31      1       0.329739        73.9118
2013    31      2       0.3077972       69.98275
2013    31      3       0.3235996       72.76729
2013    31      4       0.5337239       106.8177
2013    31      5       0.7076047       130.8065
2013    31      6       0.7291906       133.4358
2013    31      7       0.5523559       109.8454
2014    1       0       1.400971        199.7615
2014    1       1       1.499807        206.2879
2014    1       2       1.428477        201.8686
2014    1       3       1.389986        199.8582
2014    1       4       1.271844        191.1969
2014    1       5       1.253141        190.1876
2014    1       6       1.46003         203.8129
2014    1       7       1.327312        194.5635
2014    2       0       1.349198        195.8136
2014    2       1       1.372083        197.0398
2014    2       2       1.433004        201.4377
2014    2       3       1.337854        195.3462
2014    2       4       1.344976        194.9528
2014    2       5       1.524311        206.7095
2014    2       6       1.244064        188.8198
2014    2       7       1.203274        185.9121
2014    3       0       1.056072        173.4545
2014    3       1       1.116047        178.9586
2014    3       2       1.217265        187.0405
2014    3       3       1.146734        180.8859
2014    3       4       1.12427         178.4646
2014    3       5       1.104355        176.6654
2014    3       6       1.265044        189.5574
2014    3       7       1.260375        189.3515
2014    4       0       1.198209        185.0055
2014    4       1       1.304144        192.7889
2014    4       2       1.148122        179.6328
2014    4       3       1.142107        178.4045
2014    4       4       0.8289187       147.6803
2014    4       5       0.6731875       128.6129
2014    4       6       0.5011217       103.7981
2014    4       7       0.3711548       82.52345
2014    5       0       0.2959569       69.13948
2014    5       1       0.3262588       75.14117
2014    5       2       0.6197742       122.2318
2014    5       3       0.8899607       155.4781
2014    5       4       1.331075        194.8526
2014    5       5       1.454858        205.1596
2014    5       6       1.776854        223.7689
2014    5       7       1.737238        222.1138
2014    6       0       2.313865        243.3377
2014    6       1       1.280361        192.7935
2014    6       2       0.8110628       147.7731
2014    6       3       0.5537457       113.6243
2014    6       4       0.4502809       96.68278
2014    6       5       0.4663516       98.58212
2014    6       6       0.6644031       127.2545
2014    6       7       0.867208        151.5479
2014    7       0       0.8402143       148.8999
2014    7       1       0.7147784       134.207
2014    7       2       0.9372322       159.1654
2014    7       3       0.7985803       144.2571
2014    7       4       0.4798382       100.5178
2014    7       5       0.395887        86.39038
2014    7       6       0.4520289       94.64152
2014    7       7       0.3648331       79.7105
2014    8       0       0.2337977       55.64444
2014    8       1       0.2927873       66.75857
2014    8       2       0.2607393       61.24724
2014    8       3       0.2354722       56.55822
2014    8       4       0.2359459       56.62356
2014    8       5       0.2489962       59.31876
2014    8       6       0.240503        57.91592
2014    8       7       0.2255534       55.15703
2014    9       0       0.2974681       69.29561
2014    9       1       0.3874224       85.71929
2014    9       2       0.3712585       83.10461
2014    9       3       0.6814241       129.6331
2014    9       4       0.9530148       160.9041
2014    9       5       1.071701        173.0871
2014    9       6       1.074931        173.8242
2014    9       7       0.8340543       149.5379
2014    10      0       0.6361004       125.2441
2014    10      1       0.5484976       112.5963
2014    10      2       0.5687661       115.0477
2014    10      3       0.367219        82.76762
2014    10      4       0.2776625       66.38046
2014    10      5       0.2360631       57.88332
2014    10      6       0.1746805       45.09221
2014    10      7       0.1424993       38.19811
2014    11      0       0.1178653       32.80085
2014    11      1       0.1340582       36.47233
2014    11      2       0.2244766       56.84467
2014    11      3       0.3132122       73.50099
2014    11      4       0.4548925       98.79569
2014    11      5       0.9271142       160.8463
2014    11      6       0.9295256       162.0485
2014    11      7       0.7946871       147.5739
2014    12      0       0.8192747       150.3595
2014    12      1       1.280807        194.1386
2014    12      2       1.084343        177.9772
2014    12      3       1.533927        210.3278
2014    12      4       1.580893        212.5688
2014    12      5       1.146559        182.5777
2014    12      6       1.660126        216.2869
2014    12      7       1.534793        209.3137
2014    13      0       1.496137        207.291
2014    13      1       1.448004        204.3081
2014    13      2       1.423309        202.0401
2014    13      3       0.6133168       122.5378
2014    13      4       0.4166117       92.44629
2014    13      5       0.4730452       101.8631
2014    13      6       1.301275        193.7734
2014    13      7       1.721017        219.1916
2014    14      0       1.507752        207.8514
2014    14      1       1.370727        198.4643
2014    14      2       1.325499        195.4628
2014    14      3       0.8628984       153.767
2014    14      4       0.4472461       96.89329
2014    14      5       0.3986965       88.73701
2014    14      6       0.4241813       95.52929
2014    14      7       0.6659589       135.0807
2014    15      0       0.6126589       122.6614
2014    15      1       0.6236064       124.4071
2014    15      2       0.6908063       133.5372
2014    15      3       0.7140426       135.8487
2014    15      4       0.2818747       66.53306
2014    15      5       0.215889        53.06949
2014    15      6       0.1941047       49.77728
2014    15      7       0.1792252       47.24606
2014    16      0       0.2452254       59.56989
2014    16      1       0.342434        78.11315
2014    16      2       0.5589818       113.5081
2014    16      3       0.5344328       110.9594
2014    16      4       0.6596326       129.2517
2014    16      5       0.8328295       150.44
2014    16      6       0.7888487       145.2751
2014    16      7       0.8506245       152.5304
2014    17      0       1.023435        170.15
2014    17      1       1.021048        169.0427
2014    17      2       0.5797743       116.5291
2014    17      3       0.2666245       63.64855
2014    17      4       0.206217        51.53458
2014    17      5       0.1676287       43.21778
2014    17      6       0.147138        39.82547
2014    17      7       0.1551486       41.87689
2014    18      0       0.1817524       48.03385
2014    18      1       0.2663146       65.8147
2014    18      2       0.3277117       75.27876
2014    18      3       0.3777825       84.21392
2014    18      4       0.3705637       82.9812
2014    18      5       0.4127514       90.25388
2014    18      6       0.459651        98.23056
2014    18      7       0.5797684       116.6919
2014    19      0       0.7043708       133.8695
2014    19      1       1.025058        169.5058
2014    19      2       1.181207        183.2808
2014    19      3       1.328885        194.7486
2014    19      4       1.424462        201.1924
2014    19      5       1.430121        201.6697
2014    19      6       1.529101        207.9449
2014    19      7       1.464636        204.2269
2014    20      0       1.416299        201.1307
2014    20      1       1.249808        189.3798
2014    20      2       1.16566         182.3553
2014    20      3       1.084429        175.1373
2014    20      4       0.8646278       153.2939
2014    20      5       0.8979933       156.331
2014    20      6       1.024597        169.2418
2014    20      7       1.008494        167.5988
2014    21      0       0.9695829       163.5852
2014    21      1       0.8662068       152.7199
2014    21      2       0.7632434       140.9681
2014    21      3       0.8149492       146.964
2014    21      4       0.7963054       144.8259
2014    21      5       0.723556        136.0896
2014    21      6       0.763834        140.7619
2014    21      7       0.7077361       133.7041
2014    22      0       0.7442398       138.0382
2014    22      1       0.8276161       147.6751
2014    22      2       0.8363952       148.596
2014    22      3       0.80761         145.3353
2014    22      4       0.7691887       140.764
2014    22      5       0.7709831       140.9513
2014    22      6       0.7886011       142.9515
2014    22      7       0.753556        138.7136
2014    23      0       0.9114876       156.1672
2014    23      1       0.8467807       148.8738
2014    23      2       0.7017082       131.2128
2014    23      3       0.7128471       132.308
2014    23      4       0.7009846       130.5283
2014    23      5       0.5888157       115.4885
2014    23      6       0.5015408       102.7431
2014    23      7       0.4854513       100.307
2014    24      0       0.3982914       86.4336
2014    24      1       0.4153224       89.26811
2014    24      2       0.4697848       97.84152
2014    24      3       0.4286802       91.16641
2014    24      4       0.3103296       70.72072
2014    24      5       0.3323343       74.65911
2014    24      6       0.321599        72.80252
2014    24      7       0.3588579       79.37908
2014    25      0       0.3223104       72.85008
2014    25      1       0.2983643       68.47744
2014    25      2       0.3011505       69.21768
2014    25      3       0.4676322       97.49863
2014    25      4       0.3578672       79.67738
2014    25      5       0.3348693       75.9099
2014    25      6       0.380669        84.00008
2014    25      7       0.4526413       95.58235
2014    26      0       0.3314636       75.15273
2014    26      1       0.3749308       83.48097
2014    26      2       0.3859371       85.75019
2014    26      3       0.3430725       78.95932
2014    26      4       0.3120477       73.2185
2014    26      5       0.286496        67.83419
2014    26      6       0.31967         74.0577
2014    26      7       0.376822        84.43037
2014    27      0       0.3696015       82.87681
2014    27      1       0.3522562       79.52348
2014    27      2       0.2774928       65.82687
2014    27      3       0.2116032       52.88885
2014    27      4       0.2019209       51.09283
2014    27      5       0.2581335       62.55204
2014    27      6       0.3550459       80.73446
2014    27      7       0.4438243       95.91919
2014    28      0       0.4471567       97.16065
2014    28      1       0.4554281       98.70968
2014    28      2       0.4945084       105.0138
2014    28      3       0.521809        109.2125
2014    28      4       0.6143672       123.0058
2014    28      5       0.6488417       127.6608
2014    28      6       0.6691094       130.3554
2014    28      7       0.6209211       123.6011
2014    29      0       0.6644236       129.3983
2014    29      1       0.6709059       130.3545
2014    29      2       1.022934        170.1002
2014    29      3       1.338778        196.2942
2014    29      4       1.372067        198.8784
2014    29      5       1.37191         198.9011
2014    29      6       1.488268        206.2227
2014    29      7       1.417697        201.7787
2014    30      0       1.096427        177.8149
2014    30      1       0.9396719       163.3282
2014    30      2       1.182269        184.8235
2014    30      3       1.133382        179.9359
2014    30      4       1.241589        187.0328
2014    30      5       1.05072         170.7682
2014    30      6       0.6939067       132.7816
2014    30      7       0.5847781       117.8072
2014    31      0       0.5958514       118.816
2014    31      1       0.5877595       117.2787
2014    31      2       0.5949956       118.1368
2014    31      3       0.6012659       118.9423
2014    31      4       0.6843973       129.9225
2014    31      5       0.6891545       130.4222
2014    31      6       0.6638155       127.2585
2014    31      7       0.6405274       124.504
2015    1       0       0.2312128       55.22382
2015    1       1       0.23174         55.38039
2015    1       2       0.2176736       52.78275
2015    1       3       0.223083        54.18261
2015    1       4       0.2182707       53.45357
2015    1       5       0.2634381       62.4417
2015    1       6       0.3354612       75.97455
2015    1       7       0.3079099       70.87571
2015    2       0       0.7574381       138.7249
2015    2       1       1.054248        170.1988
2015    2       2       1.166226        180.5049
2015    2       3       0.5786785       115.8574
2015    2       4       0.2778552       64.80373
2015    2       5       0.1805712       45.0515
2015    2       6       0.1705116       42.59551
2015    2       7       0.1519403       38.53485
2015    3       0       0.1266284       33.04747
2015    3       1       0.1155736       30.59218
2015    3       2       0.1120166       29.80807
2015    3       3       0.1203041       31.66196
2015    3       4       0.1611129       40.48573
2015    3       5       0.15801         39.90702
2015    3       6       0.1537482       39.03165
2015    3       7       0.1531613       38.87075
2015    4       0       0.1505236       38.23788
2015    4       1       0.1486674       37.79311
2015    4       2       0.151278        38.31481
2015    4       3       0.1518712       38.47379
2015    4       4       0.1384604       35.77303
2015    4       5       0.1351029       35.1605
2015    4       6       0.1359844       35.36007
2015    4       7       0.1256766       33.72065
2015    5       0       0.1222569       33.24036
2015    5       1       0.1221794       33.45332
2015    5       2       0.1128438       31.36442
2015    5       3       0.1247824       33.27491
2015    5       4       0.1444425       37.54812
2015    5       5       0.1541022       39.65005
2015    5       6       0.1783975       44.77814
2015    5       7       0.3893777       84.00529
2015    6       0       0.4425403       92.53005
2015    6       1       0.4030533       86.17157
2015    6       2       0.3410978       75.75177
2015    6       3       0.2938058       69.77379
2015    6       4       0.1859814       46.93731
2015    6       5       0.1684866       43.6904
2015    6       6       0.1679992       43.59159
2015    6       7       0.1734755       44.8241
2015    7       0       0.1863289       47.56704
2015    7       1       0.2060197       51.69741
2015    7       2       0.2233803       55.26005
2015    7       3       0.2429206       59.17321
2015    7       4       0.2310794       56.94189
2015    7       5       0.2101681       52.7584
2015    7       6       0.2046035       51.70405
2015    7       7       0.1716337       44.62843
2015    8       0       0.1778784       45.93007
2015    8       1       0.1816945       46.67662
2015    8       2       0.1876324       47.88569
2015    8       3       0.1961595       49.66645
2015    8       4       0.1953491       49.49327
2015    8       5       0.2050852       51.5007
2015    8       6       0.3229764       74.50185
2015    8       7       0.4971237       103.9666
2015    9       0       0.7791429       142.1091
2015    9       1       0.7413613       137.6863
2015    9       2       0.8885391       154.7041
2015    9       3       0.9909619       165.5838
2015    9       4       1.009073        167.9999
2015    9       5       0.8091089       147.3329
2015    9       6       0.6986028       133.7248
2015    9       7       0.919363        159.0594
2015    10      0       0.9075349       157.7666
2015    10      1       1.04715         171.2969
2015    10      2       1.272057        189.3176
2015    10      3       1.162253        180.7224
2015    10      4       1.018046        168.3517
2015    10      5       1.064683        172.7901
2015    10      6       1.198039        184.0101
2015    10      7       1.131775        178.8077
2015    11      0       1.220604        185.7051
2015    11      1       1.004546        167.2765
2015    11      2       0.5927948       119.0182
2015    11      3       0.5528394       112.9034
2015    11      4       0.5971499       118.9147
2015    11      5       0.6431491       125.1128
2015    11      6       0.5859236       117.1454
2015    11      7       0.4767783       100.8956
2015    12      0       0.4356566       94.12895
2015    12      1       0.4541292       96.67761
2015    12      2       0.452025        96.00941
2015    12      3       0.7520685       137.0777
2015    12      4       0.5594711       109.9928
2015    12      5       0.5350679       106.4193
2015    12      6       0.3620385       80.2208
2015    12      7       0.306551        70.43916
2015    13      0       0.2941621       68.01251
2015    13      1       0.2748638       64.63066
2015    13      2       0.2760926       64.84918
2015    13      3       0.392016        85.43048
2015    13      4       0.4963911       102.2132
2015    13      5       0.353512        80.30172
2015    13      6       0.3440933       77.99217
2015    13      7       0.2491408       60.27372
2015    14      0       0.2086855       51.13284
2015    14      1       0.1760116       44.5608
2015    14      2       0.1755209       44.59101
2015    14      3       0.1781707       45.28001
2015    14      4       0.2106647       51.97375
2015    14      5       0.3185117       72.7881
2015    14      6       0.3030474       70.09846
2015    14      7       0.2965702       71.20866
2015    15      0       0.2847164       68.78128
2015    15      1       0.4447254       97.62227
2015    15      2       0.6125612       119.1221
2015    15      3       0.7495012       137.7254
2015    15      4       0.6776456       128.411
2015    15      5       0.7690974       139.7998
2015    15      6       0.7216377       135.2696
2015    15      7       0.9643536       163.1273
2015    16      0       0.9000302       155.5793
2015    16      1       0.4398171       94.08177
2015    16      2       0.4024404       88.0007
2015    16      3       0.5695249       114.0951
2015    16      4       1.247652        187.0771
2015    16      5       1.28787         191.0814
2015    16      6       1.391708        198.168
2015    16      7       1.524514        207.2263
2015    17      0       1.389758        198.9588
2015    17      1       1.123887        179.1801
2015    17      2       1.39549         199.6861
2015    17      3       1.183497        183.7553
2015    17      4       1.462208        203.6096
2015    17      5       1.208116        185.1261
2015    17      6       1.040347        170.5378
2015    17      7       0.6860242       130.5149
2015    18      0       0.4841259       100.4725
2015    18      1       0.3435122       76.47619
2015    18      2       0.2392369       57.31087
2015    18      3       0.1722304       44.22555
2015    18      4       0.1941118       48.86567
2015    18      5       0.2453226       59.31713
2015    18      6       0.3961585       87.04134
2015    18      7       0.9663113       162.4393
2015    19      0       1.094979        174.5814
2015    19      1       1.119329        177.6115
2015    19      2       0.9439171       160.0776
2015    19      3       0.7378787       136.2757
2015    19      4       0.5563313       111.0145
2015    19      5       0.3020299       68.83648
2015    19      6       0.2580028       60.26423
2015    19      7       0.2625589       60.95134
2015    20      0       0.2628107       60.74151
2015    20      1       0.22006         52.52421
2015    20      2       0.1434342       37.68231
2015    20      3       0.1286294       33.95523
2015    20      4       0.1338458       35.43262
2015    20      5       0.2176598       53.17535
2015    20      6       0.3858947       87.50528
2015    20      7       0.5966685       117.0515
2015    21      0       1.114154        177.2479
2015    21      1       1.170348        182.9169
2015    21      2       1.206009        185.0134
2015    21      3       1.103794        176.2299
2015    21      4       0.3746746       83.49019
2015    21      5       0.1931602       48.27891
2015    21      6       0.1740329       43.84941
2015    21      7       0.1675913       42.35249
2015    22      0       0.1658334       41.88927
2015    22      1       0.1739805       43.5019
2015    22      2       0.2028577       49.48939
2015    22      3       0.5755327       113.5898
2015    22      4       0.5919963       116.5382
2015    22      5       0.2637648       61.90842
2015    22      6       0.2217951       53.488
2015    22      7       0.1650618       41.55363
2015    23      0       0.1536001       38.92425
2015    23      1       0.1468987       37.49198
2015    23      2       0.2273976       53.89491
2015    23      3       0.208005        50.12288
2015    23      4       0.1684892       42.07898
2015    23      5       0.1516061       38.53486
2015    23      6       0.1452383       37.23943
2015    23      7       0.1079959       29.32022
2015    24      0       0.1035054       28.32239
2015    24      1       0.1009848       27.86818
2015    24      2       0.1031597       28.56385
2015    24      3       0.1162656       31.6608
2015    24      4       0.1849749       46.34691
2015    24      5       0.1661636       42.37742
2015    24      6       0.206815        51.12926
2015    24      7       0.3038641       70.08255
2015    25      0       0.5180327       106.0444
2015    25      1       0.8725038       151.6309
2015    25      2       0.8571619       150.2988
2015    25      3       0.9046266       155.4899
2015    25      4       0.5687262       114.7975
2015    25      5       0.4371344       94.95835
2015    25      6       0.3538587       80.78447
2015    25      7       0.320054        74.63666
2015    26      0       0.2943391       69.83172
2015    26      1       0.2798009       67.06764
2015    26      2       0.2781916       66.89051
2015    26      3       0.2833764       67.87868
2015    26      4       0.2851052       68.18928
2015    26      5       0.2858173       68.26867
2015    26      6       0.2983474       70.65904
2015    26      7       0.3083583       72.54603
2015    27      0       0.3086714       72.31166
2015    27      1       0.316185        73.35642
2015    27      2       0.318588        73.59227
2015    27      3       0.2948462       68.97654
2015    27      4       0.2588362       61.75965
2015    27      5       0.301037        69.97049
2015    27      6       0.696123        132.1843
2015    27      7       0.8053475       145.5067
2015    28      0       0.7742487       142.0027
2015    28      1       0.6914194       131.7672
2015    28      2       0.7080902       133.9362
2015    28      3       0.5597018       113.7957
2015    28      4       0.460535        98.44764
2015    28      5       0.4737565       100.0522
2015    28      6       0.6013964       119.1844
2015    28      7       0.6603369       126.9011
2015    29      0       0.4488116       95.74622
2015    29      1       0.3043227       70.70247
2015    29      2       0.2871468       67.49715
2015    29      3       0.2864051       67.36411
2015    29      4       0.2847645       67.06866
2015    29      5       0.3099402       71.93177
2015    29      6       0.3734204       83.36853
2015    29      7       0.4060457       89.02429
2015    30      0       0.3678828       82.39728
2015    30      1       0.3524923       79.64141
2015    30      2       0.4020166       88.47637
2015    30      3       0.46413         98.97446
2015    30      4       0.5660748       114.6707
2015    30      5       0.7674016       141.168
2015    30      6       0.9975078       165.962
2015    30      7       1.081527        173.7731
2015    31      0       1.05993         171.8861
2015    31      1       1.063521        172.1289
2015    31      2       1.177489        181.5655
2015    31      3       1.129587        177.2917
2015    31      4       0.9156792       157.5477
2015    31      5       0.8828803       154.1462
2015    31      6       0.974847        163.9031
2015    31      7       1.25222         187.8221
2016    1       0       0.3325878       74.9563
2016    1       1       0.3788829       82.88611
2016    1       2       0.3415446       76.64634
2016    1       3       0.3655084       80.95514
2016    1       4       0.3573228       79.40559
2016    1       5       0.3384496       76.15636
2016    1       6       0.3896919       85.60697
2016    1       7       0.3739836       83.3969
2016    2       0       0.3147214       72.74146
2016    2       1       0.3195504       73.84001
2016    2       2       0.4789851       100.9859
2016    2       3       1.114861        176.4952
2016    2       4       0.9533803       162.3722
2016    2       5       1.082978        174.6241
2016    2       6       1.267419        189.4798
2016    2       7       1.392197        199.2708
2016    3       0       1.237309        188.673
2016    3       1       1.232504        188.034
2016    3       2       0.5135031       107.4757
2016    3       3       0.316398        72.97583
2016    3       4       0.3417026       77.25291
2016    3       5       0.5135866       105.4356
2016    3       6       0.5265487       107.9065
2016    3       7       0.8134061       145.4591
2016    4       0       0.4559192       96.34053
2016    4       1       0.2770815       64.58458
2016    4       2       0.2478439       58.58437
2016    4       3       0.2277459       54.30719
2016    4       4       0.2451516       58.02072
2016    4       5       0.2230193       53.72145
2016    4       6       0.2403958       57.04353
2016    4       7       0.2191273       52.81401
2016    5       0       0.3889101       83.23331
2016    5       1       0.2107309       50.99377
2016    5       2       0.2046378       49.963
2016    5       3       0.1759424       44.2682
2016    5       4       0.1779201       44.52727
2016    5       5       0.215499        52.04446
2016    5       6       0.2156239       52.0605
2016    5       7       0.2229812       53.54423
2016    6       0       0.2366791       56.18434
2016    6       1       0.2295837       54.8729
2016    6       2       0.2220882       53.53049
2016    6       3       0.1820255       46.57461
2016    6       4       0.1984766       50.09554
2016    6       5       0.2385545       58.13035
2016    6       6       0.235493        55.99479
2016    6       7       0.2451913       57.90949
2016    7       0       0.2575486       60.4581
2016    7       1       0.2618229       61.46117
2016    7       2       0.2683516       62.77389
2016    7       3       0.235298        56.3423
2016    7       4       0.2280246       54.78564
2016    7       5       0.2393395       57.24183
2016    7       6       0.3303417       74.48434
2016    7       7       0.3733167       82.18635
2016    8       0       0.3686948       81.54176
2016    8       1       0.2849909       66.70372
2016    8       2       0.2607115       62.56007
2016    8       3       0.292807        69.16677
2016    8       4       0.3037978       71.29814
2016    8       5       0.3076558       71.78196
2016    8       6       0.3308512       75.92422
2016    8       7       0.35716         80.73514
2016    9       0       0.4063636       89.31479
2016    9       1       0.3905894       86.70649
2016    9       2       0.4423676       95.43539
2016    9       3       0.4589133       98.0866
2016    9       4       0.2932952       69.02493
2016    9       5       0.2327779       57.26285
2016    9       6       0.2153289       53.75568
2016    9       7       0.2381237       58.5031
2016    10      0       0.3452639       78.87001
2016    10      1       0.4661387       99.42855
2016    10      2       0.3053685       71.84004
2016    10      3       0.252082        61.73352
2016    10      4       0.2321072       57.77523
2016    10      5       0.2050183       52.03594
2016    10      6       0.2057221       51.90589
2016    10      7       0.2018244       50.84695
2016    11      0       0.1811133       46.32748
2016    11      1       0.1708055       44.01912
2016    11      2       0.1567134       40.95926
2016    11      3       0.1492621       39.3762
2016    11      4       0.1510391       39.73537
2016    11      5       0.1561533       40.82504
2016    11      6       0.1806673       46.10647
2016    11      7       0.2367403       57.67843
2016    12      0       0.4060523       88.67384
2016    12      1       0.5526625       111.726
2016    12      2       0.5469205       111.3252
2016    12      3       0.7103434       133.8761
2016    12      4       0.8591821       151.3846
2016    12      5       0.9888377       164.8185
2016    12      6       0.7882344       143.6912
2016    12      7       0.6650562       128.4195
2016    13      0       0.5785679       116.4678
2016    13      1       0.4282691       93.01257
2016    13      2       0.3052143       71.16009
2016    13      3       0.2957435       69.34412
2016    13      4       0.3350139       76.60745
2016    13      5       0.3942016       87.16175
2016    13      6       0.4283739       93.15888
2016    13      7       0.4126748       90.88836
2016    14      0       0.4223615       92.81219
2016    14      1       0.3823469       86.20266
2016    14      2       0.3485746       80.59882
2016    14      3       0.3214365       75.85476
2016    14      4       0.3485545       81.13131
2016    14      5       0.5999671       121.8034
2016    14      6       0.6954625       134.9071
2016    14      7       0.63702         127.8292
2016    15      0       0.5786928       119.187
2016    15      1       0.533098        111.8112
2016    15      2       0.4922466       105.1877
2016    15      3       0.5041836       107.3045
2016    15      4       0.6146805       124.0139
2016    15      5       0.6626876       130.7638
2016    15      6       0.6154162       123.9199
2016    15      7       0.447361        97.97023
2016    16      0       0.3462015       80.65019
2016    16      1       0.3629672       84.03581
2016    16      2       0.4083294       92.3394
2016    16      3       0.4141541       93.48691
2016    16      4       0.3741425       86.69267
2016    16      5       0.3799805       87.87445
2016    16      6       0.7561757       143.7531
2016    16      7       0.9974141       169.5772
2016    17      0       0.8685086       156.2505
2016    17      1       0.9661738       165.8881
2016    17      2       1.231743        188.783
2016    17      3       1.194955        185.4128
2016    17      4       1.066579        174.5598
2016    17      5       1.067064        175.1245
2016    17      6       1.149138        181.946
2016    17      7       1.275562        200.929
2016    18      0       0.8984702       159.1006
2016    18      1       0.9919148       168.4983
2016    18      2       1.405046        200.77
2016    18      3       1.421133        201.3379
2016    18      4       1.276321        191.2049
2016    18      5       1.46764         204.2239
2016    18      6       1.550776        210.0002
2016    18      7       1.334658        196.6856
2016    19      0       1.05409         173.467
2016    19      1       1.211236        186.0606
2016    19      2       1.550563        209.0833
2016    19      3       1.425062        201.5143
2016    19      4       1.363285        197.0016
2016    19      5       0.9245715       159.899
2016    19      6       1.250565        188.5158
2016    19      7       1.386936        198.6142
2016    20      0       1.422955        201.4146
2016    20      1       1.262666        190.0578
2016    20      2       1.277356        190.7112
2016    20      3       1.359735        197.0985
2016    20      4       1.539466        209.4115
2016    20      5       1.29676         193.5895
2016    20      6       1.653254        216.3433
2016    20      7       1.555028        211.2663
2016    21      0       1.337739        197.0563
2016    21      1       1.120315        179.6459
2016    21      2       1.182073        184.9351
2016    21      3       1.266771        190.7188
2016    21      4       0.9700912       164.8493
2016    21      5       0.7054071       134.4623
2016    21      6       0.4857092       102.7415
2016    21      7       0.6745167       129.5305
2016    22      0       0.9508425       160.9932
2016    22      1       0.4889634       102.548
2016    22      2       0.5095841       105.2931
2016    22      3       0.6712192       128.2877
2016    22      4       0.5185286       106.7727
2016    22      5       0.3901695       85.58992
2016    22      6       0.4150547       89.50503
2016    22      7       0.4132743       88.69373
2016    23      0       0.3522672       77.85526
2016    23      1       0.267102        62.15444
2016    23      2       0.2850191       65.49965
2016    23      3       0.2999895       68.175
2016    23      4       0.2664599       62.06899
2016    23      5       0.25087         59.27626
2016    23      6       0.2503706       59.40392
2016    23      7       0.2620604       61.85988
2016    24      0       0.2844229       66.05621
2016    24      1       0.3053296       69.75046
2016    24      2       0.2671989       62.30604
2016    24      3       0.2185694       52.85275
2016    24      4       0.2110371       51.62282
2016    24      5       0.2441178       58.59591
2016    24      6       0.3373327       76.25337
2016    24      7       0.4925402       102.2061
2016    25      0       0.3216062       73.55095
2016    25      1       0.2899932       67.65308
2016    25      2       0.2804465       65.80108
2016    25      3       0.3139826       72.08504
2016    25      4       0.293312        68.11164
2016    25      5       0.2313311       55.84149
2016    25      6       0.2067171       50.94094
2016    25      7       0.1881946       47.13969
2016    26      0       0.1692677       43.16518
2016    26      1       0.1707581       43.53022
2016    26      2       0.1848309       46.64025
2016    26      3       0.1688753       43.3408
2016    26      4       0.1789476       45.55816
2016    26      5       0.1873573       47.73627
2016    26      6       0.1665378       43.58955
2016    26      7       0.2448128       59.15567
2016    27      0       0.3367584       77.47472
2016    27      1       0.483396        102.6927
2016    27      2       0.5389097       111.9513
2016    27      3       0.4988828       106.0493
2016    27      4       0.4379557       96.71931
2016    27      5       0.4481243       98.62603
2016    27      6       0.4851664       104.5584
2016    27      7       0.649076        129.0102
2016    28      0       0.5865929       120.7559
2016    28      1       0.6484987       129.8043
2016    28      2       0.7923326       147.6136
2016    28      3       0.732926        139.9222
2016    28      4       0.6101784       123.8264
2016    28      5       0.5635562       117.5802
2016    28      6       0.5640719       117.7079
2016    28      7       0.6013506       123.0317
2016    29      0       0.6067464       123.5952
2016    29      1       0.4393757       97.27764
2016    29      2       0.4860563       104.2316
2016    29      3       0.6891158       133.98
2016    29      4       0.7902092       146.3555
2016    29      5       0.8985988       157.873
2016    29      6       0.8005372       146.543
2016    29      7       0.5347347       110.8888
2016    30      0       0.487671        103.2948
2016    30      1       0.5645688       114.1676
2016    30      2       0.5703691       114.8679
2016    30      3       0.5034489       104.9612
2016    30      4       0.6080303       120.2211
2016    30      5       0.6343107       123.9359
2016    30      6       0.6359028       123.8692
2016    30      7       0.6994917       131.6463
2016    31      0       0.6116446       119.6514
2016    31      1       0.4388119       93.38662
2016    31      2       0.2749246       64.63425
2016    31      3       0.2814022       65.9182
2016    31      4       0.2908916       67.8583
2016    31      5       0.3681943       82.0688
2016    31      6       0.7526904       138.6158
2016    31      7       1.142001        179.9152
2017    1       0       1.289188        192.1556
2017    1       1       1.308628        193.2226
2017    1       2       1.314324        193.5495
2017    1       3       1.245516        188.6209
2017    1       4       1.106782        177.7918
2017    1       5       1.101433        177.8699
2017    1       6       1.279251        192.5378
2017    1       7       1.674065        216.8552
2017    2       0       1.26557         191.8866
2017    2       1       1.468166        207.0901
2017    2       2       1.632797        215.417
2017    2       3       1.549415        210.8285
2017    2       4       1.299712        195.3614
2017    2       5       0.8507314       153.8415
2017    2       6       0.5882991       119.661
2017    2       7       0.452788        98.65242
2017    3       0       0.3944882       88.49893
2017    3       1       0.4541935       98.04509
2017    3       2       0.7275115       136.9179
2017    3       3       1.448788        202.563
2017    3       4       1.455838        203.1361
2017    3       5       1.195353        184.0074
2017    3       6       0.8966797       156.6845
2017    3       7       1.133424        179.0285
2017    4       0       1.274088        190.5865
2017    4       1       1.343592        195.7788
2017    4       2       1.16167         181.1765
2017    4       3       1.000943        166.4565
2017    4       4       0.6724044       128.3834
2017    4       5       0.7719603       140.9416
2017    4       6       0.5286776       109.049
2017    4       7       0.6228659       122.1415
2017    5       0       0.8972971       156.2613
2017    5       1       1.096784        175.4851
2017    5       2       1.320399        193.8727
2017    5       3       2.164318        236.6933
2017    5       4       1.475312        206.8793
2017    5       5       0.8364246       152.446
2017    5       6       0.5078622       109.4112
2017    5       7       0.874428        158.039
2017    6       0       1.074608        177.0779
2017    6       1       1.707804        218.5548
2017    6       2       1.65408         216.5644
2017    6       3       1.569389        212.0812
2017    6       4       1.734607        220.3199
2017    6       5       1.521667        208.8686
2017    6       6       0.895235        158.3263
2017    6       7       0.9506137       163.3338
2017    7       0       0.7313993       138.5187
2017    7       1       0.6643164       129.581
2017    7       2       0.7627536       141.0787
2017    7       3       1.306614        192.333
2017    7       4       1.262399        190.1071
2017    7       5       1.137231        180.2736
2017    7       6       0.8467603       151.8637
2017    7       7       1.668804        216.4656
2017    8       0       1.224159        188.1265
2017    8       1       1.158919        182.0587
2017    8       2       0.7509197       141.0643
2017    8       3       0.7146951       135.9322
2017    8       4       0.9748164       165.1886
2017    8       5       1.005611        168.5261
2017    8       6       1.147688        181.8725
2017    8       7       1.9813          230.9908
2017    9       0       1.598789        212.5227
2017    9       1       0.9333055       160.2358
2017    9       2       0.6052703       120.4445
2017    9       3       0.5956804       119.4981
2017    9       4       0.8033794       146.0294
2017    9       5       1.158306        180.9173
2017    9       6       0.58414         117.7729
2017    9       7       0.4783441       101.6025
2017    10      0       0.5834101       118.1258
2017    10      1       0.5951936       120.5213
2017    10      2       1.123247        178.8477
2017    10      3       0.840517        150.2159
2017    10      4       0.5482018       111.9242
2017    10      5       0.571253        114.8686
2017    10      6       0.4512853       96.36275
2017    10      7       0.3998021       87.93458
2017    11      0       0.3747028       83.35464
2017    11      1       0.3756261       83.32635
2017    11      2       0.5227041       106.9963
2017    11      3       0.5089747       104.9472
2017    11      4       0.3996133       87.2126
2017    11      5       0.3072796       70.75875
2017    11      6       0.298229        69.40747
2017    11      7       0.3550533       80.07795
2017    12      0       0.5720584       114.3564
2017    12      1       0.7086943       133.8704
2017    12      2       0.585797        117.7631
2017    12      3       0.5854416       117.934
2017    12      4       0.7199628       136.0651
2017    12      5       1.086847        175.1596
2017    12      6       0.7652184       142.4445
2017    12      7       0.8161002       147.4092
2017    13      0       1.307121        192.3556
2017    13      1       1.462237        201.6528
2017    13      2       0.8822368       154.9293
2017    13      3       1.49028         205.5298
2017    13      4       0.9745834       165.1744
2017    13      5       1.407166        199.2992
2017    13      6       1.352065        196.0408
2017    13      7       1.307573        193.2968
2017    14      0       1.510074        206.7457
2017    14      1       1.566852        209.9288
2017    14      2       1.318553        194.4373
2017    14      3       1.116896        178.3361
2017    14      4       0.8490569       151.4371
2017    14      5       0.7728041       141.977
2017    14      6       0.739488        137.7499
2017    14      7       0.6700366       128.7125
2017    15      0       0.6013643       119.1724
2017    15      1       0.5162898       106.7098
2017    15      2       0.4508424       96.51806
2017    15      3       0.4118117       90.10063
2017    15      4       0.3377483       77.28344
2017    15      5       0.3041159       70.76289
2017    15      6       0.3154514       72.80437
2017    15      7       0.3371464       76.61743
2017    16      0       0.8109938       145.4825
2017    16      1       0.6184533       121.7202
2017    16      2       0.9255045       158.1788
2017    16      3       0.2943425       68.51654
2017    16      4       0.2418918       58.47916
2017    16      5       0.213992        52.83513
2017    16      6       0.2199294       53.85182
2017    16      7       0.2591482       61.58572
2017    17      0       0.4230728       90.96149
2017    17      1       0.3938348       86.64686
2017    17      2       0.2918584       68.3612
2017    17      3       0.2859544       67.19282
2017    17      4       0.3556675       80.16907
2017    17      5       0.3680789       82.51926
2017    17      6       0.4050569       88.95945
2017    17      7       0.5435358       110.6693
2017    18      0       0.734016        136.5395
2017    18      1       0.9854722       164.641
2017    18      2       0.9157697       158.4435
2017    18      3       0.9781711       165.3496
2017    18      4       1.183997        184.413
2017    18      5       0.730535        138.0052
2017    18      6       0.3445484       78.80943
2017    18      7       0.2708527       64.39417
2017    19      0       0.2766468       65.08441
2017    19      1       0.3705857       82.29076
2017    19      2       0.4613118       97.33293
2017    19      3       0.5433313       110.2497
2017    19      4       0.6119925       120.4432
2017    19      5       0.3217746       73.42513
2017    19      6       0.1776963       45.11771
2017    19      7       0.1527601       39.69667
2017    20      0       0.1252109       33.75632
2017    20      1       0.1319611       35.27922
2017    20      2       0.176264        44.7391
2017    20      3       0.2236822       54.55032
2017    20      4       0.2081034       51.5432
2017    20      5       0.1501308       39.40062
2017    20      6       0.1496785       39.23578
2017    20      7       0.1566536       41.52759
2017    21      0       0.1677123       44.01211
2017    21      1       0.1916744       49.07406
2017    21      2       0.1905537       48.89908
2017    21      3       0.175128        45.65488
2017    21      4       0.1679658       44.09688
2017    21      5       0.1758848       45.79858
2017    21      6       0.1947966       49.84882
2017    21      7       0.1936145       49.76465
2017    22      0       0.1841374       47.84775
2017    22      1       0.1644408       43.63071
2017    22      2       0.2167134       55.05427
2017    22      3       0.2530049       62.59602
2017    22      4       0.2761216       64.96254
2017    22      5       0.4692982       98.55585
2017    22      6       0.5700263       113.9908
2017    22      7       0.4715521       99.26895
2017    23      0       0.4136211       89.82379
2017    23      1       0.4166381       90.36064
2017    23      2       0.4589947       97.51312
2017    23      3       0.4769392       100.5296
2017    23      4       0.473416        100.2759
2017    23      5       0.4926474       103.6106
2017    23      6       0.4981098       104.5191
2017    23      7       0.4763183       100.8853
2017    24      0       0.5114152       105.999
2017    24      1       0.535146        109.9106
2017    24      2       0.538613        110.7442
2017    24      3       0.6956233       132.2678
2017    24      4       0.5936711       118.2688
2017    24      5       0.5172865       106.5984
2017    24      6       0.5017142       104.1378
2017    24      7       0.4994491       103.8988
2017    25      0       0.5022425       104.5005
2017    25      1       0.5140392       106.3498
2017    25      2       0.5725852       115.0575
2017    25      3       0.6349759       123.7787
2017    25      4       0.5208788       107.3785
2017    25      5       0.5256074       108.0566
2017    25      6       0.5389714       109.804
2017    25      7       0.5312993       108.9697
2017    26      0       0.4641281       99.24962
2017    26      1       0.5423043       111.6637
2017    26      2       0.7706578       142.2848
2017    26      3       1.108176        178.3904
2017    26      4       2.120965        235.5994
2017    26      5       1.257474        192.0472
2017    26      6       1.317395        196.6471
2017    26      7       1.394351        201.3602
2017    27      0       1.208343        187.536
2017    27      1       1.156399        182.8256
2017    27      2       0.8990206       156.5813
2017    27      3       0.5737336       114.1221
2017    27      4       0.3572603       80.125
2017    27      5       0.2908671       68.17922
2017    27      6       0.3591869       80.04935
2017    27      7       0.4507566       94.87045
2017    28      0       0.3768881       82.04948
2017    28      1       0.3074557       69.55422
2017    28      2       0.2439673       57.24368
2017    28      3       0.217613        51.74623
2017    28      4       0.164498        41.16449
2017    28      5       0.1616214       40.63923
2017    28      6       0.1943583       48.53381
2017    28      7       0.2281512       56.29329
2017    29      0       0.329964        74.24687
2017    29      1       0.321814        73.53805
2017    29      2       0.2992623       69.96971
2017    29      3       0.6252324       121.9419
2017    29      4       0.9583456       162.544
2017    29      5       0.6464862       126.88
2017    29      6       0.46447         98.98978
2017    29      7       0.3712567       82.52289
2017    30      0       0.3943929       86.48126
2017    30      1       0.3079649       71.02242
2017    30      2       0.3446879       77.22245
2017    30      3       0.5405925       109.233
2017    30      4       0.7246131       134.6706
2017    30      5       0.8833793       152.8992
2017    30      6       0.9035138       155.6436
2017    30      7       1.071232        172.8547
2017    31      0       1.092505        174.9177
2017    31      1       0.459843        96.83914
2017    31      2       0.2217551       53.24807
2017    31      3       0.1891829       46.59376
2017    31      4       0.1461574       37.82714
2017    31      5       0.1292566       34.31084
2017    31      6       0.1943676       48.26277
2017    31      7       0.2464062       58.60737
2018    1       0       0.3722521       82.13849
2018    1       1       0.3235431       73.75628
2018    1       2       0.3131042       71.67025
2018    1       3       0.3170157       71.90693
2018    1       4       0.2569414       60.0755
2018    1       5       0.1572164       40.02684
2018    1       6       0.176265        43.74184
2018    1       7       0.1814354       44.70944
2018    2       0       0.1790478       44.19133
2018    2       1       0.1651547       41.41571
2018    2       2       0.1244098       33.02741
2018    2       3       0.1324225       34.8768
2018    2       4       0.1418421       37.06321
2018    2       5       0.1419345       37.18123
2018    2       6       0.1448002       37.74165
2018    2       7       0.1759052       45.36177
2018    3       0       0.1915261       48.44229
2018    3       1       0.1845472       45.63368
2018    3       2       0.1199264       32.10463
2018    3       3       0.1752923       44.72398
2018    3       4       0.1552354       40.44195
2018    3       5       0.135935        36.22628
2018    3       6       0.1509316       39.51938
2018    3       7       0.1632636       42.55192
2018    4       0       0.1995056       50.09609
2018    4       1       0.1977319       50.08007
2018    4       2       0.2415601       59.73994
2018    4       3       0.4222088       94.0011
2018    4       4       0.4511572       96.26327
2018    4       5       0.375604        84.76787
2018    4       6       0.3940448       88.31371
2018    4       7       0.3523855       81.28233
2018    5       0       0.3308075       77.45273
2018    5       1       0.3304949       77.15926
2018    5       2       0.3739162       85.11783
2018    5       3       0.406289        90.73584
2018    5       4       0.6232987       124.3372
2018    5       5       1.109518        177.9595
2018    5       6       1.08922         175.8758
2018    5       7       1.07202         173.3234
2018    6       0       0.6231327       123.3351
2018    6       1       0.545513        112.174
2018    6       2       0.3649082       83.29632
2018    6       3       0.297165        70.86256
2018    6       4       0.2964252       70.35962
2018    6       5       0.3220752       75.23752
2018    6       6       0.356607        81.12874
2018    6       7       0.8291678       149.3867
2018    7       0       0.9748042       165.2143
2018    7       1       1.039661        171.13
2018    7       2       1.05826         171.7467
2018    7       3       0.4182213       91.46452
2018    7       4       0.3134774       72.64356
2018    7       5       0.2548878       61.13364
2018    7       6       0.2346755       57.33063
2018    7       7       0.2785367       66.29504
2018    8       0       0.353137        80.41096
2018    8       1       0.3725242       83.75797
2018    8       2       0.3696993       83.0799
2018    8       3       0.3175579       73.88746
2018    8       4       0.3805136       85.4014
2018    8       5       0.633832        124.7218
2018    8       6       1.079352        175.4015
2018    8       7       1.849563        226.3365
2018    9       0       1.576094        213.4991
2018    9       1       1.609015        214.6988
2018    9       2       1.784722        223.2432
2018    9       3       1.836177        225.7295
2018    9       4       1.967799        231.9871
2018    9       5       1.878873        229.3945
2018    9       6       2.261563        241.2929
2018    9       7       1.529616        209.5899
2018    10      0       1.562493        211.5155
2018    10      1       1.52014         208.3927
2018    10      2       1.667989        216.8696
2018    10      3       1.272917        192.2142
2018    10      4       0.7290906       138.5027
2018    10      5       1.483349        204.1437
2018    10      6       1.378596        197.5885
2018    10      7       0.8389688       150.2535
2018    11      0       0.6617659       128.0801
2018    11      1       0.8304386       148.3503
2018    11      2       0.5407906       110.3599
2018    11      3       0.4129585       89.80112
2018    11      4       0.3953784       86.79008
2018    11      5       0.3617122       80.68103
2018    11      6       0.3362364       75.85978
2018    11      7       0.3677153       81.30608
2018    12      0       0.4020373       87.05908
2018    12      1       0.3075228       69.40319
2018    12      2       0.2212414       52.99194
2018    12      3       0.2445491       57.51313
2018    12      4       0.2148011       52.46307
2018    12      5       0.1885524       47.51666
2018    12      6       0.225985        53.91688
2018    12      7       0.2472693       59.02697
2018    13      0       0.1771978       45.19265
2018    13      1       0.1649835       42.73464
2018    13      2       0.179002        45.173
2018    13      3       0.2209109       54.81911
2018    13      4       0.1973888       49.55073
2018    13      5       0.1918187       48.52275
2018    13      6       0.2605024       62.53026
2018    13      7       0.3055449       71.00021
2018    14      0       0.2555122       61.35152
2018    14      1       0.1804744       46.15638
2018    14      2       0.1479334       39.23687
2018    14      3       0.1497583       39.63853
2018    14      4       0.1544435       40.73436
2018    14      5       0.1409104       38.0546
2018    14      6       0.1325026       36.46658
2018    14      7       0.1552762       41.60749
2018    15      0       0.1917533       49.17652
2018    15      1       0.2093315       52.78516
2018    15      2       0.3590944       82.46173
2018    15      3       0.5317418       108.2565
2018    15      4       0.6537235       125.5068
2018    15      5       0.6169523       121.1284
2018    15      6       0.4011739       88.5744
2018    15      7       0.3274811       75.50927
2018    16      0       0.2857488       67.61971
2018    16      1       0.3310059       75.855
2018    16      2       0.3786602       84.26545
2018    16      3       0.3409344       77.85693
2018    16      4       0.3821473       85.69138
2018    16      5       0.5093427       106.7776
2018    16      6       0.5461325       112.4906
2018    16      7       0.558878        114.2914
2018    17      0       1.135937        178.7726
2018    17      1       1.130609        178.2488
2018    17      2       0.9584153       162.8914
2018    17      3       0.7895437       144.8303
2018    17      4       0.6681002       130.0115
2018    17      5       0.5298383       110.6555
2018    17      6       0.4450184       97.31921
2018    17      7       0.4089354       91.23876
2018    18      0       0.3944669       88.71611
2018    18      1       0.4647524       100.5609
2018    18      2       0.4665565       101.1866
2018    18      3       0.4704853       101.9788
2018    18      4       0.4454626       98.19327
2018    18      5       0.4088437       92.0193
2018    18      6       0.6004237       121.7183
2018    18      7       1.206698        186.7501
2018    19      0       0.9981965       168.2723
2018    19      1       0.5602378       115.2673
2018    19      2       0.5953869       121.124
2018    19      3       0.5109462       108.8883
2018    19      4       0.3829173       87.54289
2018    19      5       0.3725797       85.56672
2018    19      6       0.7796955       145.2922
2018    19      7       0.9514358       164.4179
2018    20      0       0.579065        118.2893
2018    20      1       0.5267365       110.3964
2018    20      2       0.6711494       131.0844
2018    20      3       1.526778        209.2865
2018    20      4       1.591688        213.2924
2018    20      5       1.413264        202.9939
2018    20      6       0.9261612       161.8825
2018    20      7       1.275356        192.2977
2018    21      0       1.408315        201.751
2018    21      1       1.333798        196.0406
2018    21      2       1.6255          214.6639
2018    21      3       1.622384        213.759
2018    21      4       1.560075        209.757
2018    21      5       1.105357        177.3293
2018    21      6       1.125703        179.0358
2018    21      7       1.270907        190.643
2018    22      0       1.251897        188.7898
2018    22      1       0.9610471       163.1814
2018    22      2       0.8565662       151.9535
2018    22      3       0.7167978       135.5955
2018    22      4       0.5937042       119.3126
2018    22      5       0.5963788       119.7114
2018    22      6       0.6694416       130.1567
2018    22      7       0.9078993       158.4291
2018    23      0       0.9413502       161.6124
2018    23      1       0.9151652       158.929
2018    23      2       0.8461902       151.5471
2018    23      3       1.126798        178.9658
2018    23      4       1.288943        192.9632
2018    23      5       1.412881        201.6849
2018    23      6       1.963149        229.3059
2018    23      7       1.601172        212.3584
2018    24      0       1.719272        218.6587
2018    24      1       1.753386        220.545
2018    24      2       1.631357        214.1673
2018    24      3       1.513013        207.1165
2018    24      4       1.042479        172.5836
2018    24      5       0.6883409       132.7732
2018    24      6       0.8201449       148.4598
2018    24      7       0.8463882       151.963
2018    25      0       0.7781073       144.1828
2018    25      1       1.437313        202.633
2018    25      2       1.539774        209.8368
2018    25      3       1.477432        205.796
2018    25      4       1.494053        206.189
2018    25      5       1.316551        193.6685
2018    25      6       0.4430568       95.56003
2018    25      7       0.4435385       95.50273
2018    26      0       0.5371803       110.9087
2018    26      1       0.8489467       151.0498
2018    26      2       1.424538        201.1478
2018    26      3       0.6716273       129.5774
2018    26      4       0.6473335       126.5342
2018    26      5       0.5866871       118.864
2018    26      6       0.5868037       118.8586
2018    26      7       0.6457033       126.9293
2018    27      0       0.9705081       165.9069
2018    27      1       1.24254         189.5924
2018    27      2       1.464047        204.8805
2018    27      3       1.411159        201.7831
2018    27      4       1.307044        195.6345
2018    27      5       1.3876          200.8125
2018    27      6       1.609472        213.9229
2018    27      7       1.742454        220.4227
2018    28      0       1.406302        200.6319
2018    28      1       0.73079         136.9797
2018    28      2       0.48189         101.9876
2018    28      3       0.394084        87.47942
2018    28      4       0.4216211       91.92151
2018    28      5       0.3995467       88.05384
2018    28      6       0.3996869       88.1551
2018    28      7       0.3944316       87.21713
2018    29      0       0.3648658       81.90714
2018    29      1       0.3533082       79.6543
2018    29      2       0.414684        89.89119
2018    29      3       0.5315293       108.311
2018    29      4       0.6243877       122.0077
2018    29      5       0.7383029       137.1939
2018    29      6       0.7122292       133.9692
2018    29      7       0.5906462       117.5024
2018    30      0       0.5447115       111.0369
2018    30      1       0.6144291       121.3905
2018    30      2       0.863766        151.8996
2018    30      3       0.9229637       158.1318
2018    30      4       0.9032099       156.3002
2018    30      5       0.6361701       124.2204
2018    30      6       0.5577525       112.3838
2018    30      7       0.3539622       79.66862
2018    31      0       0.3401903       77.19146
2018    31      1       0.3471709       78.19146
2018    31      2       0.3459497       77.64443
2018    31      3       0.3733342       82.12782
2018    31      4       0.4049549       87.40138
2018    31      5       0.4077656       88.19264
2018    31      6       0.3624539       80.51934
2018    31      7       0.3558827       79.40023
