####################################################################################################
# Month: 01Jan                                                                                     #
# Station: YAN                                                                                     #
# Frequency: 345 GHz                                                                               #
# Columns are: year    day     tau     Tb (K)                                                      #
####################################################################################################
2009    1       1.21463725      186.633075
2009    2       1.26636012      191.297375
2009    3       1.4562225       205.4584625
2009    4       1.35455488      197.5581375
2009    5       0.93297421      162.4202
2009    6       0.69181394      134.7456
2009    7       0.81555501      148.8353
2009    8       1.30625338      194.264925
2009    9       1.38060238      199.627925
2009    10      1.332892        196.350775
2009    11      1.35220562      197.460375
2009    12      1.25692775      191.146875
2009    13      1.2456935       190.0878
2009    14      1.04515196      172.5783625
2009    15      1.1883991       185.2743875
2009    16      1.1975885       185.308425
2009    17      0.85794575      153.007275
2009    18      1.21612062      186.9392375
2009    19      1.1868541       185.0996625
2009    20      1.1790529       183.6548
2009    21      1.18566553      182.6647
2009    22      0.5348629       111.303835
2009    23      1.04833694      167.6979375
2009    24      0.88537273      157.8380125
2009    25      0.82953161      149.0121625
2009    26      1.11390424      179.504675
2009    27      1.3626005       199.264825
2009    28      1.40902025      201.9592875
2009    29      1.31225863      193.9214375
2009    30      1.23403491      188.7655375
2009    31      1.34602525      196.52475
2010    1       0.43496184      94.74419
2010    2       0.87886635      153.7413125
2010    3       1.0215082       171.0570125
2010    4       1.48292926      205.0477875
2010    5       1.61115762      214.686925
2010    6       1.54467712      211.3066875
2010    7       1.5588865       212.3432625
2010    8       1.49789988      209.74665
2010    9       1.36534916      197.5507
2010    10      1.42223475      203.513425
2010    11      1.29736925      193.3570625
2010    12      1.30531575      194.26295
2010    13      1.31777113      195.97945
2010    14      1.372368        199.349025
2010    15      1.48689125      206.759875
2010    16      1.58402712      212.442675
2010    17      1.38603738      200.8801125
2010    18      1.6217725       215.27515
2010    19      1.21761561      185.8099
2010    20      1.36505025      199.4758
2010    21      1.33642525      196.5520875
2010    22      1.559841        211.075825
2010    23      1.19204432      185.81835
2010    24      0.99841438      168.0108
2010    25      0.94704624      161.9579125
2010    26      0.8653784       154.3665875
2010    27      0.84804635      150.82745
2010    28      1.09801971      178.2487875
2010    29      0.27915892      67.546735
2010    30      0.50341435      97.1107675
2010    31      1.40284888      200.5388625
2011    1       0.24107361      61.61098875
2011    2       0.62823718      125.07341875
2011    3       0.68250574      126.933505
2011    4       1.17420911      183.564875
2011    5       0.83193124      150.9160625
2011    6       1.14635389      181.3276
2011    7       1.2736895       191.86525
2011    8       1.3633265       198.235125
2011    9       1.2130374       186.9193125
2011    10      1.47167712      205.8725375
2011    11      1.408053        201.3616375
2011    12      1.377297        199.51555
2011    13      1.37657062      199.8162875
2011    14      1.52699338      209.94525
2011    15      1.55704512      211.289125
2011    16      1.67612175      217.7221
2011    17      1.29123925      194.20455
2011    18      1.36622925      198.6760625
2011    19      1.31536812      194.0042875
2011    20      1.5321565       209.1926375
2011    21      1.38392325      199.073075
2011    22      1.16774572      182.8971125
2011    23      1.32321925      195.1269375
2011    24      1.38999588      200.2431375
2011    25      1.35096875      197.281375
2011    26      1.39101862      200.44505
2011    27      1.3286725       195.8053375
2011    28      1.24938538      190.81685
2011    29      1.3376025       197.2660875
2011    30      1.442175        204.055325
2011    31      1.39758013      201.0500875
2012    1       1.20752334      183.99135
2012    2       0.51236588      107.90447125
2012    3       0.32354248      74.489745
2012    4       0.57553354      112.9408625
2012    5       1.34687162      197.1954
2012    6       1.283283        192.2741875
2012    7       1.09856162      175.0745
2012    8       1.29075262      192.4383375
2012    9       0.79015514      142.93915
2012    10      0.36651852      84.65695375
2012    11      0.26988275      67.198615
2012    12      0.56196591      113.567995
2012    13      0.6926181       135.7143875
2012    14      0.27956239      70.07803875
2012    15      0.32732516      77.25313875
2012    16      0.61401465      124.6450875
2012    17      0.97716124      165.7284875
2012    18      0.6459278       128.8994375
2012    19      0.48185994      101.63681625
2012    20      0.95634439      162.1174625
2012    21      1.11425256      177.879775
2012    22      1.20759075      185.994425
2012    23      0.97463451      164.8484375
2012    24      0.59489669      117.56533125
2012    25      0.7328825       137.495975
2012    26      1.01961006      166.9016625
2012    27      1.36605062      198.51295
2012    28      1.31993462      195.1549125
2012    29      1.202148        186.4906125
2012    30      1.25002512      190.3844375
2012    31      1.24651637      189.674675
2013    1       1.09461661      177.3684
2013    2       1.360798        198.7809375
2013    3       0.84819711      150.42175
2013    4       1.32789325      196.4668
2013    5       1.17931457      184.2818375
2013    6       0.88445095      157.4428875
2013    7       0.81702799      149.584025
2013    8       1.13485513      181.972875
2013    9       1.21410071      186.30865
2013    10      1.4318435       202.9610375
2013    11      1.310416        194.593925
2013    12      0.89623674      159.5056875
2013    13      1.0213785       171.1494625
2013    14      0.80297971      146.5863375
2013    15      0.77427904      141.9718625
2013    16      1.10946615      178.101125
2013    17      1.37047537      198.5282375
2013    18      1.05912528      168.6400875
2013    19      0.71734398      135.154675
2013    20      0.54875217      110.0412975
2013    21      0.53198898      109.13859125
2013    22      0.59776754      117.70333
2013    23      1.0253666       169.2260125
2013    24      0.7062468       133.9061125
2013    25      0.43462514      93.6205875
2013    26      0.7860451       144.967775
2013    27      0.55293163      114.436245
2013    28      0.73721972      133.20838125
2013    29      1.00301628      168.78385
2013    30      1.11696974      179.2482875
2013    31      0.74683374      140.890825
2014    1       0.81132684      140.31498125
2014    2       0.93203704      161.57735
2014    3       0.99955799      161.8011875
2014    4       1.62507738      214.8956125
2014    5       1.58690238      212.5258375
2014    6       1.48653062      206.4289125
2014    7       1.44506038      203.9811
2014    8       1.45300962      205.3036
2014    9       1.51066525      208.0373
2014    10      1.319064        196.483725
2014    11      1.352385        199.37345
2014    12      0.99488251      168.6819375
2014    13      1.324026        195.3291875
2014    14      1.414439        201.650875
2014    15      1.39553412      200.101475
2014    16      1.390302        200.8093625
2014    17      1.12276283      177.608325
2014    18      1.32510663      194.80115
2014    19      1.18908         184.758025
2014    20      1.1633365       182.4208625
2014    21      1.41120375      201.953325
2014    22      1.30265037      193.4779
2014    23      1.36721912      198.412425
2014    24      1.11517421      178.951575
2014    25      0.54370526      115.1240875
2014    26      0.28815589      70.30812625
2014    27      0.72115128      124.48166875
2014    28      0.73834065      135.70534875
2014    29      1.142289        181.834675
2014    30      0.82450609      150.2499875
2014    31      1.129813        180.3596
2015    1       0.86036429      154.739875
2015    2       1.3127955       195.015975
2015    3       1.35692425      196.732525
2015    4       1.39173         199.613525
2015    5       1.42974         202.697975
2015    6       1.29703475      192.830625
2015    7       1.17113299      182.966825
2015    8       1.35984338      198.0603875
2015    9       1.313811        194.538725
2015    10      1.38486188      199.7149375
2015    11      1.277909        191.792475
2015    12      0.5995435       120.22103375
2015    13      0.42738649      91.1823075
2015    14      0.66163136      125.67075375
2015    15      0.35075651      81.17316625
2015    16      0.2526816       63.552405
2015    17      0.33237021      75.51328
2015    18      0.75373758      141.6589875
2015    19      0.31572643      74.3101625
2015    20      0.46186231      100.07926
2015    21      1.28029333      190.8609875
2015    22      1.30631175      194.9365375
2015    23      1.4693275       205.4651625
2015    24      1.33288125      196.0115375
2015    25      1.45296475      204.3074625
2015    26      1.29779062      193.9630875
2015    27      0.76695264      140.3837875
2015    28      1.41170888      202.0527125
2015    29      1.379868        199.3852875
2015    30      1.12826219      178.52715
2015    31      1.04241794      169.51125
2016    1       0.30045438      67.18972125
2016    5       1.02803899      171.628625
2016    6       1.11318726      178.640125
2016    7       0.80229049      140.64934375
2016    8       0.33127921      76.0688875
2016    9       0.39070712      79.47138
2016    10      1.04695219      172.2347875
2016    11      1.25488546      187.5756375
2016    12      1.26380197      190.3944
2016    13      0.29082054      68.9005675
2016    14      0.2036112       53.44796125
2016    15      0.4902485       96.5655575
2016    16      0.96359552      161.0411625
2016    17      1.33325788      194.6787875
2016    18      1.5649385       211.5914875
2016    19      1.31581188      194.3548
2016    20      1.14774762      182.7542875
2016    21      1.45508938      205.1265
2016    22      1.255966        190.6029875
2016    23      1.22348635      187.9935
2016    24      1.36447225      200.11435
2016    25      0.88420712      156.4213
2016    26      1.06771667      176.84805
2016    27      1.00097954      169.477625
2016    28      0.87092019      156.1765625
2016    29      1.18823938      188.0506125
2016    30      0.66226505      130.313575
2016    31      0.46983214      98.201615
2017    1       1.45816425      205.9691125
2017    2       1.57885775      212.7617875
2017    3       1.6679175       216.9017625
2017    4       1.48968862      206.5144
2017    5       1.400756        200.8196625
2017    6       1.4793975       206.6888
2017    7       1.39193475      201.146
2017    8       1.14145967      181.253075
2017    9       1.01439095      167.7542625
2017    10      1.32266275      196.55165
2017    11      1.34322625      198.3564625
2017    12      1.49566         207.6374375
2017    13      1.46080288      204.925925
2017    14      1.62598625      215.0399
2017    15      1.471734        206.3164125
2017    16      1.43287512      203.4182625
2017    17      1.36283712      199.0468375
2017    18      1.43869125      204.222225
2017    19      1.4338185       201.19345
2017    20      1.37476         198.62615
2017    21      1.2520251       187.2611125
2017    22      1.33274971      195.135725
2017    23      1.3197776       195.4143375
2017    24      1.30861062      194.888975
2017    25      1.51546888      208.0423375
2017    26      1.381391        199.13405
2017    27      1.42051725      201.855275
2017    28      1.31050088      194.9609
2017    29      1.14261365      181.6895875
2017    30      1.34745061      197.8633
2017    31      1.429974        202.5142125
2018    1       1.4621645       205.1688125
2018    2       1.37608562      199.652775
2018    3       1.0880573       177.4816125
2018    4       1.08989218      177.2169625
2018    5       1.28362825      193.505375
2018    6       1.15494978      181.47535
2018    7       1.08219125      177.90915
2018    8       1.08050249      175.6815375
2018    9       1.32453038      196.095125
2018    10      1.34241675      196.3724375
2018    11      1.296297        194.3479125
2018    12      1.4164065       202.699775
2018    13      0.93774894      162.6597875
2018    14      0.43559722      96.01841375
2018    15      1.05336519      172.733
2018    16      1.299749        194.11685
2018    17      1.37033638      198.7033
2018    18      1.29189337      192.3731625
2018    19      1.27403312      192.0767
2018    20      1.35002775      197.1087125
2018    21      1.3087183       193.7327
2018    22      1.4986555       206.9442125
2018    23      1.363841        197.8467625
2018    24      1.16321301      180.88995
2018    25      0.88975551      154.69075
2018    26      1.07161704      173.55585
2018    27      0.5842048       117.91655
2018    28      0.41405946      89.4443175
2018    29      0.78930261      137.562465
2018    30      1.18198257      183.6626
2018    31      0.53396671      109.52896375
