####################################################################################################
# Month: 01Jan                                                                                     #
# Station: YAN                                                                                     #
# Frequency: 230 GHz                                                                               #
# Columns are: year    day     tau     Tb (K)                                                      #
####################################################################################################
2009    1       0.3833532       86.6697275
2009    2       0.39449238      88.9239825
2009    3       0.46491395      101.38634875
2009    4       0.4242217       93.9044875
2009    5       0.27415486      67.01904125
2009    6       0.19867139      51.50601875
2009    7       0.24471346      60.67421375
2009    8       0.43232518      95.4666625
2009    9       0.44100438      96.95509875
2009    10      0.42502476      94.20523625
2009    11      0.43764454      96.15613875
2009    12      0.41305138      92.28973125
2009    13      0.39988819      89.87176875
2009    14      0.32009131      75.30729375
2009    15      0.3743259       85.45728375
2009    16      0.38007025      85.91106375
2009    17      0.27149808      65.66527
2009    18      0.39678259      88.99716
2009    19      0.39590691      89.1275725
2009    20      0.38717664      87.04841125
2009    21      0.38122708      85.74645625
2009    22      0.1604831       42.69348
2009    23      0.33471369      76.809335
2009    24      0.27579596      67.36310125
2009    25      0.26347864      64.38507375
2009    26      0.34729822      80.78023625
2009    27      0.44259334      97.67686625
2009    28      0.45583175      99.67952625
2009    29      0.43250846      95.1240575
2009    30      0.39986235      89.85570625
2009    31      0.44864715      97.82326375
2010    1       0.12460064      34.702015
2010    2       0.26855995      65.24600875
2010    3       0.30307285      72.39323
2010    4       0.47151554      101.46952875
2010    5       0.51816629      109.99523625
2010    6       0.49234882      106.06468625
2010    7       0.49762851      106.9738975
2010    8       0.48010536      104.9515975
2010    9       0.43131545      94.72506
2010    10      0.43528944      96.56561125
2010    11      0.40202221      90.09084375
2010    12      0.40512649      90.7918075
2010    13      0.40813594      91.66895125
2010    14      0.430022        95.13454
2010    15      0.46856671      101.482945
2010    16      0.50537431      107.34448
2010    17      0.42890676      95.24975375
2010    18      0.52588346      111.0346375
2010    19      0.36885246      84.15195125
2010    20      0.43116894      95.55833875
2010    21      0.4088019       91.30910625
2010    22      0.50299815      107.12391
2010    23      0.37071349      84.70136625
2010    24      0.30610489      72.39944875
2010    25      0.28422828      67.962965
2010    26      0.25104414      61.90352
2010    27      0.25397019      62.0574475
2010    28      0.34345065      79.86940125
2010    29      0.08058274      24.413075
2010    30      0.16335542      41.568705
2010    31      0.46583249      100.464695
2011    1       0.07040886      22.47789
2011    2       0.18504154      48.57381875
2011    3       0.20427879      51.513395
2011    4       0.37335816      84.961195
2011    5       0.25389239      62.70120125
2011    6       0.3579158       82.4316075
2011    7       0.40496215      90.59417375
2011    8       0.4367852       96.02770875
2011    9       0.39847395      89.35450125
2011    10      0.48468976      104.28747
2011    11      0.44418756      97.38988375
2011    12      0.43887028      96.4936125
2011    13      0.42912725      95.158855
2011    14      0.48800724      105.1672275
2011    15      0.49080338      105.387425
2011    16      0.55592112      115.53982375
2011    17      0.40137644      90.68391375
2011    18      0.4246163       94.27736875
2011    19      0.41988288      92.74089875
2011    20      0.50586175      107.46754125
2011    21      0.44831655      97.709325
2011    22      0.3692021       84.14670875
2011    23      0.42752645      94.31842875
2011    24      0.45304336      98.89472875
2011    25      0.43882763      96.33024875
2011    26      0.43714835      96.31622875
2011    27      0.42591289      94.1595
2011    28      0.38608526      87.86890875
2011    29      0.4391451       97.04950875
2011    30      0.46524385      101.150155
2011    31      0.4552488       99.46097
2012    1       0.38766129      86.90425875
2012    2       0.1470512       39.78041
2012    3       0.10074016      28.9005925
2012    4       0.18480364      47.07913125
2012    5       0.44205551      97.06516375
2012    6       0.41601416      92.39364
2012    7       0.35237258      80.60168
2012    8       0.42226572      93.280885
2012    9       0.24496137      59.751315
2012    10      0.10435594      30.385845
2012    11      0.07868212      24.486645
2012    12      0.17761786      46.682195
2012    13      0.21636377      55.76888125
2012    14      0.08060352      25.15356375
2012    15      0.09768818      28.8390325
2012    16      0.18298364      48.26079
2012    17      0.31344381      73.71617
2012    18      0.19533882      50.925055
2012    19      0.14718972      39.76666875
2012    20      0.30780864      72.65689375
2012    21      0.35673485      81.805415
2012    22      0.39374025      88.26032
2012    23      0.3124138       73.2677425
2012    24      0.18394512      47.0082225
2012    25      0.23018141      56.970935
2012    26      0.32147869      74.4090925
2012    27      0.45019755      98.501705
2012    28      0.43319292      95.59829
2012    29      0.3920403       88.6121775
2012    30      0.3979587       89.6499225
2012    31      0.39660549      89.13966375
2013    1       0.3471756       80.79619625
2013    2       0.42360895      94.2382925
2013    3       0.2635252       63.6175025
2013    4       0.40767599      91.40318125
2013    5       0.36177431      83.2646425
2013    6       0.27078939      66.16443
2013    7       0.2471465       61.46172625
2013    8       0.37235735      85.526555
2013    9       0.39255821      88.22661875
2013    10      0.46661622      101.06449125
2013    11      0.42521914      94.04833
2013    12      0.27158944      66.73851125
2013    13      0.31832144      75.18765375
2013    14      0.2429679       60.0039725
2013    15      0.2431832       59.68915
2013    16      0.33951679      78.69981
2013    17      0.44299534      96.89757
2013    18      0.33523588      76.80895
2013    19      0.21985865      55.05442875
2013    20      0.17406389      45.57801875
2013    21      0.16100899      42.45175
2013    22      0.17863524      45.9241775
2013    23      0.3265869       75.63125125
2013    24      0.2186262       54.770285
2013    25      0.12929923      35.6480625
2013    26      0.23779556      59.4326925
2013    27      0.16913731      45.04267375
2013    28      0.22854641      56.29057875
2013    29      0.30550424      72.61669875
2013    30      0.34992886      80.9615125
2013    31      0.22128932      56.212615
2014    1       0.25218834      60.1605675
2014    2       0.28648443      69.2095575
2014    3       0.31057515      72.16526625
2014    4       0.5524617       114.99404875
2014    5       0.50633825      107.55684875
2014    6       0.48108605      103.23282625
2014    7       0.4654206       100.96281
2014    8       0.45854788      100.34063875
2014    9       0.48910498      104.7568
2014    10      0.406622        91.721155
2014    11      0.41971449      94.2353075
2014    12      0.31630831      74.87066
2014    13      0.42401088      93.77436
2014    14      0.45208785      98.6829925
2014    15      0.44543299      97.404475
2014    16      0.44057236      97.17528625
2014    17      0.35470654      80.88214875
2014    18      0.43696571      95.78171375
2014    19      0.37527225      85.17094875
2014    20      0.35918512      82.1719025
2014    21      0.45789152      99.96439625
2014    22      0.41822682      92.73652625
2014    23      0.43894035      96.45555625
2014    24      0.33643812      78.54423375
2014    25      0.16323236      44.16852125
2014    26      0.08471721      25.85683375
2014    27      0.23695818      56.43389375
2014    28      0.22959788      56.5771175
2014    29      0.36664518      84.066785
2014    30      0.2559334       63.052425
2014    31      0.35712991      82.1690675
2015    1       0.25483294      63.0417675
2015    2       0.42044395      93.6984275
2015    3       0.44326868      96.65951125
2015    4       0.46089431      99.685525
2015    5       0.45929492      99.73112
2015    6       0.4257651       93.6709475
2015    7       0.35904904      82.15152375
2015    8       0.44244997      97.11468625
2015    9       0.41735601      92.5964425
2015    10      0.45126468      98.44235
2015    11      0.4152841       92.1269875
2015    12      0.18407442      47.8259575
2015    13      0.13080742      35.6976725
2015    14      0.20652878      52.0806875
2015    15      0.10367795      30.25932875
2015    16      0.07270041      22.89136125
2015    17      0.10134518      29.2738
2015    18      0.2405183       60.2793775
2015    19      0.09369604      27.8813475
2015    20      0.13287466      36.74576875
2015    21      0.41066932      91.23122875
2015    22      0.43214076      95.59592375
2015    23      0.47900937      103.22258625
2015    24      0.44767252      97.73477875
2015    25      0.49075064      105.02973625
2015    26      0.41927151      93.45467125
2015    27      0.22916969      57.0184225
2015    28      0.46374568      100.98795375
2015    29      0.45872218      100.05884375
2015    30      0.35516251      81.1876425
2015    31      0.32474574      75.21644625
2016    1       0.09364951      26.76629
2016    5       0.32536649      76.9651325
2016    6       0.3438892       79.9157025
2016    7       0.24140036      59.01745125
2016    8       0.10305425      29.6982825
2016    9       0.12337623      33.32514125
2016    10      0.3252583       76.17990875
2016    11      0.40129498      89.43699125
2016    12      0.3981208       89.20383875
2016    13      0.08519371      25.68771
2016    14      0.0587833       19.44019625
2016    15      0.16199956      41.63978125
2016    16      0.31760028      73.3499125
2016    17      0.44815943      97.0181725
2016    18      0.51690491      109.28555625
2016    19      0.41440764      91.86577875
2016    20      0.34148073      79.7599475
2016    21      0.48023605      103.50375
2016    22      0.39637131      89.0349975
2016    23      0.39750165      89.91550875
2016    24      0.44536441      98.58724875
2016    25      0.2653101       64.99590375
2016    26      0.3333758       78.7879575
2016    27      0.30976584      74.19371875
2016    28      0.2637982       65.1467825
2016    29      0.37321523      86.5313825
2016    30      0.19624071      51.0914475
2016    31      0.14903042      39.863535
2017    1       0.46335464      101.28297875
2017    2       0.51718361      109.8435725
2017    3       0.55155465      114.6221625
2017    4       0.46740065      101.193045
2017    5       0.44332771      97.1218
2017    6       0.49683982      106.49491875
2017    7       0.44309374      97.646315
2017    8       0.33657221      78.4931025
2017    9       0.31506341      73.62895375
2017    10      0.41957296      93.69762875
2017    11      0.4343416       96.49267875
2017    12      0.52298401      110.57356875
2017    13      0.47263426      102.1873125
2017    14      0.53777698      112.73153625
2017    15      0.48079276      103.8660875
2017    16      0.47302502      102.15727
2017    17      0.44718924      98.34148875
2017    18      0.4829553       104.30645375
2017    19      0.47136439      100.8730375
2017    20      0.44626416      97.624545
2017    21      0.41274962      91.0705075
2017    22      0.44976101      97.90171125
2017    23      0.42954298      95.1517725
2017    24      0.42392032      94.2326175
2017    25      0.49537491      105.6770125
2017    26      0.45378004      98.802555
2017    27      0.46348704      100.3287925
2017    28      0.42210821      93.96178125
2017    29      0.35597536      82.2062875
2017    30      0.44604129      98.25595
2017    31      0.4695798       101.56656625
2018    1       0.4712451       101.96837625
2018    2       0.44007369      96.98488875
2018    3       0.32611252      76.84555625
2018    4       0.33629747      78.65721625
2018    5       0.40023821      90.3241075
2018    6       0.35137888      80.97398125
2018    7       0.3229991       76.70954125
2018    8       0.33283458      77.7760925
2018    9       0.41620224      92.9937475
2018    10      0.44325038      97.26438625
2018    11      0.4272386       95.001515
2018    12      0.46538398      101.41909375
2018    13      0.28551308      69.2867175
2018    14      0.13170497      36.6834925
2018    15      0.33511952      78.09194375
2018    16      0.42714625      94.830785
2018    17      0.45289558      98.81699625
2018    18      0.41949304      92.7283375
2018    19      0.41164         91.92710375
2018    20      0.44996511      98.13631375
2018    21      0.42406168      93.7569425
2018    22      0.49673002      105.743275
2018    23      0.44542958      97.29188
2018    24      0.37821008      84.775645
2018    25      0.27722866      66.381025
2018    26      0.34279184      78.73792125
2018    27      0.17644302      45.8508775
2018    28      0.12815697      34.79057125
2018    29      0.25095732      59.75124
2018    30      0.37701185      85.32020375
2018    31      0.1654589       43.17829375
