####################################################################################################
# Month: 01Jan                                                                                     #
# Station: YAN                                                                                     #
# Frequency: 345 GHz                                                                               #
# Columns are: year    day     segment         tau     Tb (K)                                      #
####################################################################################################
2009    1       0       1.654833        217.1606
2009    1       1       1.336295        197.4831
2009    1       2       1.209379        187.2224
2009    1       3       1.067065        174.9183
2009    1       4       1.019143        170.6878
2009    1       5       1.080292        176.2028
2009    1       6       1.175352        184.5349
2009    1       7       1.174739        184.8547
2009    2       0       1.052927        174.2871
2009    2       1       1.145477        182.2488
2009    2       2       1.202647        186.9987
2009    2       3       1.212921        187.8599
2009    2       4       1.223904        188.9628
2009    2       5       1.318174        195.8184
2009    2       6       1.445052        204.4051
2009    2       7       1.529779        209.7982
2009    3       0       1.539235        210.2749
2009    3       1       1.417874        203.2337
2009    3       2       1.373644        200.3097
2009    3       3       1.434025        203.9395
2009    3       4       1.463242        205.935
2009    3       5       1.484742        207.0169
2009    3       6       1.43012         204.2091
2009    3       7       1.506898        208.7489
2009    4       0       1.466506        205.1471
2009    4       1       1.392997        200.14
2009    4       2       1.421794        202.0915
2009    4       3       1.475002        205.3637
2009    4       4       1.326507        195.8427
2009    4       5       1.267553        191.8233
2009    4       6       1.290398        193.5289
2009    4       7       1.195682        186.5279
2009    5       0       1.098781        178.4668
2009    5       1       1.073003        176.4437
2009    5       2       1.016773        171.1403
2009    5       3       0.9587618       165.3183
2009    5       4       0.9268327       162.3339
2009    5       5       0.8975055       159.9963
2009    5       6       0.8161654       151.5389
2009    5       7       0.6759713       134.1234
2009    6       0       0.5823712       120.78
2009    6       1       0.5829993       120.6048
2009    6       2       0.6349402       127.7437
2009    6       3       0.6405248       128.2927
2009    6       4       0.7062876       136.8991
2009    6       5       0.7464424       141.8113
2009    6       6       0.7838626       146.7367
2009    6       7       0.8570834       155.0965
2009    7       0       0.7340344       140.1671
2009    7       1       0.67475         132.8923
2009    7       2       0.6002279       122.1975
2009    7       3       0.7430158       140.4803
2009    7       4       0.8037756       148.4381
2009    7       5       0.8617745       155.3349
2009    7       6       0.9648969       167.2314
2009    7       7       1.141965        183.9408
2009    8       0       1.19619         188.6887
2009    8       1       1.033219        174.2608
2009    8       2       1.055248        176.0373
2009    8       3       1.132978        183.0066
2009    8       4       1.323545        197.599
2009    8       5       1.457           205.4098
2009    8       6       1.678606        217.2924
2009    8       7       1.573241        211.8248
2009    9       0       1.470062        205.4751
2009    9       1       1.339586        196.9069
2009    9       2       1.339317        196.9428
2009    9       3       1.270314        192.2185
2009    9       4       1.171073        184.9415
2009    9       5       1.331502        197.0223
2009    9       6       1.490469        207.7724
2009    9       7       1.632496        215.7439
2009    10      0       1.530006        209.8086
2009    10      1       1.387796        200.6121
2009    10      2       1.299568        194.8951
2009    10      3       1.230809        190.0154
2009    10      4       1.272201        191.2843
2009    10      5       1.202195        186.067
2009    10      6       1.300399        194.154
2009    10      7       1.440162        203.9697
2009    11      0       1.502416        207.2604
2009    11      1       1.356693        197.4687
2009    11      2       1.248911        190.1122
2009    11      3       1.310765        194.8863
2009    11      4       1.211089        187.3228
2009    11      5       1.398655        200.5264
2009    11      6       1.367112        199.2001
2009    11      7       1.422004        202.9061
2009    12      0       1.265993        192.1306
2009    12      1       1.12432         181.3301
2009    12      2       1.300778        194.6584
2009    12      3       1.28338         192.8978
2009    12      4       1.161289        183.2805
2009    12      5       1.249142        190.458
2009    12      6       1.289504        194.0424
2009    12      7       1.381016        200.3772
2009    13      0       1.303591        194.8683
2009    13      1       1.110288        180.0198
2009    13      2       1.159871        183.7364
2009    13      3       1.153444        183.1899
2009    13      4       1.140249        182.0653
2009    13      5       1.275747        192.9172
2009    13      6       1.360252        198.8217
2009    13      7       1.462106        205.0838
2009    14      0       1.191264        186.512
2009    14      1       0.9126215       160.7788
2009    14      2       0.84417         153.5839
2009    14      3       0.9181112       161.0981
2009    14      4       0.9223915       161.5208
2009    14      5       0.9890755       168.2357
2009    14      6       1.263187        192.0699
2009    14      7       1.320395        196.8277
2009    15      0       1.308127        195.8074
2009    15      1       1.258961        191.467
2009    15      2       1.225433        188.8905
2009    15      3       1.050625        174.1813
2009    15      4       0.8947198       159.1342
2009    15      5       1.046639        174.049
2009    15      6       1.283331        193.8989
2009    15      7       1.439357        204.7668
2009    16      0       1.498977        208.0079
2009    16      1       1.356191        197.668
2009    16      2       1.161795        182.8369
2009    16      3       1.069576        174.8993
2009    16      4       1.00581         169.3856
2009    16      5       1.050195        173.7645
2009    16      6       1.214274        187.6025
2009    16      7       1.22389         188.3027
2009    17      0       1.010959        169.753
2009    17      1       0.7837829       145.1536
2009    17      2       0.7536419       141.8365
2009    17      3       0.6913701       134.7797
2009    17      4       0.6289186       126.8773
2009    17      5       0.8344245       152.2709
2009    17      6       1.053845        174.4546
2009    17      7       1.106624        178.9326
2009    18      0       1.048212        173.0907
2009    18      1       1.056123        173.7041
2009    18      2       1.218178        187.4401
2009    18      3       1.382012        199.0154
2009    18      4       1.303035        193.4312
2009    18      5       1.200189        186.0143
2009    18      6       1.218942        188.1618
2009    18      7       1.302274        194.6563
2009    19      0       1.309859        195.2494
2009    19      1       1.256971        191.5167
2009    19      2       1.138354        182.2226
2009    19      3       1.017977        171.7667
2009    19      4       0.9697748       167.1193
2009    19      5       1.052086        174.3018
2009    19      6       1.265458        192.3606
2009    19      7       1.484353        206.2602
2009    20      0       1.396675        200.1982
2009    20      1       1.112005        178.8259
2009    20      2       0.9974337       168.9431
2009    20      3       0.9862355       168.0767
2009    20      4       1.020146        171.3652
2009    20      5       1.087656        177.3459
2009    20      6       1.380768        199.9152
2009    20      7       1.451504        204.5682
2009    21      0       1.386487        199.8215
2009    21      1       1.377667        198.9871
2009    21      2       1.339767        196.2877
2009    21      3       1.278149        191.6799
2009    21      4       1.208505        186.3729
2009    21      5       1.164115        182.1477
2009    21      6       1.007245        168.3972
2009    21      7       0.7233892       137.6236
2009    22      0       0.6064328       122.3807
2009    22      1       0.5228632       109.9341
2009    22      2       0.4708625       101.2794
2009    22      3       0.4303454       94.67482
2009    22      4       0.4100885       91.61346
2009    22      5       0.4940682       106.2937
2009    22      6       0.5939875       121.8318
2009    22      7       0.7502551       142.4227
2009    23      0       0.5642194       117.6603
2009    23      1       0.5459266       114.9279
2009    23      2       0.6736095       133.1254
2009    23      3       1.09656         179.2671
2009    23      4       1.415432        202.1944
2009    23      5       1.497115        206.5114
2009    23      6       1.376239        199.3245
2009    23      7       1.217594        188.5725
2009    24      0       1.034383        173.9271
2009    24      1       0.9802144       168.5896
2009    24      2       0.9469007       164.7414
2009    24      3       0.8162693       150.1681
2009    24      4       0.6797374       133.3139
2009    24      5       0.7921673       147.4187
2009    24      6       0.9179749       162.3006
2009    24      7       0.9153348       162.2447
2009    25      0       0.5940532       122.167
2009    25      1       0.4958889       107.4358
2009    25      2       0.6252185       127.2478
2009    25      3       0.7324656       141.4415
2009    25      4       0.8031827       149.6793
2009    25      5       0.965851        166.9693
2009    25      6       1.109456        180.6603
2009    25      7       1.310137        196.4963
2009    26      0       1.358597        198.7438
2009    26      1       1.235494        189.5033
2009    26      2       1.220375        188.2459
2009    26      3       1.022706        172.0533
2009    26      4       0.9355244       163.8228
2009    26      5       0.8872545       158.4268
2009    26      6       1.096417        179.7406
2009    26      7       1.154866        185.5009
2009    27      0       1.221131        190.4621
2009    27      1       1.394522        202.1006
2009    27      2       1.358939        199.1072
2009    27      3       1.306966        195.5084
2009    27      4       1.327506        196.2627
2009    27      5       1.344996        197.0767
2009    27      6       1.484563        206.993
2009    27      7       1.462181        206.6079
2009    28      0       1.405399        203.6712
2009    28      1       1.447584        205.4849
2009    28      2       1.403578        201.0895
2009    28      3       1.343149        196.7589
2009    28      4       1.282412        192.8246
2009    28      5       1.296298        194.2275
2009    28      6       1.461764        205.761
2009    28      7       1.631978        215.8567
2009    29      0       1.627171        214.9742
2009    29      1       1.456726        205.5054
2009    29      2       1.409542        202.7899
2009    29      3       1.339093        196.3461
2009    29      4       1.045747        172.9303
2009    29      5       1.050212        173.5304
2009    29      6       1.208798        186.6236
2009    29      7       1.36078         198.6716
2009    30      0       1.295662        194.6543
2009    30      1       1.189003        186.8102
2009    30      2       1.410294        201.7231
2009    30      3       1.306703        194.229
2009    30      4       1.089616        176.9651
2009    30      5       0.9340153       162.8997
2009    30      6       1.21399         188.0571
2009    30      7       1.432996        204.7858
2009    31      0       1.612864        214.2066
2009    31      1       1.496184        206.8919
2009    31      2       1.415713        201.4646
2009    31      3       1.400713        200.3682
2009    31      4       1.320064        194.9084
2009    31      5       1.17766         184.6114
2009    31      6       1.108172        179.4275
2009    31      7       1.236832        190.3194
2010    1       0       0.4923798       105.7861
2010    1       1       0.3934454       88.93991
2010    1       2       0.3526112       81.51831
2010    1       3       0.3161981       74.56851
2010    1       4       0.2986705       71.33204
2010    1       5       0.3359447       78.80935
2010    1       6       0.5388511       113.7246
2010    1       7       0.7515939       143.2747
2010    2       0       0.6736707       133.1995
2010    2       1       0.6039081       123.4823
2010    2       2       0.5930974       122.2311
2010    2       3       0.6353458       128.6332
2010    2       4       0.7729028       146.8116
2010    2       5       1.038215        175.0241
2010    2       6       1.291333        195.7261
2010    2       7       1.422458        204.8226
2010    3       0       1.246851        191.7509
2010    3       1       1.169852        185.3193
2010    3       2       0.9444152       164.0336
2010    3       3       0.8442433       152.7268
2010    3       4       0.8368147       152.3066
2010    3       5       0.9080254       160.462
2010    3       6       1.083169        178.2295
2010    3       7       1.138695        183.6274
2010    4       0       0.9856551       169.8142
2010    4       1       1.068677        177.8495
2010    4       2       1.415902        204.5078
2010    4       3       1.523062        210.8098
2010    4       4       1.415904        204.462
2010    4       5       1.526103        210.7689
2010    4       6       1.886944        228.1115
2010    4       7       2.041187        234.0586
2010    5       0       1.758682        221.5879
2010    5       1       1.643105        215.3795
2010    5       2       1.693537        218.4182
2010    5       3       1.538866        211.3982
2010    5       4       1.320884        197.9967
2010    5       5       1.440082        206.1568
2010    5       6       1.631798        217.8544
2010    5       7       1.862307        228.7037
2010    6       0       1.725018        222.4339
2010    6       1       1.497137        209.6933
2010    6       2       1.593755        214.306
2010    6       3       1.572178        212.7103
2010    6       4       1.388032        201.5857
2010    6       5       1.440594        204.7119
2010    6       6       1.47679         207.2693
2010    6       7       1.663913        217.7431
2010    7       0       1.712714        219.7626
2010    7       1       1.477418        207.5281
2010    7       2       1.448212        205.6096
2010    7       3       1.479498        207.6547
2010    7       4       1.497607        209.1659
2010    7       5       1.588834        214.1864
2010    7       6       1.61285         216.3164
2010    7       7       1.653959        218.5224
2010    8       0       1.510937        210.6814
2010    8       1       1.466269        208.1466
2010    8       2       1.501827        210.2532
2010    8       3       1.43444         205.8804
2010    8       4       1.369536        202.0047
2010    8       5       1.402776        203.8521
2010    8       6       1.616874        217.002
2010    8       7       1.68054         220.1528
2010    9       0       1.438681        206.0133
2010    9       1       1.221581        190.4319
2010    9       2       1.057969        176.6183
2010    9       3       0.9641683       167.73
2010    9       4       1.164314        186.2803
2010    9       5       1.337677        199.2002
2010    9       6       1.798669        224.0545
2010    9       7       1.939734        230.0771
2010    10      0       1.685162        218.7308
2010    10      1       1.42619         204.3993
2010    10      2       1.36819         200.3433
2010    10      3       1.258399        192.585
2010    10      4       1.202573        188.9237
2010    10      5       1.301913        196.6426
2010    10      6       1.464038        207.781
2010    10      7       1.671413        218.7017
2010    11      0       1.593205        213.0943
2010    11      1       1.39251         201.0874
2010    11      2       1.260245        191.5722
2010    11      3       1.138902        181.9953
2010    11      4       1.049847        173.9817
2010    11      5       1.211003        186.9661
2010    11      6       1.372988        199.0001
2010    11      7       1.360254        199.1594
2010    12      0       1.180584        185.9115
2010    12      1       1.039727        173.8114
2010    12      2       1.139952        181.3257
2010    12      3       1.323208        195.1162
2010    12      4       1.496683        206.621
2010    12      5       1.428278        203.9962
2010    12      6       1.430436        204.5545
2010    12      7       1.403658        202.7671
2010    13      0       1.301834        195.0377
2010    13      1       1.312919        195.1279
2010    13      2       1.25421         191.268
2010    13      3       1.207077        187.8493
2010    13      4       1.229362        189.4959
2010    13      5       1.354127        198.9767
2010    13      6       1.408492        202.7105
2010    13      7       1.474148        207.3696
2010    14      0       1.409896        203.0776
2010    14      1       1.297865        194.5735
2010    14      2       1.250741        190.8778
2010    14      3       1.254524        190.7697
2010    14      4       1.259132        191.5275
2010    14      5       1.328451        197.1228
2010    14      6       1.525972        209.7555
2010    14      7       1.652363        217.0878
2010    15      0       1.565876        211.6769
2010    15      1       1.495474        206.8857
2010    15      2       1.486023        206.3051
2010    15      3       1.441535        203.9373
2010    15      4       1.393761        200.8868
2010    15      5       1.430518        203.2228
2010    15      6       1.498276        207.8987
2010    15      7       1.583667        213.2657
2010    16      0       1.537232        209.7994
2010    16      1       1.469518        205.8149
2010    16      2       1.569956        211.5954
2010    16      3       1.653484        216.3041
2010    16      4       1.542509        210.4329
2010    16      5       1.552849        211.4989
2010    16      6       1.767249        222.3885
2010    16      7       1.57942         211.7073
2010    17      0       1.437058        202.7594
2010    17      1       1.310676        195.0372
2010    17      2       1.343069        198.0114
2010    17      3       1.362791        199.881
2010    17      4       1.321428        197.1982
2010    17      5       1.299804        195.7483
2010    17      6       1.436305        204.8594
2010    17      7       1.577168        213.546
2010    18      0       1.651411        217.0367
2010    18      1       1.63332         215.8894
2010    18      2       1.56744         212.391
2010    18      3       1.732406        221.1235
2010    18      4       1.643443        216.6756
2010    18      5       1.523417        209.6259
2010    18      6       1.642628        216.0076
2010    18      7       1.580115        213.4515
2010    19      0       1.385276        200.6293
2010    19      1       1.061013        175.4116
2010    19      2       0.8611774       156.0351
2010    19      3       0.7854055       148.2733
2010    19      4       1.007996        172.5436
2010    19      5       1.466748        206.3519
2010    19      6       1.601104        214.0676
2010    19      7       1.572205        213.1668
2010    20      0       1.300978        196.1945
2010    20      1       1.327068        197.0562
2010    20      2       1.323932        196.4743
2010    20      3       1.433275        202.8797
2010    20      4       1.468028        205.2128
2010    20      5       1.378622        200.4395
2010    20      6       1.313897        197.0012
2010    20      7       1.374602        200.5482
2010    21      0       1.272623        191.0944
2010    21      1       1.287817        192.9868
2010    21      2       1.257825        191.7173
2010    21      3       1.230237        189.5306
2010    21      4       1.184596        186.1652
2010    21      5       1.304053        195.5945
2010    21      6       1.521857        210.1909
2010    21      7       1.632394        215.137
2010    22      0       1.588305        212.3968
2010    22      1       1.627261        214.6392
2010    22      2       1.768938        222.3744
2010    22      3       1.802219        224.3768
2010    22      4       1.43859         205.0643
2010    22      5       1.357642        199.6294
2010    22      6       1.431078        204.4821
2010    22      7       1.464695        205.6436
2010    23      0       1.32326         195.3437
2010    23      1       1.26275         190.7322
2010    23      2       1.225225        188.1515
2010    23      3       1.264401        191.2119
2010    23      4       1.197776        186.842
2010    23      5       0.9923996       169.6823
2010    23      6       1.133099        182.4687
2010    23      7       1.137444        182.1145
2010    24      0       0.8764736       155.8947
2010    24      1       0.9023074       157.3971
2010    24      2       1.058779        173.8389
2010    24      3       1.107896        176.9798
2010    24      4       1.032524        171.8865
2010    24      5       0.9723736       166.3679
2010    24      6       1.066023        175.5566
2010    24      7       0.9709384       166.1649
2010    25      0       0.770621        143.5488
2010    25      1       0.78125         144.2027
2010    25      2       0.8484848       152.15
2010    25      3       0.9223071       160.3788
2010    25      4       0.952281        163.7336
2010    25      5       1.035244        171.1694
2010    25      6       1.085342        176.231
2010    25      7       1.18084         184.249
2010    26      0       1.060043        174.4918
2010    26      1       0.9807445       167.0516
2010    26      2       0.9363748       161.9972
2010    26      3       0.8154076       149.3075
2010    26      4       0.7391001       140.1204
2010    26      5       0.7294154       139.1443
2010    26      6       0.7554638       142.9886
2010    26      7       0.906478        159.8313
2010    27      0       0.776799        144.414
2010    27      1       0.713045        136.7624
2010    27      2       0.6593077       130.2107
2010    27      3       0.6324933       126.5098
2010    27      4       0.6822868       133.2937
2010    27      5       0.899481        159.3059
2010    27      6       1.182142        185.6885
2010    27      7       1.238816        190.4346
2010    28      0       1.144811        182.8069
2010    28      1       1.07511         176.8632
2010    28      2       1.09137         178.2143
2010    28      3       1.066933        176.198
2010    28      4       0.9723133       167.0043
2010    28      5       1.143021        182.3625
2010    28      6       1.313277        195.8374
2010    28      7       0.9773224       166.7037
2010    29      0       0.4224161       92.83654
2010    29      1       0.3075035       72.32232
2010    29      2       0.2962052       70.27343
2010    29      3       0.2651595       65.06914
2010    29      4       0.222903        57.03563
2010    29      5       0.2069014       53.92966
2010    29      6       0.2651104       66.22913
2010    29      7       0.2470723       62.67803
2010    30      0       0.182255        48.18258
2010    30      1       0.2202566       55.70864
2010    30      2       0.2567764       62.79411
2010    30      3       0.2920029       69.69563
2010    30      4       0.2959586       71.12468
2010    30      5       0.4996521       107.0807
2010    30      6       0.9991742       169.0919
2010    30      7       1.281239        193.2079
2010    31      0       1.31099         194.8175
2010    31      1       1.302244        194.1749
2010    31      2       1.411669        201.4332
2010    31      3       1.531849        209.2763
2010    31      4       1.292539        193.2766
2010    31      5       1.246144        189.8776
2010    31      6       1.518296        207.8485
2010    31      7       1.60906         213.6063
2011    1       0       0.2963471       73.13741
2011    1       1       0.2314845       60.20064
2011    1       2       0.2085168       55.30545
2011    1       3       0.1760856       48.10741
2011    1       4       0.171115        46.91915
2011    1       5       0.192068        51.60023
2011    1       6       0.2891766       71.52402
2011    1       7       0.3637953       86.0936
2011    2       0       0.374498        87.81021
2011    2       1       0.3879548       89.85135
2011    2       2       0.4340859       97.64989
2011    2       3       0.6945025       135.935
2011    2       4       0.8642909       156.1113
2011    2       5       0.8341711       152.9447
2011    2       6       0.707238        138.6099
2011    2       7       0.7291562       141.675
2011    3       0       0.675877        134.1481
2011    3       1       0.5545219       116.7426
2011    3       2       0.3451584       81.65408
2011    3       3       0.2749798       68.09836
2011    3       4       0.3758397       87.1278
2011    3       5       0.8597001       155.6119
2011    3       6       1.133146        181.8868
2011    3       7       1.240823        190.1984
2011    4       0       1.303983        194.1516
2011    4       1       1.309348        194.5299
2011    4       2       1.340134        196.7494
2011    4       3       1.250661        190.279
2011    4       4       1.006718        168.9996
2011    4       5       0.9992399       168.1726
2011    4       6       1.045189        173.3899
2011    4       7       1.1384          182.247
2011    5       0       0.9891237       168.8507
2011    5       1       0.8611241       155.5136
2011    5       2       0.7880419       147.1574
2011    5       3       0.7070335       137.385
2011    5       4       0.5882827       121.4496
2011    5       5       0.6567587       131.2167
2011    5       6       0.8997443       160.446
2011    5       7       1.165341        185.3095
2011    6       0       1.224917        189.1017
2011    6       1       1.299059        193.3534
2011    6       2       1.317102        195.159
2011    6       3       1.031899        172.9763
2011    6       4       0.7467285       142.8311
2011    6       5       0.9965206       169.958
2011    6       6       1.195311        187.6038
2011    6       7       1.359294        199.6375
2011    7       0       1.374937        200.2582
2011    7       1       1.330891        196.4995
2011    7       2       1.238858        189.1552
2011    7       3       1.189901        185.0217
2011    7       4       1.140894        181.0677
2011    7       5       1.199809        186.1148
2011    7       6       1.317842        195.5364
2011    7       7       1.396384        201.2685
2011    8       0       1.376349        199.2434
2011    8       1       1.398784        200.2443
2011    8       2       1.298009        193.1443
2011    8       3       1.220947        187.829
2011    8       4       1.187647        186.0356
2011    8       5       1.366451        199.2055
2011    8       6       1.447169        205.2677
2011    8       7       1.611256        214.9112
2011    9       0       1.37219         200.2174
2011    9       1       1.199194        187.7384
2011    9       2       1.065908        176.1722
2011    9       3       0.9655842       166.8271
2011    9       4       1.031889        172.4385
2011    9       5       1.194224        185.7977
2011    9       6       1.372132        198.8767
2011    9       7       1.503178        207.2865
2011    10      0       1.485395        206.6577
2011    10      1       1.433363        203.3134
2011    10      2       1.447065        204.1259
2011    10      3       1.44943         204.2396
2011    10      4       1.357024        198.6081
2011    10      5       1.417194        202.7177
2011    10      6       1.529333        210.1332
2011    10      7       1.654613        217.1847
2011    11      0       1.577047        212.1409
2011    11      1       1.578443        211.6169
2011    11      2       1.512182        207.7594
2011    11      3       1.276765        192.5821
2011    11      4       1.201711        187.192
2011    11      5       1.265336        192.3892
2011    11      6       1.346291        198.5938
2011    11      7       1.506649        208.6188
2011    12      0       1.501598        206.9066
2011    12      1       1.382661        199.7432
2011    12      2       1.307102        194.9493
2011    12      3       1.281969        193.277
2011    12      4       1.307643        194.7744
2011    12      5       1.296217        194.1722
2011    12      6       1.415494        202.6032
2011    12      7       1.525692        209.6985
2011    13      0       1.386671        200.8114
2011    13      1       1.188448        186.7275
2011    13      2       1.281674        193.0098
2011    13      3       1.349001        197.509
2011    13      4       1.427465        202.5023
2011    13      5       1.443441        204.3145
2011    13      6       1.42838         204.1864
2011    13      7       1.507485        209.4694
2011    14      0       1.502742        208.4808
2011    14      1       1.506171        207.4147
2011    14      2       1.381302        200.8763
2011    14      3       1.615884        214.8187
2011    14      4       1.549656        211.7754
2011    14      5       1.466184        207.3297
2011    14      6       1.483408        208.2945
2011    14      7       1.7106          220.5719
2011    15      0       1.474825        206.9891
2011    15      1       1.513898        208.8171
2011    15      2       1.592309        213.237
2011    15      3       1.597785        213.0495
2011    15      4       1.531207        209.4234
2011    15      5       1.572765        211.872
2011    15      6       1.585199        212.8552
2011    15      7       1.588373        214.0697
2011    16      0       1.735171        221.1747
2011    16      1       1.733055        220.9848
2011    16      2       1.670242        217.9806
2011    16      3       1.727961        220.34
2011    16      4       1.453211        205.8413
2011    16      5       1.377969        201.3001
2011    16      6       1.753217        222.8075
2011    16      7       1.958148        231.3478
2011    17      0       1.651977        216.2805
2011    17      1       1.430541        203.3825
2011    17      2       1.335643        197.6841
2011    17      3       1.24477         191.9798
2011    17      4       1.068498        178.009
2011    17      5       1.056605        177.1644
2011    17      6       1.201518        189.6457
2011    17      7       1.340362        199.4904
2011    18      0       1.391131        202.6947
2011    18      1       1.462478        206.5322
2011    18      2       1.305096        195.5854
2011    18      3       1.09276         178.6595
2011    18      4       1.091162        178.3556
2011    18      5       1.29237         194.7567
2011    18      6       1.501696        209.2565
2011    18      7       1.793141        223.5679
2011    19      0       1.538013        209.4985
2011    19      1       1.208903        187.7077
2011    19      2       1.09353         178.4572
2011    19      3       1.10022         179.1603
2011    19      4       1.061883        175.819
2011    19      5       1.160748        184.6131
2011    19      6       1.566482        212.9795
2011    19      7       1.793166        223.799
2011    20      0       1.601262        213.3176
2011    20      1       1.594677        212.7643
2011    20      2       1.572415        211.6216
2011    20      3       1.498652        207.3932
2011    20      4       1.412575        201.7509
2011    20      5       1.326569        196.3443
2011    20      6       1.487145        207.9459
2011    20      7       1.763957        222.4033
2011    21      0       1.662274        216.7626
2011    21      1       1.50503         207.3516
2011    21      2       1.410585        201.258
2011    21      3       1.281166        192.3716
2011    21      4       1.108887        178.8372
2011    21      5       1.237884        189.1278
2011    21      6       1.449274        203.9597
2011    21      7       1.416286        202.9161
2011    22      0       1.407105        202.372
2011    22      1       1.339505        196.8597
2011    22      2       1.205007        186.6557
2011    22      3       1.044678        173.1939
2011    22      4       0.9045198       159.5309
2011    22      5       0.920007        161.3686
2011    22      6       1.173553        185.0697
2011    22      7       1.347591        198.1264
2011    23      0       1.202381        186.7803
2011    23      1       1.188532        184.8435
2011    23      2       1.272734        191.4185
2011    23      3       1.279273        192.2936
2011    23      4       1.23593         189.4759
2011    23      5       1.291233        193.612
2011    23      6       1.477329        206.7811
2011    23      7       1.638342        215.8106
2011    24      0       1.549347        210.2559
2011    24      1       1.470519        205.6386
2011    24      2       1.444387        203.6403
2011    24      3       1.37259         198.91
2011    24      4       1.250321        190.6802
2011    24      5       1.274396        192.2557
2011    24      6       1.395791        201.2927
2011    24      7       1.362616        199.2717
2011    25      0       1.175086        185.3185
2011    25      1       1.157062        183.2463
2011    25      2       1.24401         189.8599
2011    25      3       1.381808        199.6223
2011    25      4       1.331131        196.6244
2011    25      5       1.380306        199.7787
2011    25      6       1.514298        208.7955
2011    25      7       1.624049        215.0054
2011    26      0       1.473065        205.0825
2011    26      1       1.310341        195.0779
2011    26      2       1.283227        193.1465
2011    26      3       1.340355        197.0179
2011    26      4       1.344837        197.6041
2011    26      5       1.429296        203.0664
2011    26      6       1.467118        205.7744
2011    26      7       1.47991         206.7907
2011    27      0       1.344465        197.9792
2011    27      1       1.201423        187.4796
2011    27      2       1.174949        185.172
2011    27      3       1.245246        189.6259
2011    27      4       1.231863        188.6503
2011    27      5       1.35633         198.1538
2011    27      6       1.508507        208.3517
2011    27      7       1.566597        211.0302
2011    28      0       1.390805        199.8396
2011    28      1       1.199365        187.5113
2011    28      2       1.203377        187.8412
2011    28      3       1.174212        185.4812
2011    28      4       1.103052        179.6348
2011    28      5       1.137972        182.2442
2011    28      6       1.338624        198.1348
2011    28      7       1.447676        205.8477
2011    29      0       1.384982        201.5607
2011    29      1       1.254277        192.2091
2011    29      2       1.264752        192.7615
2011    29      3       1.290091        194.5674
2011    29      4       1.214889        188.486
2011    29      5       1.214086        188.0957
2011    29      6       1.394601        201.8795
2011    29      7       1.683142        218.5688
2011    30      0       1.579667        212.103
2011    30      1       1.505309        207.5592
2011    30      2       1.479432        206.0439
2011    30      3       1.410689        202.0047
2011    30      4       1.358258        198.4858
2011    30      5       1.323368        196.2255
2011    30      6       1.406117        202.7036
2011    30      7       1.47456         207.3169
2011    31      0       1.482164        207.8288
2011    31      1       1.442641        205.0752
2011    31      2       1.450125        204.3889
2011    31      3       1.339428        197.0387
2011    31      4       1.221509        188.5104
2011    31      5       1.271324        192.2669
2011    31      6       1.322673        196.7007
2011    31      7       1.650777        216.5911
2012    1       0       1.539413        210.2627
2012    1       1       1.534184        209.9256
2012    1       2       1.469855        206.2704
2012    1       3       1.411088        201.167
2012    1       4       1.005183        168.7513
2012    1       5       0.9044247       159.3101
2012    1       6       0.9747629       166.3976
2012    1       7       0.8212761       149.8461
2012    2       0       0.6422432       127.0339
2012    2       1       0.630346        125.5358
2012    2       2       0.5905322       120.1432
2012    2       3       0.4928409       105.5893
2012    2       4       0.4116939       92.06892
2012    2       5       0.4050956       90.85053
2012    2       6       0.4919275       105.4673
2012    2       7       0.4342477       96.54682
2012    3       0       0.269834        66.47904
2012    3       1       0.2364672       59.44413
2012    3       2       0.2222106       56.46423
2012    3       3       0.1882546       49.48243
2012    3       4       0.1849723       48.76701
2012    3       5       0.3296356       78.08172
2012    3       6       0.4862586       105.2365
2012    3       7       0.6707069       131.9629
2012    4       0       0.4796427       103.8249
2012    4       1       0.3750784       85.30362
2012    4       2       0.3645134       83.46037
2012    4       3       0.362612        83.10256
2012    4       4       0.3629829       83.44075
2012    4       5       0.5645975       116.9682
2012    4       6       0.9200274       161.7235
2012    4       7       1.174814        185.703
2012    5       0       1.140222        182.2707
2012    5       1       1.201207        187.135
2012    5       2       1.4063          201.2616
2012    5       3       1.420334        201.9259
2012    5       4       1.453034        204.1041
2012    5       5       1.316427        195.3185
2012    5       6       1.364619        199.3087
2012    5       7       1.47283         206.2387
2012    6       0       1.467403        205.4326
2012    6       1       1.314644        195.3139
2012    6       2       1.251914        190.5054
2012    6       3       1.182956        184.8347
2012    6       4       1.110181        178.8678
2012    6       5       1.202853        186.3343
2012    6       6       1.368578        198.3229
2012    6       7       1.367735        198.5819
2012    7       0       1.172091        183.3124
2012    7       1       0.9136349       159.406
2012    7       2       0.7488292       141.2219
2012    7       3       0.7815565       146.2025
2012    7       4       0.9681924       167.1288
2012    7       5       1.275415        192.7498
2012    7       6       1.476653        206.0864
2012    7       7       1.452121        204.4882
2012    8       0       1.369214        198.3139
2012    8       1       1.399942        200.1018
2012    8       2       1.415305        201.1342
2012    8       3       1.278743        191.7399
2012    8       4       1.040023        172.4222
2012    8       5       1.137644        181.143
2012    8       6       1.304259        194.6903
2012    8       7       1.380891        199.9614
2012    9       0       1.303589        193.4012
2012    9       1       0.9254874       161.1046
2012    9       2       0.812746        148.5534
2012    9       3       0.7022704       134.8575
2012    9       4       0.5845368       118.0337
2012    9       5       0.5934777       119.0391
2012    9       6       0.6871525       132.1271
2012    9       7       0.7119813       136.3966
2012    10      0       0.5290925       111.7273
2012    10      1       0.4316891       96.21445
2012    10      2       0.3740227       86.48636
2012    10      3       0.2781561       68.76087
2012    10      4       0.2671666       66.74365
2012    10      5       0.3219517       77.11993
2012    10      6       0.384736        88.53518
2012    10      7       0.3453335       81.66789
2012    11      0       0.2500262       63.29378
2012    11      1       0.2123897       55.85568
2012    11      2       0.2050571       54.51089
2012    11      3       0.2174455       57.13348
2012    11      4       0.2145638       56.62885
2012    11      5       0.2373828       61.58371
2012    11      6       0.3714153       87.37953
2012    11      7       0.4507816       101.203
2012    12      0       0.3007803       74.33434
2012    12      1       0.2795382       70.18422
2012    12      2       0.3392373       81.56262
2012    12      3       0.3927834       91.04478
2012    12      4       0.5448165       115.8436
2012    12      5       0.7161195       139.7839
2012    12      6       0.9009161       161.983
2012    12      7       1.021536        173.8075
2012    13      0       0.875296        158.9078
2012    13      1       0.5989874       124.422
2012    13      2       0.501374        109.7461
2012    13      3       0.5289517       113.7949
2012    13      4       0.6017368       124.8291
2012    13      5       0.8343957       154.5475
2012    13      6       0.9310318       165.2356
2012    13      7       0.6691714       134.2321
2012    14      0       0.3094553       76.11689
2012    14      1       0.290082        72.34591
2012    14      2       0.289699        72.14014
2012    14      3       0.2794418       70.03496
2012    14      4       0.2474394       63.63056
2012    14      5       0.234361        60.89858
2012    14      6       0.2820417       70.55157
2012    14      7       0.3039789       74.9057
2012    15      0       0.2402274       62.22176
2012    15      1       0.243119        62.79263
2012    15      2       0.2700715       67.99104
2012    15      3       0.2514768       64.21326
2012    15      4       0.2386673       61.38454
2012    15      5       0.2756612       68.57678
2012    15      6       0.4600199       101.8629
2012    15      7       0.6393582       128.9822
2012    16      0       0.61247         125.4055
2012    16      1       0.5440041       115.4587
2012    16      2       0.4993924       108.3531
2012    16      3       0.5667428       118.2741
2012    16      4       0.5817551       120.3673
2012    16      5       0.5563187       116.9385
2012    16      6       0.7357128       141.5034
2012    16      7       0.8157213       150.8601
2012    17      0       0.8694958       156.0765
2012    17      1       0.9138086       160.9542
2012    17      2       0.8617565       155.1152
2012    17      3       0.8393296       152.5101
2012    17      4       0.9352534       162.4154
2012    17      5       1.108893        177.4325
2012    17      6       1.209821        185.8985
2012    17      7       1.078932        175.4255
2012    18      0       0.8282173       151.7308
2012    18      1       0.6275884       127.4595
2012    18      2       0.5742801       119.778
2012    18      3       0.5744219       119.4401
2012    18      4       0.5172732       110.9321
2012    18      5       0.5491439       115.8139
2012    18      6       0.7093206       137.991
2012    18      7       0.787177        148.0501
2012    19      0       0.4309186       97.18364
2012    19      1       0.3014972       73.95575
2012    19      2       0.3182605       76.98737
2012    19      3       0.314928        76.23481
2012    19      4       0.3254618       78.17116
2012    19      5       0.4565517       101.2345
2012    19      6       0.7783459       146.0468
2012    19      7       0.9289158       163.2805
2012    20      0       0.8053784       149.5604
2012    20      1       0.6983811       136.3098
2012    20      2       0.7640528       144.5019
2012    20      3       0.8018479       148.9088
2012    20      4       0.7541439       143.0984
2012    20      5       1.009397        170.4705
2012    20      6       1.331002        197.0654
2012    20      7       1.486552        207.0245
2012    21      0       1.343486        197.2377
2012    21      1       1.301887        193.0096
2012    21      2       1.182613        183.9179
2012    21      3       1.011013        169.4644
2012    21      4       0.8681912       155.203
2012    21      5       0.8729883       156.169
2012    21      6       1.070058        176.1024
2012    21      7       1.263784        191.9342
2012    22      0       1.261285        190.1263
2012    22      1       1.176612        183.1628
2012    22      2       1.182644        183.7774
2012    22      3       1.203578        185.5164
2012    22      4       1.141903        180.9521
2012    22      5       1.110178        178.5788
2012    22      6       1.228496        188.68
2012    22      7       1.35603         197.1616
2012    23      0       1.121492        178.221
2012    23      1       1.081694        174.6549
2012    23      2       1.031894        170.0442
2012    23      3       0.9630611       163.6647
2012    23      4       0.8174594       148.9878
2012    23      5       0.8859722       156.4031
2012    23      6       0.9813336       166.9769
2012    23      7       0.9141698       159.8349
2012    24      0       0.5192065       108.5105
2012    24      1       0.4300162       93.60452
2012    24      2       0.4630393       99.13543
2012    24      3       0.4738034       101.1129
2012    24      4       0.4639466       100.4764
2012    24      5       0.5847568       118.942
2012    24      6       0.9056095       158.5428
2012    24      7       0.9187952       160.1981
2012    25      0       0.8319202       150.9169
2012    25      1       0.7215337       137.6202
2012    25      2       0.6639533       129.9578
2012    25      3       0.6164494       123.1107
2012    25      4       0.5325772       110.7193
2012    25      5       0.6966033       133.267
2012    25      6       0.9213055       159.3763
2012    25      7       0.8787174       154.9996
2012    26      0       0.7673503       142.3515
2012    26      1       0.7203679       136.8593
2012    26      2       0.8244471       148.7901
2012    26      3       0.8773678       155.3574
2012    26      4       0.9378024       162.3197
2012    26      5       1.221592        187.4961
2012    26      6       1.354432        197.6254
2012    26      7       1.453521        204.4138
2012    27      0       1.461929        204.8582
2012    27      1       1.365637        199.0746
2012    27      2       1.395458        200.9782
2012    27      3       1.303816        194.66
2012    27      4       1.1522          182.9459
2012    27      5       1.226863        188.594
2012    27      6       1.474765        206.4077
2012    27      7       1.547737        210.585
2012    28      0       1.456587        204.457
2012    28      1       1.429493        202.8406
2012    28      2       1.272862        192.6187
2012    28      3       1.256606        191.1868
2012    28      4       1.07214         176.3653
2012    28      5       1.121975        180.5716
2012    28      6       1.405179        202.0645
2012    28      7       1.544635        211.1348
2012    29      0       1.502545        208.5828
2012    29      1       1.258281        191.9697
2012    29      2       1.19477         186.5177
2012    29      3       1.138869        181.8211
2012    29      4       1.042726        173.2103
2012    29      5       1.089736        177.0791
2012    29      6       1.197014        186.2341
2012    29      7       1.193243        186.5101
2012    30      0       1.174152        184.9076
2012    30      1       1.175762        185.3275
2012    30      2       1.180973        185.7209
2012    30      3       1.171266        185.018
2012    30      4       1.261993        191.6113
2012    30      5       1.350214        196.9392
2012    30      6       1.324361        195.5328
2012    30      7       1.36148         198.0182
2012    31      0       1.342896        196.5357
2012    31      1       1.262935        191.2354
2012    31      2       1.194298        186.2253
2012    31      3       1.160855        183.4415
2012    31      4       1.113197        179.4845
2012    31      5       1.137609        181.0322
2012    31      6       1.284919        193.2528
2012    31      7       1.475422        206.19
2013    1       0       0.960558        167.7857
2013    1       1       0.8865902       160.2327
2013    1       2       0.8686888       158.0978
2013    1       3       0.9227231       163.6783
2013    1       4       0.9741258       168.5687
2013    1       5       1.145699        183.0651
2013    1       6       1.356865        200.3031
2013    1       7       1.641683        217.2158
2013    2       0       1.569989        212.0869
2013    2       1       1.391533        201.0937
2013    2       2       1.309123        195.5793
2013    2       3       1.3209          196.9532
2013    2       4       1.266349        193.4236
2013    2       5       1.390932        201.5447
2013    2       6       1.498957        207.9978
2013    2       7       1.138601        181.5683
2013    3       0       0.8268337       150.9419
2013    3       1       0.6662471       130.738
2013    3       2       0.676441        132.244
2013    3       3       0.7081637       136.4591
2013    3       4       0.69909         134.9175
2013    3       5       0.7549864       142.1197
2013    3       6       1.067169        175.6138
2013    3       7       1.386646        200.34
2013    4       0       1.326135        196.4946
2013    4       1       1.213946        188.5432
2013    4       2       1.238892        190.2756
2013    4       3       1.318053        195.4362
2013    4       4       1.243589        190.076
2013    4       5       1.324182        196.5516
2013    4       6       1.451864        205.4186
2013    4       7       1.506485        208.9386
2013    5       0       1.518711        209.8107
2013    5       1       1.535576        210.1509
2013    5       2       1.296586        193.5519
2013    5       3       1.143519        183.4626
2013    5       4       0.9297679       164.1427
2013    5       5       0.9307097       163.9026
2013    5       6       1.026284        173.3031
2013    5       7       1.053363        175.9302
2013    6       0       0.8532355       155.5016
2013    6       1       0.7643488       144.8436
2013    6       2       0.7868671       147.2696
2013    6       3       0.8481966       154.3376
2013    6       4       0.8207615       151.4842
2013    6       5       0.8107824       150.1171
2013    6       6       0.9709327       167.6226
2013    6       7       1.220483        188.3668
2013    7       0       0.9194176       160.7818
2013    7       1       0.6809706       133.6068
2013    7       2       0.6695426       132.7338
2013    7       3       0.7560584       144.001
2013    7       4       0.666812        132.5429
2013    7       5       0.7409218       141.9774
2013    7       6       0.9751629       168.1729
2013    7       7       1.127338        182.8556
2013    8       0       1.1155          182.467
2013    8       1       1.220943        190.7718
2013    8       2       1.322672        196.4309
2013    8       3       1.205851        186.8965
2013    8       4       1.030879        172.0599
2013    8       5       1.003884        169.741
2013    8       6       1.027535        173.0442
2013    8       7       1.151577        184.3717
2013    9       0       1.211144        188.3084
2013    9       1       1.175748        185.4906
2013    9       2       1.542947        210.0585
2013    9       3       1.11597         179.2149
2013    9       4       0.8381327       152.34
2013    9       5       1.014643        170.6921
2013    9       6       1.321895        196.0783
2013    9       7       1.492326        208.2864
2013    10      0       1.637894        215.7412
2013    10      1       1.513091        208.3052
2013    10      2       1.400079        200.8063
2013    10      3       1.446636        203.6785
2013    10      4       1.352532        197.7973
2013    10      5       1.378716        199.4698
2013    10      6       1.324627        196.3684
2013    10      7       1.401173        201.5216
2013    11      0       1.482958        206.13
2013    11      1       1.351488        197.2177
2013    11      2       1.346432        197.1782
2013    11      3       1.25973         191.1739
2013    11      4       1.209114        187.263
2013    11      5       1.3322          195.4552
2013    11      6       1.274447        192.2048
2013    11      7       1.226959        190.1286
2013    12      0       0.9951098       170.2462
2013    12      1       0.9709088       167.7313
2013    12      2       0.8932422       159.449
2013    12      3       0.8175022       150.9256
2013    12      4       0.7284333       140.3629
2013    12      5       0.8452826       154.2191
2013    12      6       0.9682764       167.2757
2013    12      7       0.9511386       165.8357
2013    13      0       0.9513149       165.4733
2013    13      1       1.106989        179.3553
2013    13      2       1.170392        184.3601
2013    13      3       1.073325        176.043
2013    13      4       0.9713028       167.2652
2013    13      5       1.035209        172.7136
2013    13      6       0.8930676       158.0892
2013    13      7       0.9694277       165.896
2013    14      0       0.8867639       157.7541
2013    14      1       0.8045271       148.3411
2013    14      2       0.7065304       136.2048
2013    14      3       0.6687294       130.9933
2013    14      4       0.5860183       119.8123
2013    14      5       0.6699284       131.7654
2013    14      6       0.9404282       163.7354
2013    14      7       1.160912        184.0843
2013    15      0       0.95593         164.511
2013    15      1       0.7792322       144.4478
2013    15      2       0.7123228       135.7744
2013    15      3       0.5864336       118.8086
2013    15      4       0.5011705       106.6492
2013    15      5       0.6191307       124.5153
2013    15      6       0.9239355       161.5584
2013    15      7       1.116077        179.5102
2013    16      0       1.029067        171.0801
2013    16      1       1.102034        177.2939
2013    16      2       1.098738        177.8506
2013    16      3       1.029375        171.8161
2013    16      4       0.9672182       165.9365
2013    16      5       1.030853        172.2499
2013    16      6       1.301909        193.6097
2013    16      7       1.316535        194.9722
2013    17      0       1.320407        194.726
2013    17      1       1.383994        199.2664
2013    17      2       1.397352        200.1493
2013    17      3       1.437402        203.0312
2013    17      4       1.385551        199.8971
2013    17      5       1.303807        193.8452
2013    17      6       1.301002        194.1584
2013    17      7       1.434288        203.1523
2013    18      0       1.446495        203.6768
2013    18      1       1.4048          201.1026
2013    18      2       1.485557        206.1732
2013    18      3       0.9269946       161.9327
2013    18      4       0.4884286       105.541
2013    18      5       0.6034932       122.7255
2013    18      6       0.9548238       164.4809
2013    18      7       1.16241         183.488
2013    19      0       1.040264        171.675
2013    19      1       0.9675435       164.205
2013    19      2       0.8427705       151.0388
2013    19      3       0.5959086       120.5506
2013    19      4       0.4906198       105.1041
2013    19      5       0.5062166       108.2022
2013    19      6       0.6313847       127.6312
2013    19      7       0.6640441       132.8305
2013    20      0       0.3584826       84.97403
2013    20      1       0.2492501       63.90187
2013    20      2       0.3504918       83.77827
2013    20      3       0.3802307       89.36353
2013    20      4       0.3679706       87.10078
2013    20      5       0.5555112       117.4831
2013    20      6       0.9555764       167.6273
2013    20      7       1.172504        186.1015
2013    21      0       0.4082318       93.66292
2013    21      1       0.2594687       65.56609
2013    21      2       0.342874        80.43232
2013    21      3       0.5762031       117.1594
2013    21      4       0.5070112       107.7206
2013    21      5       0.616786        123.1419
2013    21      6       0.73818         138.4111
2013    21      7       0.807157        147.0144
2013    22      0       0.5517067       114.1967
2013    22      1       0.3607793       83.63757
2013    22      2       0.3718788       85.06355
2013    22      3       0.4500684       97.93462
2013    22      4       0.58626         117.5987
2013    22      5       0.7051395       133.8257
2013    22      6       0.8628176       152.8064
2013    22      7       0.89349         156.5634
2013    23      0       0.8009451       146.3645
2013    23      1       0.8920859       156.3306
2013    23      2       0.9799243       165.5249
2013    23      3       1.039725        171.569
2013    23      4       0.9364795       161.9509
2013    23      5       1.100932        177.0491
2013    23      6       1.293911        192.3799
2013    23      7       1.15893         182.6392
2013    24      0       1.072846        175.4188
2013    24      1       0.7657199       143.6738
2013    24      2       0.5691711       117.4162
2013    24      3       0.5288098       111.4116
2013    24      4       0.4747681       103.2085
2013    24      5       0.5864031       120.4059
2013    24      6       0.8337466       150.7528
2013    24      7       0.8185098       148.9613
2013    25      0       0.6000848       120.8373
2013    25      1       0.3984469       90.31866
2013    25      2       0.2917982       71.47087
2013    25      3       0.2457186       62.97926
2013    25      4       0.2222379       58.14637
2013    25      5       0.2884577       71.35944
2013    25      6       0.5478742       115.6523
2013    25      7       0.8823828       158.2005
2013    26      0       0.6903232       135.815
2013    26      1       0.5339343       113.5222
2013    26      2       0.5596779       117.586
2013    26      3       0.6245548       127.0325
2013    26      4       0.8226081       151.716
2013    26      5       0.9898649       169.3047
2013    26      6       1.214939        189.2627
2013    26      7       0.8524586       155.5031
2013    27      0       0.4121374       94.52852
2013    27      1       0.3427158       81.9158
2013    27      2       0.3794166       88.31894
2013    27      3       0.4764115       104.6079
2013    27      4       0.5542961       116.5628
2013    27      5       0.5822794       121.4131
2013    27      6       0.779055        147.4069
2013    27      7       0.8971412       160.736
2013    28      0       0.536103        113.7927
2013    28      1       0.3696449       86.127
2013    28      2       0.4067146       92.86781
2013    28      3       0.4278276       96.59664
2013    28      4       0.5704422       118.9111
2013    28      5       0.9324305       163.189
2013    28      6       1.263872        192.7855
2013    28      7       1.390723        201.3973
2013    29      0       1.242921        189.0413
2013    29      1       1.045227        172.2513
2013    29      2       1.014867        169.1699
2013    29      3       0.9187385       160.5331
2013    29      4       0.8651196       155.3156
2013    29      5       0.8818214       157.3373
2013    29      6       0.9688977       167.4536
2013    29      7       1.086538        179.1687
2013    30      0       1.028805        173.2784
2013    30      1       1.026526        171.9957
2013    30      2       1.206801        186.4592
2013    30      3       1.343861        196.4857
2013    30      4       1.278799        192.2652
2013    30      5       1.1486          182.8058
2013    30      6       1.019654        172.0912
2013    30      7       0.8827119       158.6051
2013    31      0       0.5729794       119.989
2013    31      1       0.5240341       112.0552
2013    31      2       0.5959495       122.5975
2013    31      3       0.737913        141.3295
2013    31      4       0.7611989       143.6503
2013    31      5       0.752146        143.4545
2013    31      6       1.019944        172.3224
2013    31      7       1.010505        171.7282
2014    1       0       0.5704176       117.7081
2014    1       1       0.4784751       102.8787
2014    1       2       0.4400113       96.70189
2014    1       3       0.4371876       96.16716
2014    1       4       0.6749371       131.3634
2014    1       5       1.106553        178.1808
2014    1       6       1.305736        193.8549
2014    1       7       1.477297        205.6649
2014    2       0       1.362038        198.442
2014    2       1       1.07455         176.7043
2014    2       2       0.8882986       159.522
2014    2       3       0.7903699       148.5052
2014    2       4       0.6252211       126.9196
2014    2       5       0.7476728       143.4855
2014    2       6       0.9118599       162.295
2014    2       7       1.056286        176.7452
2014    3       0       0.7465159       142.6377
2014    3       1       0.5934375       121.7489
2014    3       2       0.5188921       110.7448
2014    3       3       0.5908945       121.256
2014    3       4       0.9893449       168.8755
2014    3       5       1.43968         204.2286
2014    3       6       1.526212        210.1451
2014    3       7       1.591487        214.7729
2014    4       0       1.751641        222.2735
2014    4       1       1.620037        216.1226
2014    4       2       1.544289        212.1727
2014    4       3       1.51309         209.1979
2014    4       4       1.340012        197.6362
2014    4       5       1.523324        209.5808
2014    4       6       1.949161        230.351
2014    4       7       1.759065        221.8302
2014    5       0       1.71261         219.5449
2014    5       1       1.548625        210.1106
2014    5       2       1.499247        207.1601
2014    5       3       1.560682        210.8544
2014    5       4       1.618302        214.1716
2014    5       5       1.652794        216.2145
2014    5       6       1.629675        215.0666
2014    5       7       1.473284        207.084
2014    6       0       1.41623         203.8838
2014    6       1       1.382801        201.3851
2014    6       2       1.407197        202.362
2014    6       3       1.400138        201.678
2014    6       4       1.308322        195.3794
2014    6       5       1.411032        202.1718
2014    6       6       1.79389         222.834
2014    6       7       1.772635        221.7372
2014    7       0       1.468841        205.617
2014    7       1       1.318723        195.7982
2014    7       2       1.312369        195.8705
2014    7       3       1.258172        192.2886
2014    7       4       1.277078        193.8246
2014    7       5       1.498484        208.3381
2014    7       6       1.645476        216.4594
2014    7       7       1.78134         223.6524
2014    8       0       1.629732        216.2948
2014    8       1       1.464371        206.7538
2014    8       2       1.327805        197.6345
2014    8       3       1.3104          195.9931
2014    8       4       1.33652         197.6765
2014    8       5       1.449762        204.8437
2014    8       6       1.512238        209.3379
2014    8       7       1.593249        213.8945
2014    9       0       1.623801        214.752
2014    9       1       1.595411        213.0791
2014    9       2       1.502685        207.8445
2014    9       3       1.490565        206.4941
2014    9       4       1.447336        203.7058
2014    9       5       1.49599         206.963
2014    9       6       1.464895        205.4729
2014    9       7       1.464639        205.987
2014    10      0       1.361139        199.5906
2014    10      1       1.263566        193.1406
2014    10      2       1.242266        191.1612
2014    10      3       1.214493        188.736
2014    10      4       1.1971          187.2098
2014    10      5       1.316777        196.1836
2014    10      6       1.448524        205.6887
2014    10      7       1.508647        210.1593
2014    11      0       1.402376        203.3296
2014    11      1       1.297603        195.6373
2014    11      2       1.318077        196.8862
2014    11      3       1.316446        196.8014
2014    11      4       1.314125        196.7653
2014    11      5       1.363097        200.2517
2014    11      6       1.539872        211.6927
2014    11      7       1.267484        193.6234
2014    12      0       0.999904        170.3051
2014    12      1       0.9326107       164.2017
2014    12      2       1.13122         182.3098
2014    12      3       0.9549203       165.0371
2014    12      4       0.8209513       149.8951
2014    12      5       0.8407208       152.5623
2014    12      6       1.132763        181.8572
2014    12      7       1.14597         183.2872
2014    13      0       1.136639        182.7678
2014    13      1       1.316642        195.6143
2014    13      2       1.233328        189.5835
2014    13      3       1.263501        191.8483
2014    13      4       1.162689        183.893
2014    13      5       1.184059        186.0357
2014    13      6       1.496627        208.4647
2014    13      7       1.798723        224.4262
2014    14      0       1.680546        217.8912
2014    14      1       1.457857        205.3368
2014    14      2       1.395075        201.3996
2014    14      3       1.343656        197.8778
2014    14      4       1.231409        189.417
2014    14      5       1.134216        181.8913
2014    14      6       1.298254        195.7125
2014    14      7       1.774499        223.6808
2014    15      0       1.789045        223.7001
2014    15      1       1.522775        209.1396
2014    15      2       1.362137        198.5934
2014    15      3       1.195884        186.3629
2014    15      4       1.108286        179.8211
2014    15      5       1.308461        195.0133
2014    15      6       1.414089        202.3818
2014    15      7       1.463596        205.7996
2014    16      0       1.393313        201.8914
2014    16      1       1.341769        198.4534
2014    16      2       1.18576         186.4703
2014    16      3       1.296557        194.1091
2014    16      4       1.426964        202.5008
2014    16      5       1.434743        203.9089
2014    16      6       1.511089        209.5008
2014    16      7       1.532221        209.6402
2014    17      0       1.166841        183.9739
2014    17      1       0.9328119       162.222
2014    17      2       0.8492544       153.3749
2014    17      3       0.8491156       153.4108
2014    17      4       0.9668787       165.8003
2014    17      5       1.159433        183.3075
2014    17      6       1.461285        205.3289
2014    17      7       1.596483        213.4483
2014    18      0       1.460081        204.5922
2014    18      1       1.375449        198.6014
2014    18      2       1.216537        187.4821
2014    18      3       1.154782        182.5249
2014    18      4       1.097049        177.8456
2014    18      5       1.223216        187.7753
2014    18      6       1.514975        208.7119
2014    18      7       1.558764        210.8758
2014    19      0       1.41076         200.7704
2014    19      1       1.164771        183.6017
2014    19      2       1.120842        179.9175
2014    19      3       1.094129        177.3182
2014    19      4       1.092558        176.933
2014    19      5       1.156488        182.0002
2014    19      6       1.241942        188.884
2014    19      7       1.23115         188.6392
2014    20      0       1.107393        178.6944
2014    20      1       1.01783         170.218
2014    20      2       1.025666        170.5674
2014    20      3       1.082042        175.4687
2014    20      4       1.11585         179.0482
2014    20      5       1.24167         189.2687
2014    20      6       1.289627        193.0933
2014    20      7       1.426614        203.0082
2014    21      0       1.405382        201.7221
2014    21      1       1.357196        198.8384
2014    21      2       1.341039        197.917
2014    21      3       1.313224        196.3033
2014    21      4       1.175319        186.0403
2014    21      5       1.335744        197.8139
2014    21      6       1.733736        221.6401
2014    21      7       1.62799         215.3515
2014    22      0       1.55637         210.7639
2014    22      1       1.280433        193.1856
2014    22      2       1.123901        181.0475
2014    22      3       1.107356        179.8493
2014    22      4       1.079488        176.5216
2014    22      5       1.310614        194.0263
2014    22      6       1.355524        198.5583
2014    22      7       1.607517        213.8707
2014    23      0       1.519144        208.4871
2014    23      1       1.406212        200.9336
2014    23      2       1.324755        195.4838
2014    23      3       1.291453        193.0031
2014    23      4       1.347879        196.9835
2014    23      5       1.38162         199.1961
2014    23      6       1.397884        200.8782
2014    23      7       1.268806        192.334
2014    24      0       1.254345        190.9508
2014    24      1       1.292978        193.5938
2014    24      2       1.196677        186.3395
2014    24      3       1.140931        181.4858
2014    24      4       1.075537        175.5623
2014    24      5       1.033516        171.9787
2014    24      6       1.026651        171.9115
2014    24      7       0.9007587       159.7902
2014    25      0       0.6446281       129.6496
2014    25      1       0.5371171       114.2507
2014    25      2       0.4970153       108.1987
2014    25      3       0.5093364       110.0379
2014    25      4       0.5476852       115.9633
2014    25      5       0.535812        114.307
2014    25      6       0.6281733       127.8362
2014    25      7       0.4498747       100.7493
2014    26      0       0.3080453       75.30651
2014    26      1       0.2508908       64.07553
2014    26      2       0.218501        57.14368
2014    26      3       0.1861586       50.23377
2014    26      4       0.2141838       56.26811
2014    26      5       0.2574436       65.18685
2014    26      6       0.3171289       77.16226
2014    26      7       0.5528951       117.0883
2014    27      0       0.4627681       102.8363
2014    27      1       0.2864847       71.02711
2014    27      2       0.2208436       57.53997
2014    27      3       0.2361936       60.64717
2014    27      4       0.5519582       116.4027
2014    27      5       1.12705         181.0008
2014    27      6       1.509847        207.6425
2014    27      7       1.374065        198.7568
2014    28      0       1.050217        172.6171
2014    28      1       0.8080188       147.4065
2014    28      2       0.6104967       122.6346
2014    28      3       0.4818079       103.2652
2014    28      4       0.4022381       89.66389
2014    28      5       0.4995981       106.7037
2014    28      6       0.9140076       160.8207
2014    28      7       1.140341        182.5311
2014    29      0       1.06065         174.4308
2014    29      1       1.106762        177.8014
2014    29      2       1.197052        185.7406
2014    29      3       1.09647         178.0501
2014    29      4       1.047579        174.0354
2014    29      5       1.137256        181.8888
2014    29      6       1.300007        195.103
2014    29      7       1.192536        187.6273
2014    30      0       0.7581034       144.1206
2014    30      1       0.6037979       122.8746
2014    30      2       0.724063        138.474
2014    30      3       0.8001721       147.4075
2014    30      4       0.7636571       143.9734
2014    30      5       0.8692449       156.9731
2014    30      6       0.9708763       167.975
2014    30      7       1.106134        180.2017
2014    31      0       1.088362        177.458
2014    31      1       1.106063        178.1301
2014    31      2       1.233108        188.0583
2014    31      3       1.243229        188.4903
2014    31      4       1.112717        178.5979
2014    31      5       1.011999        170.6054
2014    31      6       1.082305        177.6566
2014    31      7       1.160721        183.8802
2015    1       0       0.8731019       157.1187
2015    1       1       0.751686        142.9592
2015    1       2       0.7737692       145.6804
2015    1       3       0.7856696       147.3505
2015    1       4       0.7381376       141.4389
2015    1       5       0.773028        145.5426
2015    1       6       1.013783        171.4099
2015    1       7       1.173739        186.4188
2015    2       0       1.198199        188.59
2015    2       1       1.11782         181.8371
2015    2       2       1.121591        181.8842
2015    2       3       1.172635        185.4314
2015    2       4       1.248214        190.9287
2015    2       5       1.464746        205.5613
2015    2       6       1.582646        212.4837
2015    2       7       1.596513        213.4114
2015    3       0       1.631535        215.1716
2015    3       1       1.582679        212.0816
2015    3       2       1.42855         202.6097
2015    3       3       1.388328        199.5415
2015    3       4       1.071713        175.6307
2015    3       5       1.166091        183.1996
2015    3       6       1.24457         189.8828
2015    3       7       1.341928        195.7427
2015    4       0       1.302962        193.3302
2015    4       1       1.325155        195.0377
2015    4       2       1.409402        201.1795
2015    4       3       1.453527        204.2696
2015    4       4       1.254257        190.7959
2015    4       5       1.289127        192.3884
2015    4       6       1.486531        206.1072
2015    4       7       1.612879        213.7997
2015    5       0       1.465519        205.4776
2015    5       1       1.485845        206.5467
2015    5       2       1.521026        208.9425
2015    5       3       1.454992        204.7326
2015    5       4       1.480294        205.8759
2015    5       5       1.392083        199.4141
2015    5       6       1.328954        195.7158
2015    5       7       1.309207        194.8786
2015    6       0       1.297591        192.7159
2015    6       1       1.262837        190.0969
2015    6       2       1.227073        187.6086
2015    6       3       1.253001        189.8052
2015    6       4       1.277457        191.0904
2015    6       5       1.338786        195.3226
2015    6       6       1.35427         197.5208
2015    6       7       1.365263        198.4846
2015    7       0       1.029477        171.3083
2015    7       1       0.9733979       165.8678
2015    7       2       1.016144        170.1071
2015    7       3       1.10592         178.3722
2015    7       4       1.133588        180.6614
2015    7       5       1.242557        189.6522
2015    7       6       1.395469        201.2227
2015    7       7       1.472511        206.5429
2015    8       0       1.529865        209.6051
2015    8       1       1.271539        191.977
2015    8       2       1.102191        178.9652
2015    8       3       1.188628        186.5058
2015    8       4       1.296169        194.5659
2015    8       5       1.348382        197.786
2015    8       6       1.49151         208.1238
2015    8       7       1.650463        216.9543
2015    9       0       1.418112        201.8653
2015    9       1       1.363981        197.7902
2015    9       2       1.246536        189.6425
2015    9       3       1.200238        186.0777
2015    9       4       1.266304        191.295
2015    9       5       1.285284        192.7599
2015    9       6       1.321562        195.1583
2015    9       7       1.408471        201.7209
2015    10      0       1.447786        204.2493
2015    10      1       1.384552        200.0187
2015    10      2       1.393102        200.2631
2015    10      3       1.36534         198.5193
2015    10      4       1.253565        190.1314
2015    10      5       1.302436        193.9827
2015    10      6       1.457677        204.6301
2015    10      7       1.474437        205.9249
2015    11      0       1.431901        202.9601
2015    11      1       1.384836        199.6807
2015    11      2       1.360267        198.0973
2015    11      3       1.318503        194.8736
2015    11      4       1.168535        183.2371
2015    11      5       1.15908         182.593
2015    11      6       1.214958        187.3641
2015    11      7       1.185192        185.5339
2015    12      0       0.9259675       161.4754
2015    12      1       0.4775439       103.9477
2015    12      2       0.3892433       89.74249
2015    12      3       0.4193994       95.07508
2015    12      4       0.4742484       104.3378
2015    12      5       0.7575827       142.4168
2015    12      6       0.7548233       142.4341
2015    12      7       0.5975395       122.3389
2015    13      0       0.3087807       74.66577
2015    13      1       0.259352        64.5913
2015    13      2       0.2568713       63.79705
2015    13      3       0.2449879       61.6049
2015    13      4       0.2702942       67.08069
2015    13      5       0.4338315       97.11395
2015    13      6       0.7037902       136.9702
2015    13      7       0.9411841       163.6346
2015    14      0       0.6092286       123.396
2015    14      1       0.3244772       77.15652
2015    14      2       0.3593575       83.24761
2015    14      3       0.4154175       94.3988
2015    14      4       0.5378308       114.6824
2015    14      5       0.8674563       156.6186
2015    14      6       1.117563        180.3384
2015    14      7       1.06172         175.5277
2015    15      0       0.5986507       123.3007
2015    15      1       0.3021711       74.07604
2015    15      2       0.2294709       59.51831
2015    15      3       0.2005115       53.36642
2015    15      4       0.1810629       49.21361
2015    15      5       0.2925404       72.28415
2015    15      6       0.4670477       103.4358
2015    15      7       0.5345969       114.1903
2015    16      0       0.3596157       85.03887
2015    16      1       0.2389878       61.42095
2015    16      2       0.200758        53.04561
2015    16      3       0.2019213       53.05701
2015    16      4       0.2166648       55.99224
2015    16      5       0.2149076       55.6817
2015    16      6       0.2649371       66.28349
2015    16      7       0.3236605       77.89937
2015    17      0       0.2550584       64.6061
2015    17      1       0.2040195       53.93179
2015    17      2       0.1676324       45.91973
2015    17      3       0.1486341       41.63905
2015    17      4       0.1700455       46.43132
2015    17      5       0.3381349       80.66545
2015    17      6       0.6091307       125.066
2015    17      7       0.7663062       145.8468
2015    18      0       0.558245        118.0043
2015    18      1       0.4545493       100.9713
2015    18      2       0.610998        125.4214
2015    18      3       0.7422891       143.2822
2015    18      4       0.726869        141.2235
2015    18      5       0.8058642       150.4385
2015    18      6       0.9587          167.5372
2015    18      7       1.172386        186.3935
2015    19      0       0.6072516       124.4793
2015    19      1       0.2666984       67.25561
2015    19      2       0.218408        57.36897
2015    19      3       0.1774119       48.80914
2015    19      4       0.1474825       42.27575
2015    19      5       0.1809129       49.75895
2015    19      6       0.3615317       85.54858
2015    19      7       0.5661144       118.985
2015    20      0       0.4461586       100.1455
2015    20      1       0.38612         89.43847
2015    20      2       0.362314        84.00986
2015    20      3       0.3472516       81.04125
2015    20      4       0.3918213       88.8906
2015    20      5       0.479453        103.2317
2015    20      6       0.565862        116.6813
2015    20      7       0.715918        137.1954
2015    21      0       0.8069446       148.0253
2015    21      1       1.077545        175.7553
2015    21      2       1.3279          195.4406
2015    21      3       1.412113        202.0141
2015    21      4       1.275648        193.2734
2015    21      5       1.251704        191.5391
2015    21      6       1.580704        212.6046
2015    21      7       1.509788        208.2355
2015    22      0       1.406032        201.9559
2015    22      1       1.405162        202.159
2015    22      2       1.3036          195.2578
2015    22      3       1.20367         187.6129
2015    22      4       1.140178        182.2887
2015    22      5       1.166904        184.4848
2015    22      6       1.320156        196.693
2015    22      7       1.504792        209.0402
2015    23      0       1.658053        216.6112
2015    23      1       1.50495         207.4387
2015    23      2       1.515337        208.085
2015    23      3       1.39152         200.5702
2015    23      4       1.276297        192.8339
2015    23      5       1.316195        195.6896
2015    23      6       1.554456        211.6191
2015    23      7       1.537812        210.8736
2015    24      0       1.250771        191.8783
2015    24      1       1.211729        188.7325
2015    24      2       1.327922        196.5558
2015    24      3       1.279055        192.6747
2015    24      4       1.148763        182.4526
2015    24      5       1.201327        186.541
2015    24      6       1.537689        209.8074
2015    24      7       1.705794        219.45
2015    25      0       1.641447        215.8498
2015    25      1       1.478479        206.5916
2015    25      2       1.421818        202.6832
2015    25      3       1.28881         193.6424
2015    25      4       1.234553        189.6627
2015    25      5       1.301107        194.2585
2015    25      6       1.576503        212.8522
2015    25      7       1.681001        218.9193
2015    26      0       1.647152        216.6829
2015    26      1       1.490114        207.4933
2015    26      2       1.445432        204.5089
2015    26      3       1.250829        191.2705
2015    26      4       1.058686        175.9002
2015    26      5       1.11146         180.5774
2015    26      6       1.208026        189.2001
2015    26      7       1.170626        186.0714
2015    27      0       0.84152         153.6727
2015    27      1       0.6290955       126.6579
2015    27      2       0.5359485       112.8475
2015    27      3       0.518993        109.9269
2015    27      4       0.519162        110.0078
2015    27      5       0.7100671       137.2303
2015    27      6       1.055212        175.3587
2015    27      7       1.325623        197.3685
2015    28      0       1.326742        196.9491
2015    28      1       1.35732         198.2976
2015    28      2       1.415956        202.0419
2015    28      3       1.39567         201.1242
2015    28      4       1.319565        196.2047
2015    28      5       1.35077         198.0121
2015    28      6       1.528764        209.7703
2015    28      7       1.598884        214.0218
2015    29      0       1.501376        208.765
2015    29      1       1.524426        210.4349
2015    29      2       1.459981        206.1161
2015    29      3       1.37192         199.9333
2015    29      4       1.032776        173.0224
2015    29      5       1.061888        175.5509
2015    29      6       1.468083        206.3335
2015    29      7       1.618494        214.9262
2015    30      0       1.418998        202.1718
2015    30      1       1.310041        194.084
2015    30      2       1.128655        179.7021
2015    30      3       1.062182        173.1019
2015    30      4       0.9660707       164.1879
2015    30      5       0.9718458       164.7495
2015    30      6       1.097549        176.213
2015    30      7       1.070756        174.007
2015    31      0       0.9468531       162.4176
2015    31      1       0.8896413       156.5455
2015    31      2       0.7878087       145.103
2015    31      3       0.7689957       142.6695
2015    31      4       0.9259587       160.0777
2015    31      5       1.150994        181.8901
2015    31      6       1.322926        196.2302
2015    31      7       1.546166        211.1564
2016    1       0       0.1718408       47.32554
2016    1       1       0.1340742       38.09308
2016    1       2       0.1212771       35.32591
2016    1       3       0.1264071       36.26496
2016    1       4       0.1382661       39.15671
2016    1       5       0.2901658       70.65997
2016    1       6       0.6447921       127.5802
2016    1       7       0.7768118       143.1114
2016    5       0       1.272094        194.5463
2016    5       1       1.002673        171.8255
2016    5       2       0.7318494       142.4654
2016    5       3       0.721228        140.3799
2016    5       4       0.8861915       159.2311
2016    5       5       1.048215        175.0716
2016    5       6       1.200918        188.5365
2016    5       7       1.361143        200.9727
2016    6       0       1.406692        202.4384
2016    6       1       1.286824        193.177
2016    6       2       0.9864564       169.2042
2016    6       3       0.9167024       161.7098
2016    6       4       0.780775        146.5742
2016    6       5       0.9909273       169.178
2016    6       6       1.213703        188.9907
2016    6       7       1.323418        197.8487
2016    7       0       1.385419        200.8231
2016    7       1       1.28662         193.0274
2016    7       2       1.157755        182.9423
2016    7       3       0.7789427       145.7467
2016    7       4       0.5410492       114.2232
2016    7       5       0.4621478       102.8955
2016    7       6       0.481003        106.2193
2016    7       7       0.3253872       79.31725
2016    8       0       0.1823413       49.69819
2016    8       1       0.2214035       57.06593
2016    8       2       0.1964803       51.35337
2016    8       3       0.1686376       45.93494
2016    8       4       0.1915039       52.08721
2016    8       5       0.420089        95.96366
2016    8       6       0.6705003       133.082
2016    8       7       0.5992778       123.3658
2016    9       0       0.221015        57.93681
2016    9       1       0.1069265       32.68627
2016    9       2       0.08231162      27.00115
2016    9       3       0.1052862       32.45105
2016    9       4       0.1630195       45.60156
2016    9       5       0.4569425       101.3479
2016    9       6       0.8906496       159.3826
2016    9       7       1.099506        179.3637
2016    10      0       0.9165583       160.9346
2016    10      1       0.7835722       145.7751
2016    10      2       0.8589237       154.0246
2016    10      3       0.9998423       168.7018
2016    10      4       1.043526        172.9953
2016    10      5       1.164198        184.079
2016    10      6       1.30039         195.1964
2016    10      7       1.308607        196.1715
2016    11      0       0.9963268       171.0636
2016    11      1       0.7866397       149.0228
2016    11      2       0.7905202       149.281
2016    11      3       1.006625        172.3501
2016    11      4       1.407593        203.0155
2016    11      5       1.597467        213.424
2016    11      6       1.650525        217.5799
2016    11      7       1.803387        224.8682
2016    12      0       1.630472        214.3898
2016    12      1       1.492744        205.9645
2016    12      2       1.295131        194.1632
2016    12      3       1.142582        182.6907
2016    12      4       1.055353        175.2425
2016    12      5       0.9656178       166.9477
2016    12      6       1.237387        190.1507
2016    12      7       1.291129        193.6061
2016    13      0       0.7219152       139.6718
2016    13      1       0.3660513       85.96318
2016    13      2       0.2198633       57.64951
2016    13      3       0.1734063       47.59057
2016    13      4       0.1386473       39.66247
2016    13      5       0.1418948       40.50785
2016    13      6       0.2400525       61.72207
2016    13      7       0.3247336       78.43709
2016    14      0       0.2394042       61.44787
2016    14      1       0.196979        52.26492
2016    14      2       0.1900099       50.32074
2016    14      3       0.1804603       48.18356
2016    14      4       0.1636624       44.71315
2016    14      5       0.1505647       42.21361
2016    14      6       0.2185354       57.14491
2016    14      7       0.2892737       71.29493
2016    15      0       0.2149718       55.91476
2016    15      1       0.175308        47.50614
2016    15      2       0.1738483       47.2524
2016    15      3       0.2406744       61.59769
2016    15      4       0.3199718       77.53307
2016    15      5       0.6329167       127.8593
2016    15      6       1.022015        172.8044
2016    15      7       1.142282        182.0567
2016    16      0       0.8192648       149.5104
2016    16      1       0.7059973       134.5775
2016    16      2       0.7095431       135.6235
2016    16      3       0.7232286       137.0452
2016    16      4       0.8333654       150.52
2016    16      5       1.100683        177.7577
2016    16      6       1.40808         201.7492
2016    16      7       1.408602        201.5458
2016    17      0       1.145948        182.1809
2016    17      1       1.042108        172.8895
2016    17      2       1.188806        185.3027
2016    17      3       1.248833        189.4673
2016    17      4       1.282824        192.046
2016    17      5       1.452975        203.8996
2016    17      6       1.71736         218.8471
2016    17      7       1.587209        212.7972
2016    18      0       1.52246         208.7932
2016    18      1       1.568493        211.3777
2016    18      2       1.584892        212.5672
2016    18      3       1.581162        213.076
2016    18      4       1.430579        204.3368
2016    18      5       1.46787         206.2245
2016    18      6       1.683932        218.1647
2016    18      7       1.68012         218.1918
2016    19      0       1.573543        211.5587
2016    19      1       1.502823        207.418
2016    19      2       1.30178         194.2536
2016    19      3       1.200648        185.1146
2016    19      4       1.165127        182.8413
2016    19      5       1.247379        189.6501
2016    19      6       1.220309        188.524
2016    19      7       1.314886        195.4781
2016    20      0       1.112822        179.791
2016    20      1       1.037214        173.0755
2016    20      2       1.052299        174.5521
2016    20      3       1.039221        173.2969
2016    20      4       1.060698        175.4949
2016    20      5       1.183931        186.275
2016    20      6       1.26831         194.0964
2016    20      7       1.427486        205.4525
2016    21      0       1.432589        204.6542
2016    21      1       1.378595        199.5498
2016    21      2       1.386544        200.2321
2016    21      3       1.381492        199.7865
2016    21      4       1.429791        203.1684
2016    21      5       1.577513        212.2461
2016    21      6       1.542244        211.5038
2016    21      7       1.511947        209.8711
2016    22      0       1.296646        195.6245
2016    22      1       1.111833        180.6638
2016    22      2       1.176338        184.5953
2016    22      3       1.063341        175.1182
2016    22      4       1.140768        181.5518
2016    22      5       1.258591        191.2169
2016    22      6       1.368162        200.1073
2016    22      7       1.632049        215.9461
2016    23      0       1.575767        213.5324
2016    23      1       1.521797        210.2546
2016    23      2       1.386133        201.6962
2016    23      3       1.079579        178.4968
2016    23      4       0.8333163       153.9082
2016    23      5       0.9021935       161.4855
2016    23      6       1.187136        187.7363
2016    23      7       1.301969        196.838
2016    24      0       1.429254        205.2477
2016    24      1       1.44634         205.8784
2016    24      2       1.48632         207.8042
2016    24      3       1.46554         206.6833
2016    24      4       1.144723        184.2307
2016    24      5       1.094202        180.3937
2016    24      6       1.344993        200.0433
2016    24      7       1.504406        210.6335
2016    25      0       1.32886         198.1772
2016    25      1       0.9409044       164.026
2016    25      2       0.6811693       133.7829
2016    25      3       0.655723        130.6888
2016    25      4       0.6876319       134.7352
2016    25      5       0.7953391       148.4212
2016    25      6       0.9161333       163.1167
2016    25      7       1.067896        178.4224
2016    26      0       0.9720239       169.0395
2016    26      1       1.053136        176.1759
2016    26      2       1.081778        177.4988
2016    26      3       1.001117        170.3892
2016    26      4       0.9101675       161.9077
2016    26      5       1.105813        180.3492
2016    26      6       1.188389        187.8295
2016    26      7       1.229309        191.5946
2016    27      0       1.083605        179.2324
2016    27      1       0.9000294       161.0706
2016    27      2       0.8172095       151.5901
2016    27      3       0.7796338       147.2858
2016    27      4       0.7968453       149.6764
2016    27      5       0.9888873       170.4326
2016    27      6       1.228551        192.0224
2016    27      7       1.413075        204.5107
2016    28      0       1.123623        182.1445
2016    28      1       0.738559        142.6811
2016    28      2       0.7270928       141.7086
2016    28      3       0.7453518       143.8621
2016    28      4       0.6771243       134.8398
2016    28      5       0.7306278       141.6581
2016    28      6       0.9752798       169.2899
2016    28      7       1.249703        193.2284
2016    29      0       1.151425        185.2981
2016    29      1       1.141726        184.2709
2016    29      2       1.258503        193.1499
2016    29      3       1.278761        194.4439
2016    29      4       1.159984        185.4052
2016    29      5       1.115497        182.0359
2016    29      6       1.182108        188.4406
2016    29      7       1.217911        191.3604
2016    30      0       0.8961424       161.6808
2016    30      1       0.7843499       148.1697
2016    30      2       0.8426844       154.2938
2016    30      3       0.7573619       143.3128
2016    30      4       0.484803        105.7168
2016    30      5       0.3972928       91.5097
2016    30      6       0.546731        115.7837
2016    30      7       0.588755        122.0413
2016    31      0       0.3819419       88.96948
2016    31      1       0.2802129       70.0682
2016    31      2       0.2783347       69.6591
2016    31      3       0.2938007       72.56144
2016    31      4       0.2513816       63.96029
2016    31      5       0.4107063       94.05741
2016    31      6       0.787444        148.1477
2016    31      7       1.074835        178.1893
2017    1       0       1.478323        207.1651
2017    1       1       1.541484        210.6506
2017    1       2       1.464204        206.2914
2017    1       3       1.328228        197.666
2017    1       4       1.262559        193.1546
2017    1       5       1.36732         200.7345
2017    1       6       1.55308         212.739
2017    1       7       1.670116        219.3517
2017    2       0       1.634207        217.51
2017    2       1       1.580519        214.0037
2017    2       2       1.398512        202.4979
2017    2       3       1.385344        201.0534
2017    2       4       1.431229        204.1475
2017    2       5       1.607915        214.217
2017    2       6       1.71058         220.2055
2017    2       7       1.882556        228.4593
2017    3       0       1.921286        229.8799
2017    3       1       1.861296        226.9227
2017    3       2       1.673997        217.2765
2017    3       3       1.538516        209.8593
2017    3       4       1.441641        204.2122
2017    3       5       1.46601         205.8931
2017    3       6       1.64782         216.9093
2017    3       7       1.792774        224.2611
2017    4       0       1.692547        219.2509
2017    4       1       1.637695        215.8757
2017    4       2       1.508047        208.5773
2017    4       3       1.422438        202.1491
2017    4       4       1.270875        192.282
2017    4       5       1.344115        196.9916
2017    4       6       1.513597        207.8083
2017    4       7       1.528195        209.1803
2017    5       0       1.396528        201.4624
2017    5       1       1.305686        195.3733
2017    5       2       1.308656        195.4574
2017    5       3       1.280627        193.3903
2017    5       4       1.217721        188.6177
2017    5       5       1.295015        194.3956
2017    5       6       1.587578        213.4638
2017    5       7       1.814237        224.3968
2017    6       0       1.572249        212.4236
2017    6       1       1.416334        203.6497
2017    6       2       1.444713        205.4311
2017    6       3       1.370477        200.3709
2017    6       4       1.218855        189.2272
2017    6       5       1.393861        201.8914
2017    6       6       1.680223        218.583
2017    6       7       1.738468        221.9335
2017    7       0       1.527341        210.9885
2017    7       1       1.471927        207.0523
2017    7       2       1.34469         198.2917
2017    7       3       1.27916         193.6085
2017    7       4       1.208473        188.1065
2017    7       5       1.334454        197.3216
2017    7       6       1.480169        206.7487
2017    7       7       1.489264        207.0502
2017    8       0       1.400761        200.8363
2017    8       1       1.304191        194.4523
2017    8       2       1.170307        184.0241
2017    8       3       1.082443        176.3822
2017    8       4       1.070102        175.5869
2017    8       5       1.094339        177.8884
2017    8       6       1.04736         174.3521
2017    8       7       0.9621744       166.5023
2017    9       0       0.7934044       147.9832
2017    9       1       0.7502193       142.9059
2017    9       2       0.8241387       151.6336
2017    9       3       0.8712925       156.9273
2017    9       4       0.8712147       156.7669
2017    9       5       0.9779          168.0714
2017    9       6       1.434617        204.31
2017    9       7       1.592341        213.4358
2017    10      0       1.427027        203.0121
2017    10      1       1.249765        191.3051
2017    10      2       1.254831        191.9448
2017    10      3       1.199502        188.0732
2017    10      4       1.170811        185.9049
2017    10      5       1.270259        193.5766
2017    10      6       1.466367        206.783
2017    10      7       1.54274         211.8135
2017    11      0       1.468658        207.7118
2017    11      1       1.387749        202.6117
2017    11      2       1.393986        202.3308
2017    11      3       1.26294         192.9503
2017    11      4       1.136814        182.5449
2017    11      5       1.242253        190.6715
2017    11      6       1.407177        202.5421
2017    11      7       1.446233        205.4886
2017    12      0       1.471353        207.1753
2017    12      1       1.37536         201.1933
2017    12      2       1.455261        205.7869
2017    12      3       1.396135        201.4485
2017    12      4       1.309586        195.5602
2017    12      5       1.500985        208.1302
2017    12      6       1.668281        217.8919
2017    12      7       1.788319        223.9132
2017    13      0       1.71096         220.2123
2017    13      1       1.466164        206.5961
2017    13      2       1.348707        198.6602
2017    13      3       1.309621        195.449
2017    13      4       1.228668        189.4162
2017    13      5       1.323079        196.1555
2017    13      6       1.542698        210.7341
2017    13      7       1.756526        222.184
2017    14      0       1.769104        222.9554
2017    14      1       1.770348        223.2857
2017    14      2       1.478797        207.4623
2017    14      3       1.383759        201.5497
2017    14      4       1.690516        218.281
2017    14      5       1.568145        211.5825
2017    14      6       1.508276        209.1541
2017    14      7       1.838945        226.0485
2017    15      0       1.667432        217.3302
2017    15      1       1.519032        209.4593
2017    15      2       1.38711         201.199
2017    15      3       1.387298        200.5844
2017    15      4       1.293278        194.5711
2017    15      5       1.437545        204.7062
2017    15      6       1.544915        211.3598
2017    15      7       1.537262        211.3213
2017    16      0       1.305218        196.5923
2017    16      1       1.377648        201.1087
2017    16      2       1.447111        204.9451
2017    16      3       1.532848        209.5522
2017    16      4       1.497174        206.9093
2017    16      5       1.236654        189.2931
2017    16      6       1.438563        203.8515
2017    16      7       1.627785        215.0939
2017    17      0       1.359311        199.4979
2017    17      1       1.16133         185.072
2017    17      2       1.271156        193.3037
2017    17      3       1.21818         188.9946
2017    17      4       1.278066        193.6424
2017    17      5       1.403777        202.1981
2017    17      6       1.644437        216.758
2017    17      7       1.56644         212.908
2017    18      0       1.439885        205.4687
2017    18      1       1.402508        203.3559
2017    18      2       1.247444        192.0894
2017    18      3       1.423643        203.4506
2017    18      4       1.411918        202.1359
2017    18      5       1.304062        195.1002
2017    18      6       1.484644        207.5648
2017    18      7       1.795426        224.6123
2017    19      0       1.712172        219.6707
2017    19      1       1.399767        201.4125
2017    19      2       1.315911        195.2739
2017    19      3       1.163497        184.2416
2017    19      4       1.019147        171.8111
2017    19      5       1.172876        185.4413
2017    19      6       1.72201         220.3431
2017    19      7       1.965168        231.3534
2017    20      0       1.73436         220.4878
2017    20      1       1.606156        213.2343
2017    20      2       1.584906        212.1225
2017    20      3       1.264289        192.8169
2017    20      4       1.032007        174.2009
2017    20      5       1.061119        177.086
2017    20      6       1.232833        191.3
2017    20      7       1.48241         207.7608
2017    21      0       1.482885        207.39
2017    21      1       1.564707        211.52
2017    21      2       1.379655        200.3226
2017    21      3       0.8704897       157.6578
2017    21      4       0.6500451       130.503
2017    21      5       1.077243        176.3805
2017    21      6       1.550062        209.6267
2017    21      7       1.441114        204.6883
2017    22      0       1.420623        203.7738
2017    22      1       1.504502        207.8399
2017    22      2       1.479387        205.7591
2017    22      3       1.216995        187.6573
2017    22      4       0.9345547       163.1149
2017    22      5       1.066758        175.7147
2017    22      6       1.354619        198.8078
2017    22      7       1.684559        218.4183
2017    23      0       1.439618        203.3734
2017    23      1       0.9971088       168.9018
2017    23      2       1.207591        186.2107
2017    23      3       1.387832        199.6979
2017    23      4       1.336159        196.9755
2017    23      5       1.312411        196.0762
2017    23      6       1.408748        203.9119
2017    23      7       1.468753        208.1673
2017    24      0       1.398786        203.0436
2017    24      1       1.244612        191.2402
2017    24      2       1.118449        180.4579
2017    24      3       1.126565        181.4507
2017    24      4       1.100671        179.9615
2017    24      5       1.321478        196.988
2017    24      6       1.462535        206.1091
2017    24      7       1.695789        219.8608
2017    25      0       1.551097        210.5201
2017    25      1       1.528154        209.0411
2017    25      2       1.548332        210.2961
2017    25      3       1.554229        210.6613
2017    25      4       1.260286        191.4189
2017    25      5       1.380272        199.6443
2017    25      6       1.597509        213.6191
2017    25      7       1.703872        219.1378
2017    26      0       1.508478        208.0775
2017    26      1       1.528815        208.7922
2017    26      2       1.465567        204.7818
2017    26      3       1.252318        190.7771
2017    26      4       1.10059         178.5874
2017    26      5       1.19092         186.204
2017    26      6       1.413442        202.3876
2017    26      7       1.590998        213.4648
2017    27      0       1.457397        204.2625
2017    27      1       1.374759        198.5725
2017    27      2       1.376087        198.6785
2017    27      3       1.367278        198.0138
2017    27      4       1.313442        194.7541
2017    27      5       1.337748        196.8149
2017    27      6       1.502304        207.7662
2017    27      7       1.635123        215.9797
2017    28      0       1.585039        213.1261
2017    28      1       1.313206        196.5849
2017    28      2       1.287796        194.3757
2017    28      3       1.206327        187.9062
2017    28      4       1.039037        173.6853
2017    28      5       1.130828        181.7674
2017    28      6       1.421752        203.6971
2017    28      7       1.500022        208.5445
2017    29      0       1.257489        192.4369
2017    29      1       1.091827        178.8453
2017    29      2       0.9944432       169.3773
2017    29      3       1.034392        172.3015
2017    29      4       1.010311        169.9359
2017    29      5       1.0362          172.1504
2017    29      6       1.262338        192.3103
2017    29      7       1.453909        206.1591
2017    30      0       1.621105        216.2822
2017    30      1       1.354741        200.3678
2017    30      2       1.384382        201.6166
2017    30      3       1.393532        200.9863
2017    30      4       1.179038        185.658
2017    30      5       0.9840419       169.2889
2017    30      6       1.224497        190.857
2017    30      7       1.638268        217.8496
2017    31      0       1.812467        226.0585
2017    31      1       1.629936        215.573
2017    31      2       1.333887        196.6595
2017    31      3       1.169839        184.4159
2017    31      4       1.160138        184.3205
2017    31      5       1.219479        189.4672
2017    31      6       1.416983        204.199
2017    31      7       1.697063        219.4201
2018    1       0       1.685445        217.7542
2018    1       1       1.687497        217.8528
2018    1       2       1.552571        210.6859
2018    1       3       1.261964        192.5052
2018    1       4       1.223527        189.8549
2018    1       5       1.365086        199.8532
2018    1       6       1.38736         202.1669
2018    1       7       1.533866        210.6774
2018    2       0       1.580298        212.1709
2018    2       1       1.53774         209.4275
2018    2       2       1.413872        202.2993
2018    2       3       1.302641        194.9609
2018    2       4       1.245831        190.8785
2018    2       5       1.270545        192.805
2018    2       6       1.328128        197.2466
2018    2       7       1.32963         197.4335
2018    3       0       1.208065        187.7757
2018    3       1       1.114958        179.8887
2018    3       2       1.189688        185.6158
2018    3       3       1.123667        180.4748
2018    3       4       1.046115        174.0227
2018    3       5       1.021909        171.8368
2018    3       6       0.9782444       168.1924
2018    3       7       1.021812        172.046
2018    4       0       0.9258304       161.8981
2018    4       1       0.936316        162.8145
2018    4       2       1.048086        173.7303
2018    4       3       1.098677        178.3886
2018    4       4       1.008818        170.8573
2018    4       5       1.10807         179.8083
2018    4       6       1.287987        194.705
2018    4       7       1.305353        195.5336
2018    5       0       1.232582        189.2878
2018    5       1       1.19571         186.8433
2018    5       2       1.295548        194.5117
2018    5       3       1.328102        196.9118
2018    5       4       1.124863        181.8874
2018    5       5       1.209144        188.6893
2018    5       6       1.329576        198.0992
2018    5       7       1.553501        211.8125
2018    6       0       1.487344        206.1971
2018    6       1       1.298649        194.205
2018    6       2       1.264886        191.8503
2018    6       3       1.153496        182.9516
2018    6       4       0.854745        154.6385
2018    6       5       0.8096752       149.6131
2018    6       6       1.058704        175.6963
2018    6       7       1.312099        196.6509
2018    7       0       1.124614        181.9138
2018    7       1       1.038757        174.4169
2018    7       2       1.061022        176.1607
2018    7       3       1.093761        178.3697
2018    7       4       1.090807        178.15
2018    7       5       1.083715        177.7046
2018    7       6       1.09909         179.4913
2018    7       7       1.065764        177.0662
2018    8       0       0.966964        167.9397
2018    8       1       0.9384809       164.6605
2018    8       2       0.8543068       155.5218
2018    8       3       0.87385         156.95
2018    8       4       0.9588232       165.5389
2018    8       5       1.191015        186.6607
2018    8       6       1.414897        203.4203
2018    8       7       1.445683        204.7604
2018    9       0       1.357075        198.9436
2018    9       1       1.271089        192.8457
2018    9       2       1.185821        186.2108
2018    9       3       1.104164        179.546
2018    9       4       1.224722        189.3702
2018    9       5       1.392424        201.2041
2018    9       6       1.447368        205.3754
2018    9       7       1.61358         215.2652
2018    10      0       1.612467        214.9476
2018    10      1       1.497832        207.7687
2018    10      2       1.27868         192.779
2018    10      3       1.099559        178.6125
2018    10      4       1.04272         173.8777
2018    10      5       1.230722        189.1781
2018    10      6       1.522515        209.0472
2018    10      7       1.454839        204.7687
2018    11      0       1.290216        194.2951
2018    11      1       1.231417        190.0767
2018    11      2       1.220917        188.8832
2018    11      3       1.191089        186.5913
2018    11      4       1.159914        183.9664
2018    11      5       1.361536        198.7495
2018    11      6       1.424648        203.7535
2018    11      7       1.490639        208.4676
2018    12      0       1.510515        209.4103
2018    12      1       1.497549        208.0856
2018    12      2       1.390245        200.9809
2018    12      3       1.299637        194.9634
2018    12      4       1.308043        195.5664
2018    12      5       1.426484        202.8246
2018    12      6       1.423709        203.2998
2018    12      7       1.47507         206.4672
2018    13      0       1.243199        190.4802
2018    13      1       1.041349        173.8971
2018    13      2       1.058985        175.557
2018    13      3       0.9589942       166.0897
2018    13      4       0.8605974       155.7674
2018    13      5       0.8741715       157.3559
2018    13      6       0.7974631       149.1096
2018    13      7       0.6672323       133.0214
2018    14      0       0.431005        97.81115
2018    14      1       0.3734909       87.80816
2018    14      2       0.3442023       82.2944
2018    14      3       0.3027402       74.44905
2018    14      4       0.287204        71.50409
2018    14      5       0.3489969       83.07956
2018    14      6       0.5589419       117.6199
2018    14      7       0.8381966       153.581
2018    15      0       0.7636892       144.804
2018    15      1       0.812957        150.5423
2018    15      2       1.179098        185.1356
2018    15      3       1.166352        184.2171
2018    15      4       0.9346889       163.6665
2018    15      5       0.9143294       161.3672
2018    15      6       1.239253        190.0263
2018    15      7       1.416554        202.105
2018    16      0       1.431598        202.7233
2018    16      1       1.324115        196.2317
2018    16      2       1.27245         192.9714
2018    16      3       1.213714        188.5206
2018    16      4       1.069326        176.3399
2018    16      5       1.161437        184.0208
2018    16      6       1.418209        203.1004
2018    16      7       1.507143        209.0267
2018    17      0       1.446903        205.3648
2018    17      1       1.428373        203.9724
2018    17      2       1.371443        199.3755
2018    17      3       1.207471        187.4253
2018    17      4       1.148968        182.3777
2018    17      5       1.205813        186.9657
2018    17      6       1.535248        209.8658
2018    17      7       1.618472        214.2792
2018    18      0       1.327203        196.1888
2018    18      1       1.186603        185.8341
2018    18      2       1.228111        188.4666
2018    18      3       1.146375        181.5254
2018    18      4       1.035521        172.5813
2018    18      5       1.234075        189.09
2018    18      6       1.570579        211.4473
2018    18      7       1.60668         213.8518
2018    19      0       1.322736        196.5253
2018    19      1       1.353968        198.0305
2018    19      2       1.224009        188.648
2018    19      3       1.06421         175.3419
2018    19      4       1.056521        174.8324
2018    19      5       1.268319        192.3128
2018    19      6       1.48374         207.4425
2018    19      7       1.418762        203.4802
2018    20      0       1.369436        200.3796
2018    20      1       1.434859        203.9935
2018    20      2       1.358837        198.7054
2018    20      3       1.24639         190.2135
2018    20      4       1.148482        182.1024
2018    20      5       1.105355        178.8073
2018    20      6       1.447515        204.3489
2018    20      7       1.689348        218.3191
2018    21      0       1.576494        212.4343
2018    21      1       1.388161        201.2135
2018    21      2       1.231942        189.484
2018    21      3       1.098389        178.5449
2018    21      4       0.9871684       168.5175
2018    21      5       1.068189        176.1331
2018    21      6       1.418188        203.7324
2018    21      7       1.701215        219.8019
2018    22      0       1.584098        212.751
2018    22      1       1.496592        206.9623
2018    22      2       1.427237        202.8063
2018    22      3       1.438114        203.4443
2018    22      4       1.48956         206.486
2018    22      5       1.5177          207.5412
2018    22      6       1.550044        209.4654
2018    22      7       1.485899        206.0972
2018    23      0       1.514334        207.8323
2018    23      1       1.500042        206.9373
2018    23      2       1.330782        196.3326
2018    23      3       1.214489        187.9642
2018    23      4       1.087668        177.6773
2018    23      5       1.300584        193.733
2018    23      6       1.513103        208.1321
2018    23      7       1.449726        204.1653
2018    24      0       1.399949        200.6216
2018    24      1       1.412894        200.9483
2018    24      2       1.153321        181.5914
2018    24      3       1.01165         168.5854
2018    24      4       0.9446174       162.098
2018    24      5       0.9039297       158.0486
2018    24      6       1.172224        182.3724
2018    24      7       1.307119        192.8539
2018    25      0       1.134925        180.2523
2018    25      1       0.8047521       148.2551
2018    25      2       0.6999775       135.7339
2018    25      3       0.6710173       132.0276
2018    25      4       0.6173193       124.7286
2018    25      5       0.7459569       141.1448
2018    25      6       1.106692        178.96
2018    25      7       1.337404        196.4237
2018    26      0       1.218604        187.355
2018    26      1       1.085599        176.7834
2018    26      2       1.252997        190.16
2018    26      3       1.267404        191.0925
2018    26      4       0.9601979       163.2966
2018    26      5       0.8505198       151.5827
2018    26      6       0.9506269       162.18
2018    26      7       0.9869877       165.9966
2018    27      0       0.7418844       139.7263
2018    27      1       0.6461048       127.7254
2018    27      2       0.5541987       113.7858
2018    27      3       0.4934264       104.2143
2018    27      4       0.4628742       99.2096
2018    27      5       0.482443        103.2427
2018    27      6       0.6031147       121.953
2018    27      7       0.6895922       133.4753
2018    28      0       0.4434877       96.66247
2018    28      1       0.3163882       74.51153
2018    28      2       0.2931967       69.65209
2018    28      3       0.2845152       67.74904
2018    28      4       0.2942204       69.50633
2018    28      5       0.3473862       79.67928
2018    28      6       0.5498166       113.2331
2018    28      7       0.7834647       144.5607
2018    29      0       0.5454775       112.836
2018    29      1       0.4142726       92.08108
2018    29      2       0.4384105       96.50234
2018    29      3       0.495261        106.1923
2018    29      4       0.5802613       118.8289
2018    29      5       1.101147        177.112
2018    29      6       1.319037        194.6952
2018    29      7       1.420554        202.2519
2018    30      0       1.432821        203.0378
2018    30      1       1.356516        197.8618
2018    30      2       1.373029        198.9979
2018    30      3       1.227474        188.6977
2018    30      4       1.023281        171.3835
2018    30      5       1.008705        169.7756
2018    30      6       1.088322        176.5181
2018    30      7       0.9457126       163.0284
2018    31      0       0.5575601       115.5083
2018    31      1       0.4291021       95.43853
2018    31      2       0.3649913       84.13417
2018    31      3       0.3706617       85.1603
2018    31      4       0.4470735       98.18091
2018    31      5       0.494432        105.6472
2018    31      6       0.6680762       130.5725
2018    31      7       0.9398368       161.5898
