####################################################################################################
# Month: 09Sep                                                                                     #
# Station: LLA                                                                                     #
# Frequency: 345 GHz                                                                               #
# Columns are: year    day     tau     Tb (K)                                                      #
####################################################################################################
2009    1       0.26250668      63.57599625
2009    2       0.32654951      74.36883375
2009    3       0.12474178      35.40176875
2009    4       0.08349435      26.04525125
2009    5       0.10909573      32.1887
2009    6       0.15792354      42.70328375
2009    7       0.17097626      45.6288275
2009    8       0.15055143      41.62003625
2009    9       0.12769725      36.3574375
2009    10      0.07603328      24.39592125
2009    11      0.06958432      23.083985
2009    12      0.06686358      22.58142875
2009    13      0.05534212      19.85740875
2009    14      0.15412006      40.38572375
2009    15      0.34501489      78.9985575
2009    16      0.77329426      141.0659875
2009    17      0.4641192       95.66532375
2009    18      0.0614235       21.40205
2009    19      0.0749163       24.58847125
2009    20      0.06482415      22.0991225
2009    21      0.07087835      23.5786625
2009    22      0.10266032      30.9342725
2009    23      0.05697115      20.117065
2009    24      0.06853366      23.025995
2009    25      0.0723464       23.930595
2009    26      0.0964616       29.6338975
2009    27      0.09346263      29.07478
2009    28      0.07581107      24.8315125
2009    29      0.12172812      34.8873675
2009    30      0.15550392      42.841
2010    1       0.41080899      89.88417375
2010    2       0.46546731      98.63415125
2010    3       0.14961609      40.2942875
2010    4       0.0532924       19.169735
2010    5       0.05620546      19.9658875
2010    6       0.05556506      19.8051825
2010    7       0.09190688      28.50089625
2010    8       0.09067316      28.105115
2010    9       0.08278274      26.255705
2010    10      0.14558816      40.69599625
2010    11      0.08787535      27.28519625
2010    12      0.06196464      21.31751125
2010    13      0.05583715      19.75609125
2010    14      0.10247198      30.64449
2010    15      0.10621864      31.51388
2010    16      0.07722017      25.07007
2010    17      0.07583554      24.83152
2010    18      0.10895422      32.61931625
2010    19      0.14336964      40.0837525
2010    20      0.15639361      42.62502
2010    21      0.14745468      40.03729
2010    22      0.18796545      48.92901
2010    23      0.13380597      37.66963
2010    24      0.11112208      32.84397625
2010    25      0.09141588      28.42034375
2010    26      0.104667        31.49848875
2010    27      0.09188256      28.62915375
2010    28      0.11304703      33.36190625
2010    29      0.09674287      29.631605
2010    30      0.08994387      28.0914925
2011    1       0.075888        24.77145
2011    2       0.1857636       48.87313
2011    3       0.31081914      74.09805125
2011    4       0.22748848      57.298435
2011    5       0.08526745      26.84686
2011    6       0.08728195      27.27111375
2011    7       0.1081432       31.72303125
2011    8       0.0841217       26.244395
2011    9       0.1013842       30.3872175
2011    10      0.11963412      34.645385
2011    11      0.09367237      29.07135375
2011    12      0.07400756      24.39355
2011    13      0.23930241      60.01993125
2011    14      0.32375         75.3408225
2011    15      0.12360772      35.443325
2011    16      0.08338235      26.4399725
2011    17      0.15122603      41.8697525
2011    18      0.08381258      26.45675625
2011    19      0.09559724      29.1642125
2011    20      0.08820602      27.4868325
2011    21      0.06726468      22.53261125
2011    22      0.11681203      34.06461625
2011    23      0.12668434      35.80507875
2011    24      0.09874083      30.10666875
2011    25      0.17498079      46.9453
2011    26      0.18341968      49.11093625
2011    27      0.1453578       40.7529475
2011    28      0.27544252      66.6949875
2011    29      0.32869666      77.7663325
2011    30      0.45557605      98.59134125
2012    1       0.31468216      73.541735
2012    2       0.41446245      90.6601275
2012    3       0.29282162      69.404465
2012    4       0.11759396      33.8967025
2012    5       0.30397976      71.97601875
2012    6       0.11593773      34.029725
2012    7       0.122955        35.62308625
2012    8       0.12711988      36.58920125
2012    9       0.15999284      44.12479625
2012    10      0.07464759      24.4276025
2012    11      0.0744593       24.39088125
2012    12      0.14583019      40.43360125
2012    13      0.22966469      58.2515225
2012    14      0.28646419      68.6975075
2012    15      0.4210946       92.49641625
2012    16      0.38350346      86.01445625
2012    17      0.20582874      52.86062375
2012    18      0.10170337      30.6114575
2012    19      0.08732244      27.14884375
2012    20      0.11843994      34.24847625
2012    21      0.09209184      28.304395
2012    22      0.18364605      48.16648125
2012    23      0.12954714      36.78352375
2012    24      0.1176172       34.19861375
2012    25      0.10688612      31.810355
2012    26      0.11392785      33.6071525
2012    27      0.15830503      43.059485
2012    28      0.11667636      33.9336675
2012    29      0.10297541      30.93837625
2012    30      0.09816104      29.84357875
2013    1       0.12122759      34.90941
2013    2       0.12607316      35.8843925
2013    3       0.14237894      39.57726625
2013    4       0.17323655      46.02291
2013    5       0.12700655      36.01571875
2013    6       0.21181359      54.4467475
2013    7       0.33519316      78.0944875
2013    8       0.29585654      70.848095
2013    9       0.10185798      30.7281075
2013    10      0.06022111      20.999175
2013    11      0.08776334      27.3328275
2013    12      0.16738494      45.4914225
2013    13      0.51413044      107.78730375
2013    14      0.24518942      60.5971425
2013    15      0.15842804      43.03776625
2013    16      0.12184048      35.04488
2013    17      0.12690871      35.84991875
2013    18      0.1134736       32.97451875
2013    19      0.0818353       25.88677125
2013    20      0.09992671      30.08781125
2013    21      0.13516407      37.6904175
2013    22      0.09117713      28.03723
2013    23      0.10497899      31.69463875
2013    24      0.09163424      28.5710875
2013    25      0.1223923       35.40834
2013    26      0.25435259      62.574875
2013    27      0.51203836      106.3881975
2013    28      0.12977649      36.29182375
2013    29      0.12281955      35.18555125
2013    30      0.12155529      35.114905
2014    1       0.10500646      31.44383625
2014    2       0.1822883       48.0295975
2014    3       0.20616956      52.28229
2014    4       0.20132405      50.59468375
2014    5       0.1491894       40.746385
2014    6       0.10226837      30.43064
2014    7       0.09189443      28.4751025
2014    8       0.130624        37.09823125
2014    9       0.11377575      33.7695725
2014    10      0.0935591       29.19077
2014    11      0.10689504      32.29620125
2014    12      0.40789799      91.02171125
2014    13      0.44992621      94.5397375
2014    14      0.0906302       28.430075
2014    15      0.10232366      30.7414575
2014    16      0.11940368      34.71460125
2014    17      0.4614804       94.6415825
2014    18      0.43006465      87.98986125
2014    19      0.11758911      34.26539625
2014    20      0.09120643      28.25179125
2014    21      0.13186269      36.58515375
2014    22      0.09738318      29.49420125
2014    23      0.12934292      36.40594875
2014    24      0.10991238      32.56406375
2014    25      0.09690007      29.32574125
2014    26      0.11472702      33.4512675
2014    27      0.08332975      26.181655
2014    28      0.14995861      41.1761275
2014    29      0.14392408      39.63594375
2014    30      0.16073384      43.3669275
2015    1       0.07289574      24.2792275
2015    2       0.16796702      46.23610625
2015    3       0.3492123       81.597055
2015    4       0.20881914      54.33446625
2015    5       0.23047711      57.85532
2015    6       0.13095246      36.9547325
2015    7       0.09086842      28.17353875
2015    8       0.06771153      22.5556375
2015    9       0.097941        29.71214375
2015    10      0.08891883      27.77164625
2015    11      0.097716        29.75908625
2015    12      0.08147201      25.94055125
2015    13      0.09804191      29.74153625
2015    14      0.12637111      36.0838525
2015    15      0.14288344      39.95560625
2015    16      0.08687202      27.25760625
2015    17      0.1041366       31.24128625
2015    18      0.16374204      43.709685
2015    19      0.17561232      46.459895
2015    20      0.11128161      33.12917875
2015    21      0.1030792       31.21728625
2015    22      0.1066963       32.08822875
2015    23      0.1438017       40.82620125
2015    24      0.06927577      23.34464
2015    25      0.08165589      26.1577275
2015    26      0.08203242      26.171535
2015    27      0.10391148      31.04087125
2015    28      0.15448856      42.5904975
2015    29      0.21289288      54.89363625
2015    30      0.30932796      72.255515
2016    1       0.10120679      30.31388125
2016    2       0.09043965      27.65831625
2016    3       0.07961024      25.2444175
2016    4       0.07829224      24.95164625
2016    5       0.05411265      19.27036
2016    6       0.08935866      27.42513
2016    7       0.09299408      28.25653625
2016    8       0.10137345      30.42140125
2016    9       0.0754326       24.46313375
2016    10      0.06544147      22.27557625
2016    11      0.06601702      22.251195
2016    12      0.08519966      26.97049625
2016    13      0.09023018      28.14452625
2016    14      0.10373069      31.10788375
2016    15      0.11265263      32.9929475
2016    16      0.22264695      56.9997125
2016    17      0.10382923      31.4135825
2016    18      0.23166686      58.2567075
2016    19      0.35663984      81.20834625
2016    20      0.24089631      59.17439625
2016    21      0.11629671      34.11499875
2016    22      0.2307866       58.9309
2016    23      0.57197211      116.1794825
2016    24      0.21146833      50.660375
2016    25      0.12026825      35.01697875
2016    26      0.16413225      45.0623775
2016    27      0.34247849      79.8943375
2016    28      0.38441041      86.3285475
2016    29      0.24981298      61.8152625
2016    30      0.13527598      37.4032725
2017    1       0.19155976      51.1004675
2017    2       0.23800556      60.128725
2017    3       0.50926275      105.9424175
2017    4       0.63438276      123.14312875
2017    5       0.1271862       34.9917925
2017    6       0.07789565      25.22380875
2017    7       0.16166001      43.57690625
2017    8       0.08664166      27.0128125
2017    9       0.09437551      28.92818
2017    10      0.05387505      19.40825125
2017    11      0.0565236       20.07553625
2017    12      0.16311294      42.69648375
2017    13      0.20059066      51.5008575
2017    14      0.05605523      19.69670625
2017    15      0.14656989      39.667395
2017    16      0.10970846      31.84207625
2017    17      0.10727896      32.05587375
2017    18      0.08671816      27.4977375
2017    19      0.08983628      28.41620875
2017    20      0.16222319      44.13619375
2017    21      0.29934719      72.141625
2017    22      0.11671738      33.9712275
2017    23      0.10410502      31.02184625
2017    24      0.11422646      33.5015825
2017    25      0.17306314      45.31215375
2017    26      0.28501675      66.003895
2017    27      0.34309546      78.37401125
2017    28      0.22031275      55.0691075
2017    29      0.21837471      55.03558625
2017    30      0.20917349      53.63553875
2018    1       0.08963377      27.75735
2018    2       0.06428954      21.8311725
2018    3       0.07605676      24.72658
2018    4       0.07837673      25.44151125
2018    5       0.06647826      22.58409625
2018    6       0.06764637      23.01063
2018    7       0.09286591      29.060645
2018    8       0.17355721      47.004085
2018    9       0.33826601      78.644635
2018    10      0.4477317       95.48674625
2018    11      0.18732136      47.24648
2018    12      0.11566178      33.72756125
2018    13      0.13027886      37.04404
2018    14      0.08594463      26.68581125
2018    15      0.11366692      32.99880375
2018    16      0.09524784      28.93960375
2018    17      0.09975336      30.0915875
2018    18      0.09538637      28.91613125
2018    19      0.11700374      33.7526125
2018    20      0.11327099      33.26571375
2018    21      0.07880041      25.6272625
2018    22      0.0802446       25.82461125
2018    23      0.12973081      36.04170625
2018    24      0.55113328      112.3438725
2018    25      0.17266051      45.59606
2018    26      0.1237615       35.63970125
2018    27      0.15855958      42.8676625
2018    28      0.19265148      50.65639
2018    29      0.1634875       44.16642625
2018    30      0.12400921      35.78711125
