####################################################################################################
# Month: 11Nov                                                                                     #
# Station: KVNYS                                                                                   #
# Frequency: 230 GHz                                                                               #
# Columns are: year    day     segment         tau     Tb (K)                                      #
####################################################################################################
2009    1       0       0.835974        155.2577
2009    1       1       1.090558        180.9931
2009    1       2       0.9699898       169.2252
2009    1       3       0.9122483       162.4487
2009    1       4       0.9725825       167.8461
2009    1       5       1.214763        188.4812
2009    1       6       0.9068617       159.0209
2009    1       7       0.5252012       109.5452
2009    2       0       0.2888075       68.67875
2009    2       1       0.2408355       59.19539
2009    2       2       0.2223452       55.60558
2009    2       3       0.2070283       52.49803
2009    2       4       0.1842717       47.79899
2009    2       5       0.1748629       45.8064
2009    2       6       0.2297211       57.62006
2009    2       7       0.4632702       101.317
2009    3       0       0.6238792       126.8018
2009    3       1       0.8197521       152.7919
2009    3       2       1.519446        212.852
2009    3       3       1.031864        176.3915
2009    3       4       0.7002403       139.0948
2009    3       5       0.8552755       158.7815
2009    3       6       1.102422        183.972
2009    3       7       1.026856        176.4112
2009    4       0       1.203246        192.3229
2009    4       1       1.250116        196.6464
2009    4       2       1.385207        206.78
2009    4       3       1.130936        187.6792
2009    4       4       1.164428        190.9124
2009    4       5       2.000949        239.306
2009    4       6       1.886918        234.7273
2009    4       7       1.364821        206.2267
2009    5       0       1.094951        184.7269
2009    5       1       1.253729        198.3496
2009    5       2       1.024089        178.7541
2009    5       3       0.8536274       160.8584
2009    5       4       0.6166624       130.017
2009    5       5       0.7978415       154.4374
2009    5       6       1.598061        222.2322
2009    5       7       1.531593        218.2139
2009    6       0       1.16882         192.1126
2009    6       1       1.379335        208.4263
2009    6       2       1.424949        212.1742
2009    6       3       1.290336        202.5651
2009    6       4       0.9787113       175.0138
2009    6       5       1.011709        178.2474
2009    6       6       1.501965        216.7632
2009    6       7       1.59853         222.5842
2009    7       0       1.408398        211.0219
2009    7       1       2.330735        252.9263
2009    7       2       2.047298        244.6565
2009    7       3       2.855072        266.0665
2009    7       4       2.400396        256.919
2009    7       5       2.218769        251.5857
2009    7       6       2.453035        256.6993
2009    7       7       2.615237        259.6592
2009    8       0       2.435025        255.2736
2009    8       1       2.388932        253.1794
2009    8       2       1.993457        241.8393
2009    8       3       1.820386        235.391
2009    8       4       1.665851        227.9885
2009    8       5       1.646286        226.8832
2009    8       6       1.74649         231.5614
2009    8       7       1.829495        234.8343
2009    9       0       1.756044        231.159
2009    9       1       1.653572        225.152
2009    9       2       1.65709         225.1907
2009    9       3       1.544551        217.5838
2009    9       4       1.415534        209.4656
2009    9       5       1.291128        200.6863
2009    9       6       1.218623        195.0068
2009    9       7       1.224735        194.6639
2009    10      0       1.499097        213.8253
2009    10      1       1.310387        200.8337
2009    10      2       1.210807        193.1927
2009    10      3       0.9939404       173.5032
2009    10      4       0.8250217       155.1043
2009    10      5       1.077082        181.4505
2009    10      6       0.8519445       158.0525
2009    10      7       0.7927499       150.3631
2009    11      0       0.7272958       141.3718
2009    11      1       0.7628465       145.9941
2009    11      2       0.7558466       144.8799
2009    11      3       0.7753573       146.1703
2009    11      4       0.7890788       147.5367
2009    11      5       0.8016606       150.0813
2009    11      6       0.7696136       146.2752
2009    11      7       0.8657678       157.3768
2009    12      0       3.104551        258.7897
2009    12      1       0.8701858       158.632
2009    12      2       0.9630317       168.4307
2009    12      3       1.013404        172.8822
2009    12      4       1.099811        180.8257
2009    12      5       1.246725        193.0487
2009    12      6       1.396526        203.6914
2009    12      7       1.49998         210.9353
2009    13      0       1.522753        212.7027
2009    13      1       1.509424        212.134
2009    13      2       1.281432        198.2892
2009    13      3       1.17046         190.0999
2009    13      4       1.201087        192.3123
2009    13      5       1.530466        214.2999
2009    13      6       1.558538        214.7874
2009    13      7       1.405298        204.4132
2009    14      0       0.9933975       169.7403
2009    14      1       0.5018168       107.1446
2009    14      2       0.437648        97.04095
2009    14      3       0.449191        97.74345
2009    14      4       0.4243756       93.55122
2009    14      5       0.4193295       92.46433
2009    14      6       0.3616684       82.34186
2009    14      7       0.3418803       78.69091
2009    15      0       0.3281119       76.03264
2009    15      1       0.3482496       79.76131
2009    15      2       0.3379899       77.94726
2009    15      3       0.3168682       74.08485
2009    15      4       0.297619        70.40934
2009    15      5       0.2811791       67.42277
2009    15      6       0.2584788       64.28501
2009    15      7       0.2717759       66.89627
2009    16      0       0.2740566       66.86622
2009    16      1       0.3178671       74.34462
2009    16      2       0.3166459       74.40179
2009    16      3       0.3396739       78.17079
2009    16      4       0.3396965       77.64978
2009    16      5       0.4117834       89.99189
2009    16      6       0.3630877       81.32454
2009    16      7       0.3316666       75.57631
2009    17      0       0.2865609       67.13153
2009    17      1       0.2422503       58.97201
2009    17      2       0.2388715       58.91104
2009    17      3       0.2376259       58.7041
2009    17      4       0.2281464       56.87694
2009    17      5       0.1975431       50.70087
2009    17      6       0.1864571       48.49088
2009    17      7       0.158145        42.4489
2009    18      0       0.125368        35.19182
2009    18      1       0.1950903       50.44511
2009    18      2       0.2691538       65.68798
2009    18      3       0.3419446       79.47205
2009    18      4       0.415913        92.85112
2009    18      5       0.4611098       100.627
2009    18      6       0.8522118       154.267
2009    18      7       0.7430657       141.4721
2009    19      0       0.4874956       105.3224
2009    19      1       0.3844756       87.75448
2009    19      2       0.3028166       72.46486
2009    19      3       0.2639683       64.66811
2009    19      4       0.1887958       49.13544
2009    19      5       0.1886662       48.8103
2009    19      6       0.2618645       63.53645
2009    19      7       0.3699123       83.57536
2009    20      0       0.5144373       107.0908
2009    20      1       0.6092558       121.278
2009    20      2       0.5369643       111.7016
2009    20      3       0.6024984       121.9039
2009    20      4       1.0504          173.0628
2009    20      5       0.3382553       78.48835
2009    20      6       0.1171734       33.18698
2009    20      7       0.137669        37.82224
2009    21      0       0.1212021       34.15147
2009    21      1       0.1814314       47.51039
2009    21      2       0.2625001       64.28135
2009    21      3       0.309011        73.28632
2009    21      4       0.3571671       82.34833
2009    21      5       0.3919791       88.66468
2009    21      6       0.4661453       101.3674
2009    21      7       0.5417584       113.4733
2009    22      0       0.5727963       118.3815
2009    22      1       0.6316829       126.8878
2009    22      2       0.9860391       168.279
2009    22      3       0.8959764       159.6176
2009    22      4       0.7369006       141.755
2009    22      5       0.7473151       143.4434
2009    22      6       0.8195316       152.5292
2009    22      7       0.7256517       141.3771
2009    23      0       0.6969203       137.8683
2009    23      1       0.7445921       144.243
2009    23      2       0.7658941       147.2229
2009    23      3       0.7837914       149.5884
2009    23      4       0.7940329       150.9155
2009    23      5       0.8519332       157.6098
2009    23      6       0.983257        171.5613
2009    23      7       1.23764         193.9497
2009    24      0       1.13211         184.9976
2009    24      1       0.8188689       153.4
2009    24      2       0.8270599       154.3598
2009    24      3       0.8294938       154.3717
2009    24      4       0.7701543       147.1131
2009    24      5       0.7266988       141.874
2009    24      6       0.7815213       148.5724
2009    24      7       0.8854442       160.2092
2009    25      0       0.9760727       169.5788
2009    25      1       1.021685        174.5718
2009    25      2       1.391773        205.0423
2009    25      3       1.667215        221.3861
2009    25      4       1.374173        204.4561
2009    25      5       1.04263         177.9952
2009    25      6       0.8859833       161.5143
2009    25      7       0.9162646       164.4298
2009    26      0       0.9465644       167.7608
2009    26      1       0.9136649       164.4059
2009    26      2       1.041746        177.1754
2009    26      3       1.020523        175.3477
2009    26      4       1.081094        180.8118
2009    26      5       1.151929        186.3064
2009    26      6       1.326551        199.1775
2009    26      7       1.021964        173.8642
2009    27      0       0.7967998       149.6506
2009    27      1       0.7126315       138.7721
2009    27      2       0.6965406       136.8618
2009    27      3       0.6855493       135.1848
2009    27      4       0.6532284       130.7283
2009    27      5       0.6635919       132.0062
2009    27      6       0.7154723       138.8511
2009    27      7       0.9582003       167.2339
2009    28      0       1.051483        177.0653
2009    28      1       1.098617        181.3272
2009    28      2       1.057757        177.953
2009    28      3       0.8620759       157.8325
2009    28      4       0.8512588       156.2977
2009    28      5       0.9080987       162.0507
2009    28      6       1.131266        182.8577
2009    28      7       1.258064        192.6647
2009    29      0       1.586659        214.0342
2009    29      1       1.580121        213.23
2009    29      2       1.894679        228.3388
2009    29      3       1.57903         213.6245
2009    29      4       1.260152        193.0142
2009    29      5       1.18934         187.5802
2009    29      6       1.343628        198.9312
2009    29      7       1.089838        178.7334
2009    30      0       0.6318214       127.3312
2009    30      1       0.6030962       123.1503
2009    30      2       0.5839948       120.7132
2009    30      3       0.6096195       124.7509
2009    30      4       0.6171308       126.1097
2009    30      5       0.6483863       130.5897
2009    30      6       0.6072381       124.4862
2009    30      7       0.5434356       114.7707
2010    1       0       0.5570409       118.5021
2010    1       1       0.6307077       129.5968
2010    1       2       0.8559729       158.4902
2010    1       3       0.6851583       136.5365
2010    1       4       0.4861295       106.8552
2010    1       5       0.4441994       99.76323
2010    1       6       0.3298606       78.70978
2010    1       7       0.1741788       46.54091
2010    2       0       0.1378958       38.15886
2010    2       1       0.2653756       65.30002
2010    2       2       0.3324982       78.28771
2010    2       3       0.3304866       77.9128
2010    2       4       0.2791301       68.23103
2010    2       5       0.2770425       67.90174
2010    2       6       0.3641897       84.46
2010    2       7       0.3788285       87.48719
2010    3       0       0.3629922       84.92766
2010    3       1       0.5168922       111.379
2010    3       2       0.6677723       134.0783
2010    3       3       0.8131402       152.8951
2010    3       4       0.8402262       156.2698
2010    3       5       0.8085536       152.5139
2010    3       6       0.9038793       163.2786
2010    3       7       1.128786        185.4691
2010    4       0       1.047078        178.2055
2010    4       1       0.907581        164.1312
2010    4       2       0.8516009       158.2523
2010    4       3       0.8546846       158.9964
2010    4       4       0.9184684       165.9511
2010    4       5       0.9632731       170.3929
2010    4       6       0.9115375       164.7245
2010    4       7       0.7285094       143.2189
2010    5       0       0.6935588       138.9288
2010    5       1       0.8699104       160.877
2010    5       2       1.222473        195.0589
2010    5       3       1.206696        194.3541
2010    5       4       1.129614        188.0335
2010    5       5       0.9189253       167.3826
2010    5       6       0.7535796       147.8142
2010    5       7       0.9415911       169.7754
2010    6       0       1.046134        180.3771
2010    6       1       1.175414        192.0377
2010    6       2       1.115103        186.6148
2010    6       3       0.8683901       161.0816
2010    6       4       0.6264443       129.7263
2010    6       5       0.5561717       119.1699
2010    6       6       0.6880157       138.5641
2010    6       7       1.633749        222.0153
2010    7       0       1.395779        207.3962
2010    7       1       1.408992        207.9883
2010    7       2       1.335498        202.946
2010    7       3       1.201948        192.4513
2010    7       4       1.238147        194.6694
2010    7       5       1.815348        228.6422
2010    7       6       1.89093         231.4886
2010    7       7       1.959936        232.3379
2010    8       0       1.091839        179.7296
2010    8       1       0.7772641       147.218
2010    8       2       0.6506465       130.5336
2010    8       3       0.6134347       123.7964
2010    8       4       0.6226882       123.766
2010    8       5       0.5360991       111.0705
2010    8       6       0.4283997       94.20476
2010    8       7       0.36664         83.73179
2010    9       0       0.2920975       70.23278
2010    9       1       0.3343619       78.60419
2010    9       2       0.3801886       87.16471
2010    9       3       0.4044691       91.46871
2010    9       4       0.3870349       88.32907
2010    9       5       0.3498752       81.40937
2010    9       6       0.3109782       73.88596
2010    9       7       0.2840668       68.7976
2010    10      0       0.2489163       62.1182
2010    10      1       0.3083115       74.18797
2010    10      2       0.4066399       92.59734
2010    10      3       0.4502987       99.9393
2010    10      4       0.5033553       109.0221
2010    10      5       0.6305149       128.4627
2010    10      6       0.7348484       142.4934
2010    10      7       0.7498128       144.7747
2010    11      0       0.7034531       138.8575
2010    11      1       0.8272402       153.4253
2010    11      2       1.475547        209.6544
2010    11      3       1.877019        230.6137
2010    11      4       0.4613051       102.0934
2010    11      5       0.7448          143.0173
2010    11      6       0.6056996       123.097
2010    11      7       0.5836879       119.9808
2010    12      0       0.6693017       133.3132
2010    12      1       0.6772553       134.6534
2010    12      2       0.6678613       133.5651
2010    12      3       0.674962        134.5329
2010    12      4       0.604685        125.0515
2010    12      5       0.5758895       120.586
2010    12      6       0.6705519       133.5624
2010    12      7       0.606921        124.4485
2010    13      0       0.4242276       95.8678
2010    13      1       0.3808705       88.627
2010    13      2       0.5828751       121.8946
2010    13      3       1.529615        215.4016
2010    13      4       2.210722        244.704
2010    13      5       0.6017361       125.023
2010    13      6       0.2230426       57.25235
2010    13      7       0.1541492       41.73186
2010    14      0       0.1819859       47.40422
2010    14      1       0.317369        73.71812
2010    14      2       0.4709096       100.571
2010    14      3       0.3890593       86.78543
2010    14      4       0.4142442       91.25987
2010    14      5       0.273129        65.97607
2010    14      6       0.1458219       39.66518
2010    14      7       0.1552761       41.76573
2010    15      0       0.146576        39.97566
2010    15      1       0.2344114       58.79824
2010    15      2       0.2801218       68.17363
2010    15      3       0.2737782       67.0208
2010    15      4       0.2424898       60.73604
2010    15      5       0.2697958       66.21355
2010    15      6       0.3830384       87.44669
2010    15      7       0.4994714       107.1745
2010    16      0       0.6066207       123.7265
2010    16      1       0.6345355       127.7734
2010    16      2       0.7445287       142.5739
2010    16      3       0.7179022       139.0385
2010    16      4       0.603313        123.3732
2010    16      5       0.4989116       107.7783
2010    16      6       0.5315754       112.9225
2010    16      7       0.6392621       128.8584
2010    17      0       0.630679        127.8635
2010    17      1       0.6080059       124.5972
2010    17      2       0.6508789       130.6279
2010    17      3       0.6186229       126.2325
2010    17      4       0.4849764       106.2455
2010    17      5       0.4104022       93.88538
2010    17      6       0.3879776       89.96702
2010    17      7       0.3747113       87.60568
2010    18      0       0.3981282       91.91081
2010    18      1       0.5038321       109.6666
2010    18      2       0.5528255       117.374
2010    18      3       0.5715858       120.1471
2010    18      4       0.5423426       115.7637
2010    18      5       0.4729504       104.6837
2010    18      6       0.4766166       105.0833
2010    18      7       0.5484008       116.1661
2010    19      0       0.5669158       118.6838
2010    19      1       0.6000318       123.0826
2010    19      2       0.7545321       142.6607
2010    19      3       0.6752009       133.6146
2010    19      4       0.583314        121.8971
2010    19      5       0.7398916       143.7376
2010    19      6       1.055047        178.6173
2010    19      7       1.419922        207.0416
2010    20      0       1.356306        203.0484
2010    20      1       1.028011        176.5102
2010    20      2       1.025432        176.3023
2010    20      3       1.059462        179.5986
2010    20      4       1.029671        177.0757
2010    20      5       1.070983        181.1534
2010    20      6       1.193377        191.718
2010    20      7       1.216478        193.6731
2010    21      0       1.077483        181.6958
2010    21      1       1.104593        183.9041
2010    21      2       1.103661        184.3009
2010    21      3       1.029787        177.5133
2010    21      4       2.006294        238.5422
2010    21      5       2.959281        262.0856
2010    21      6       1.052694        178.0082
2010    21      7       0.2573506       64.80455
2010    22      0       0.1783369       47.9376
2010    22      1       0.2462142       62.33569
2010    22      2       0.2867394       70.52027
2010    22      3       0.2885631       70.80992
2010    22      4       0.2324735       59.49119
2010    22      5       0.2069074       54.12028
2010    22      6       0.2166553       56.23264
2010    22      7       0.2862033       70.3693
2010    23      0       0.3463563       81.92891
2010    23      1       0.4628111       102.3533
2010    23      2       0.604249        124.3864
2010    23      3       0.6810514       135.2535
2010    23      4       0.7523995       144.202
2010    23      5       0.7710693       146.5096
2010    23      6       0.730588        141.4114
2010    23      7       0.607646        124.9021
2010    24      0       0.5950581       122.7994
2010    24      1       0.7211651       139.0112
2010    24      2       0.7742506       145.3426
2010    24      3       0.6895744       135.6532
2010    24      4       0.6740744       133.9836
2010    24      5       0.8815127       159.5115
2010    24      6       0.8159619       151.6706
2010    24      7       0.2448216       61.4089
2010    25      0       0.1585591       42.63689
2010    25      1       0.2204192       55.74465
2010    25      2       0.2707887       65.90103
2010    25      3       0.2237179       56.38552
2010    25      4       0.1888224       49.15076
2010    25      5       0.2235964       56.53627
2010    25      6       0.1436893       39.23896
2010    25      7       0.08607356      25.59036
2010    26      0       0.1156686       32.38988
2010    26      1       0.1832838       47.72102
2010    26      2       0.2183784       55.47034
2010    26      3       0.1857444       48.42362
2010    26      4       0.1375927       37.78326
2010    26      5       0.1868999       48.15124
2010    26      6       0.3488697       80.06552
2010    26      7       0.5250376       110.5566
2010    27      0       1.164295        183.9713
2010    27      1       1.242514        191.1038
2010    27      2       0.3885837       88.47958
2010    27      3       0.2819051       68.18373
2010    27      4       0.2648534       64.50403
2010    27      5       0.230473        58.96546
2010    27      6       0.2146507       53.87454
2010    27      7       0.1505868       40.04024
2010    28      0       0.1472205       39.26304
2010    28      1       0.2475212       60.24078
2010    28      2       0.3377215       77.74057
2010    28      3       0.4519471       97.7277
2010    28      4       1.060552        173.6448
2010    28      5       1.144498        181.2947
2010    28      6       0.3840811       86.5035
2010    28      7       0.125751        34.83432
2010    29      0       0.1682152       44.27526
2010    29      1       0.261601        63.71576
2010    29      2       0.3294424       77.01334
2010    29      3       0.3654791       84.06343
2010    29      4       0.560577        116.5742
2010    29      5       1.639538        217.3735
2010    29      6       1.956409        233.1007
2010    29      7       1.392087        204.1423
2010    30      0       1.460759        208.696
2010    30      1       0.6611287       132.7986
2010    30      2       0.4872043       107.0568
2010    30      3       0.4180054       95.35169
2010    30      4       0.3707161       87.05836
2010    30      5       0.3448655       82.69091
2010    30      6       0.3409348       82.1246
2010    30      7       0.4936977       109.335
2011    1       0       0.6818488       139.7144
2011    1       1       0.8250604       158.2947
2011    1       2       0.9369212       171.7233
2011    1       3       1.032189        181.9836
2011    1       4       1.226489        199.315
2011    1       5       1.300962        205.058
2011    1       6       1.213892        197.9101
2011    1       7       1.026141        179.7946
2011    2       0       0.9321783       169.2422
2011    2       1       1.059153        182.0397
2011    2       2       1.035584        180.1028
2011    2       3       0.9961042       176.1545
2011    2       4       0.9557505       172.0333
2011    2       5       0.9680691       173.437
2011    2       6       1.029744        179.6624
2011    2       7       1.064237        183.3603
2011    3       0       1.160722        192.3582
2011    3       1       1.278522        202.0034
2011    3       2       1.346812        207.9852
2011    3       3       1.416464        212.9465
2011    3       4       1.606106        225.051
2011    3       5       2.275493        253.2184
2011    3       6       2.385386        256.0128
2011    3       7       2.33454         254.0284
2011    4       0       2.492455        258.5045
2011    4       1       2.714416        263.4432
2011    4       2       2.749411        264.3156
2011    4       3       2.450104        258.2056
2011    4       4       2.336846        254.9166
2011    4       5       2.255469        252.4437
2011    4       6       2.235492        251.868
2011    4       7       2.325527        254.2026
2011    5       0       2.349314        254.9866
2011    5       1       2.355512        255.1548
2011    5       2       2.435739        258.1285
2011    5       3       2.375339        255.9788
2011    5       4       2.260656        251.3588
2011    5       5       2.267882        250.8087
2011    5       6       2.162107        245.8853
2011    5       7       1.974289        237.9245
2011    6       0       1.776111        228.5912
2011    6       1       1.638426        222.0407
2011    6       2       1.483903        213.9261
2011    6       3       1.342269        204.6428
2011    6       4       1.190921        194.3467
2011    6       5       1.19246         195.0036
2011    6       6       1.221682        197.1509
2011    6       7       1.227528        197.3703
2011    7       0       1.257148        199.2297
2011    7       1       1.419342        210.3258
2011    7       2       1.478915        214.4023
2011    7       3       1.340237        205.4623
2011    7       4       1.163611        191.8376
2011    7       5       1.185538        193.5312
2011    7       6       1.244855        198.0184
2011    7       7       1.395774        208.8218
2011    8       0       1.39005         208.1418
2011    8       1       1.547862        217.5813
2011    8       2       1.597118        220.2092
2011    8       3       1.407243        208.5964
2011    8       4       1.332758        202.8976
2011    8       5       1.28954         199.3974
2011    8       6       1.251447        196.2744
2011    8       7       1.227522        194.2681
2011    9       0       1.224861        193.9753
2011    9       1       1.283169        198.256
2011    9       2       1.38102         205.3671
2011    9       3       1.263906        197.0263
2011    9       4       1.209845        193.0769
2011    9       5       1.179303        190.6692
2011    9       6       1.152032        188.3487
2011    9       7       1.107926        184.504
2011    10      0       1.059959        180.1141
2011    10      1       1.158868        189.1019
2011    10      2       1.310722        200.9516
2011    10      3       1.365611        204.6505
2011    10      4       1.337974        202.8854
2011    10      5       1.236323        195.3771
2011    10      6       1.304258        199.8819
2011    10      7       1.419128        207.6548
2011    11      0       1.306689        200.3546
2011    11      1       1.250828        196.2997
2011    11      2       1.515518        214.7724
2011    11      3       1.520428        216.5676
2011    11      4       1.079238        184.094
2011    11      5       0.9753007       173.9942
2011    11      6       0.8926651       164.7705
2011    11      7       0.8276327       156.5215
2011    12      0       1.00319         174.6217
2011    12      1       1.025053        177.5504
2011    12      2       0.8804662       162.6643
2011    12      3       0.9582317       170.9696
2011    12      4       1.073269        182.235
2011    12      5       1.16733         189.5907
2011    12      6       1.163749        189.6526
2011    12      7       1.049161        179.1608
2011    13      0       0.8576866       158.3272
2011    13      1       0.678121        135.8979
2011    13      2       0.6438117       131.9654
2011    13      3       0.6151343       127.4147
2011    13      4       0.3803427       88.70163
2011    13      5       0.3762816       87.7425
2011    13      6       0.3178081       76.58617
2011    13      7       0.2524022       63.22877
2011    14      0       0.2043262       52.83569
2011    14      1       0.2273374       57.56148
2011    14      2       0.3596907       83.67519
2011    14      3       0.3142552       75.25245
2011    14      4       0.2811428       68.93906
2011    14      5       0.3682368       85.80824
2011    14      6       0.5627001       118.0722
2011    14      7       0.5084293       109.3626
2011    15      0       0.4337975       97.3255
2011    15      1       0.5804527       120.9882
2011    15      2       0.6844695       136.1981
2011    15      3       0.7142456       140.2864
2011    15      4       0.7397213       143.4713
2011    15      5       0.7933668       150.0953
2011    15      6       0.8591          157.7697
2011    15      7       0.940985        166.9614
2011    16      0       0.9558068       169.4364
2011    16      1       1.009884        175.3683
2011    16      2       1.051675        180.2107
2011    16      3       1.081715        182.9201
2011    16      4       1.086339        182.3236
2011    16      5       1.139885        186.5889
2011    16      6       1.20359         191.4024
2011    16      7       1.27043         196.4221
2011    17      0       1.105277        183.8612
2011    17      1       1.145918        187.8339
2011    17      2       1.251281        196.8526
2011    17      3       1.397167        206.9337
2011    17      4       1.416695        208.6851
2011    17      5       1.55298         217.2076
2011    17      6       1.463534        212.2526
2011    17      7       1.726039        227.4479
2011    18      0       1.727933        229.0331
2011    18      1       1.935348        238.7161
2011    18      2       2.972525        266.9183
2011    18      3       2.492133        258.4241
2011    18      4       3.174039        270.8037
2011    18      5       2.866275        265.5775
2011    18      6       2.737411        262.2992
2011    18      7       1.744582        229.8872
2011    19      0       1.142475        188.9878
2011    19      1       1.02608         177.5263
2011    19      2       0.8541467       158.5348
2011    19      3       0.5957117       123.8646
2011    19      4       0.338452        80.40141
2011    19      5       0.2043798       53.10382
2011    19      6       0.1511449       41.19084
2011    19      7       0.1087551       31.37694
2011    20      0       0.1430496       39.0708
2011    20      1       0.2703614       65.69985
2011    20      2       0.2910221       69.85679
2011    20      3       0.2920624       69.78067
2011    20      4       0.2883795       69.01034
2011    20      5       0.2558062       62.54302
2011    20      6       0.1976015       50.51785
2011    20      7       0.1848299       47.95093
2011    21      0       0.2271829       57.10027
2011    21      1       0.3459339       80.35244
2011    21      2       0.4225859       94.38643
2011    21      3       0.4627651       101.419
2011    21      4       0.5425872       114.2785
2011    21      5       0.6149901       125.0584
2011    21      6       0.7581014       144.2888
2011    21      7       0.843519        154.5228
2011    22      0       0.7823925       147.0533
2011    22      1       0.8118872       150.2183
2011    22      2       0.9762704       167.105
2011    22      3       0.9847869       167.6289
2011    22      4       0.8282389       151.3333
2011    22      5       0.7716201       145.3173
2011    22      6       1.388734        202.3719
2011    22      7       1.413534        203.4206
2011    23      0       0.6865784       133.7247
2011    23      1       0.577647        117.7357
2011    23      2       0.4566732       98.82162
2011    23      3       0.3450068       79.22302
2011    23      4       0.2265273       56.17911
2011    23      5       0.1548323       41.11898
2011    23      6       0.1371011       37.38935
2011    23      7       0.1430125       38.72708
2011    24      0       0.1411821       38.26348
2011    24      1       0.2296121       56.87732
2011    24      2       0.3127896       73.41956
2011    24      3       0.3666324       83.29026
2011    24      4       0.402898        90.01343
2011    24      5       0.437814        96.44793
2011    24      6       0.4978257       106.5064
2011    24      7       0.6588807       130.1863
2011    25      0       0.5185361       110.2533
2011    25      1       0.4800787       104.2815
2011    25      2       0.4748547       103.643
2011    25      3       0.3865889       88.71103
2011    25      4       0.3758273       86.8302
2011    25      5       0.4948788       106.875
2011    25      6       0.722493        139.476
2011    25      7       0.9354981       165.0145
2011    26      0       1.230584        192.8805
2011    26      1       1.476699        210.8577
2011    26      2       1.328034        201.5642
2011    26      3       1.376477        205.7783
2011    26      4       1.424236        209.2797
2011    26      5       1.458054        211.5849
2011    26      6       1.795761        229.9511
2011    26      7       2.384247        251.0457
2011    27      0       3.005676        263.6549
2011    27      1       3.149074        265.9178
2011    27      2       2.610512        257.0056
2011    27      3       2.182733        246.095
2011    27      4       2.76523         260.2012
2011    27      5       2.421051        253.1194
2011    27      6       2.077203        243.2889
2011    27      7       2.678665        259.6065
2011    28      0       2.687427        259.8299
2011    28      1       2.568352        257.34
2011    28      2       2.367309        252.5155
2011    28      3       2.170032        246.7501
2011    28      4       1.884605        235.8116
2011    28      5       1.748026        229.4887
2011    28      6       2.022717        240.1862
2011    28      7       1.918295        235.1927
2011    29      0       1.826755        230.03
2011    29      1       1.664355        221.9504
2011    29      2       1.334595        201.898
2011    29      3       1.292924        198.7956
2011    29      4       1.07106         179.7873
2011    29      5       1.187359        188.5179
2011    29      6       1.258801        193.1421
2011    29      7       1.160377        184.802
2011    30      0       1.065298        175.9216
2011    30      1       0.9724632       166.6382
2011    30      2       0.8109259       149.1445
2011    30      3       0.5878218       120.944
2011    30      4       0.5025552       108.2392
2011    30      5       0.4825782       104.9912
2011    30      6       0.5472947       114.8915
2011    30      7       0.4427503       98.27855
2012    1       0       0.2831856       68.55268
2012    1       1       0.3634842       83.91158
2012    1       2       0.3841192       88.25109
2012    1       3       0.4055048       92.36715
2012    1       4       0.3531285       82.89285
2012    1       5       0.2670607       66.38883
2012    1       6       0.7387458       142.7534
2012    1       7       0.2583398       64.63395
2012    2       0       0.2841151       69.784
2012    2       1       0.3732642       86.73293
2012    2       2       0.5052244       109.6262
2012    2       3       0.5483931       116.3156
2012    2       4       0.5068884       109.8074
2012    2       5       0.5031937       109.2476
2012    2       6       0.5325369       113.7663
2012    2       7       0.5723611       119.9745
2012    3       0       0.5987107       124.3473
2012    3       1       0.6504647       132.033
2012    3       2       0.749368        145.259
2012    3       3       0.743137        145.2252
2012    3       4       0.6721337       136.0409
2012    3       5       0.678764        136.392
2012    3       6       0.8266241       154.4658
2012    3       7       0.7994197       151.1028
2012    4       0       0.923783        164.1578
2012    4       1       1.249833        194.316
2012    4       2       1.282154        198.3949
2012    4       3       1.369072        204.6674
2012    4       4       1.472841        211.7067
2012    4       5       1.427375        208.4979
2012    4       6       1.043795        177.7811
2012    4       7       0.9092058       163.9652
2012    5       0       0.9755881       170.1607
2012    5       1       1.348832        200.5115
2012    5       2       1.000596        171.7174
2012    5       3       0.9200708       163.56
2012    5       4       0.9403371       165.3792
2012    5       5       1.179085        186.8916
2012    5       6       1.919326        230.3077
2012    5       7       2.231278        241.3585
2012    6       0       1.193111        188.0794
2012    6       1       1.242422        192.1986
2012    6       2       1.110576        181.4769
2012    6       3       0.8974003       160.5599
2012    6       4       0.813146        151.7131
2012    6       5       0.7654657       146.3471
2012    6       6       0.7622429       145.661
2012    6       7       0.833624        154.0677
2012    7       0       0.6665938       133.6368
2012    7       1       0.7567085       145.668
2012    7       2       0.914827        164.761
2012    7       3       0.9291769       166.3679
2012    7       4       0.7796947       149.2334
2012    7       5       0.7049883       139.7215
2012    7       6       0.8114402       153.0033
2012    7       7       0.9687012       169.3676
2012    8       0       1.02274         173.3561
2012    8       1       0.8791859       159.2718
2012    8       2       0.7471722       145.1678
2012    8       3       0.6085074       126.6636
2012    8       4       0.5232282       113.6112
2012    8       5       0.5192058       113.0229
2012    8       6       0.5494689       117.7233
2012    8       7       0.615542        127.3512
2012    9       0       0.7041226       139.6023
2012    9       1       0.8544743       158.3328
2012    9       2       0.90847         165.0769
2012    9       3       0.9364527       168.5159
2012    9       4       0.9453991       169.5971
2012    9       5       0.8974085       164.5046
2012    9       6       0.8509644       158.9051
2012    9       7       0.7560085       147.0907
2012    10      0       0.6841957       137.3718
2012    10      1       0.9261079       165.8456
2012    10      2       1.049555        178.7261
2012    10      3       1.127349        185.7647
2012    10      4       1.331413        201.8242
2012    10      5       1.595884        218.0625
2012    10      6       1.820597        229.0124
2012    10      7       1.625785        220.2376
2012    11      0       1.283467        199.7259
2012    11      1       2.17169         244.7057
2012    11      2       0.7250123       142.0094
2012    11      3       0.6547871       130.8117
2012    11      4       0.7490106       142.5513
2012    11      5       0.8942405       159.3108
2012    11      6       0.8758835       157.6509
2012    11      7       0.7919395       148.1458
2012    12      0       0.7678572       145.5639
2012    12      1       0.8126493       151.5194
2012    12      2       0.7621608       145.7527
2012    12      3       0.7899063       148.8693
2012    12      4       0.7575448       144.7475
2012    12      5       0.6936607       136.1343
2012    12      6       0.6652621       131.7549
2012    12      7       0.5967828       121.2561
2012    13      0       0.5910563       119.8003
2012    13      1       0.6791269       131.5964
2012    13      2       0.6175272       123.7494
2012    13      3       0.4839888       103.8166
2012    13      4       0.4427603       97.19887
2012    13      5       0.4165749       92.46255
2012    13      6       0.4475507       97.01685
2012    13      7       0.4812482       102.3928
2012    14      0       0.3996347       89.47169
2012    14      1       0.4531551       98.80138
2012    14      2       0.5268435       110.7288
2012    14      3       0.5620143       115.9378
2012    14      4       0.5272733       110.8595
2012    14      5       0.4257876       95.08056
2012    14      6       0.3657375       84.80471
2012    14      7       0.329266        78.1162
2012    15      0       0.3140643       75.41281
2012    15      1       0.3621496       84.74518
2012    15      2       0.4131226       94.29127
2012    15      3       0.4224707       96.28965
2012    15      4       0.443576        99.92724
2012    15      5       0.4748026       104.9882
2012    15      6       0.5362265       114.5921
2012    15      7       0.6630245       132.693
2012    16      0       0.8997611       161.6932
2012    16      1       1.08208         180.1729
2012    16      2       1.664814        220.3896
2012    16      3       1.982991        233.9859
2012    16      4       2.019683        234.6971
2012    16      5       1.422769        205.1577
2012    16      6       1.632762        217.7996
2012    16      7       0.71493         138.8653
2012    17      0       0.4879016       105.7947
2012    17      1       0.552221        115.8963
2012    17      2       0.4955971       107.1187
2012    17      3       0.5022826       108.0998
2012    17      4       0.453712        100.1169
2012    17      5       0.4293683       95.92118
2012    17      6       0.2935724       71.3179
2012    17      7       0.2230548       57.17833
2012    18      0       0.1810466       48.03342
2012    18      1       0.3086841       74.08515
2012    18      2       0.4193062       94.18178
2012    18      3       0.390188        89.26295
2012    18      4       1.191147        188.3596
2012    18      5       0.4825005       104.6305
2012    18      6       0.7390932       141.4025
2012    18      7       1.584673        214.0829
2012    19      0       0.6610069       131.4681
2012    19      1       0.6072618       124.2107
2012    19      2       0.4911338       106.6049
2012    19      3       0.4524281       99.61918
2012    19      4       0.3554692       82.69171
2012    19      5       0.2695909       66.41191
2012    19      6       0.2323066       58.84081
2012    19      7       0.2064948       53.43686
2012    20      0       0.2126603       54.72926
2012    20      1       0.3282025       77.85721
2012    20      2       0.4495863       99.46677
2012    20      3       0.5203497       110.7257
2012    20      4       0.5852212       120.849
2012    20      5       0.583414        120.6667
2012    20      6       0.5632474       117.6048
2012    20      7       0.5738505       119.0352
2012    21      0       0.6600527       131.2906
2012    21      1       0.7371899       141.2646
2012    21      2       0.8361255       152.4935
2012    21      3       0.7926809       147.8305
2012    21      4       0.8441141       154.2931
2012    21      5       0.7824389       147.365
2012    21      6       0.7354297       141.83
2012    21      7       0.7408516       142.8768
2012    22      0       0.7353528       142.3102
2012    22      1       0.7662841       146.2746
2012    22      2       0.883107        159.6232
2012    22      3       1.060505        177.6275
2012    22      4       1.00203         171.5258
2012    22      5       0.579744        119.3025
2012    22      6       0.425435        94.57544
2012    22      7       0.3957339       89.91139
2012    23      0       0.5638107       117.4642
2012    23      1       0.6865371       134.7382
2012    23      2       0.6173172       125.1105
2012    23      3       0.6093889       123.6625
2012    23      4       0.5593657       115.8882
2012    23      5       0.4552423       99.4771
2012    23      6       0.3684509       84.66586
2012    23      7       0.3074641       73.47151
2012    24      0       0.2609142       64.43877
2012    24      1       0.2864349       69.42263
2012    24      2       0.3216791       76.3601
2012    24      3       0.336338        79.16696
2012    24      4       0.3278348       77.69909
2012    24      5       0.3791394       87.18905
2012    24      6       0.4760765       103.8772
2012    24      7       0.5072181       109.1518
2012    25      0       0.5156104       110.6704
2012    25      1       0.5562895       116.6834
2012    25      2       0.6762041       133.2453
2012    25      3       0.8792333       156.3623
2012    25      4       1.020418        170.6459
2012    25      5       1.050574        173.7219
2012    25      6       1.373732        200.3814
2012    25      7       0.9759779       167.0287
2012    26      0       0.2210232       55.99982
2012    26      1       0.3719458       84.78756
2012    26      2       0.3155666       74.3884
2012    26      3       0.2936089       70.14876
2012    26      4       0.2733391       66.21602
2012    26      5       0.2588737       63.29339
2012    26      6       0.2329884       58.11561
2012    26      7       0.2338222       58.36943
2012    27      0       0.2597061       63.71492
2012    27      1       0.3347924       78.22008
2012    27      2       0.3837483       87.38249
2012    27      3       0.4319792       95.86448
2012    27      4       0.5423422       113.9497
2012    27      5       0.626797        126.4381
2012    27      6       0.7181186       139.2465
2012    27      7       0.8743292       158.5167
2012    28      0       1.039665        175.8121
2012    28      1       0.6348586       128.2833
2012    28      2       0.5415851       114.2935
2012    28      3       0.3840537       87.41449
2012    28      4       0.2760317       67.17491
2012    28      5       0.2085631       53.3246
2012    28      6       0.1638896       43.46967
2012    28      7       0.146618        39.38971
2012    29      0       0.1420301       38.22248
2012    29      1       0.2206323       55.21108
2012    29      2       0.3009272       71.36358
2012    29      3       0.3464244       80.07286
2012    29      4       0.397053        89.26169
2012    29      5       0.3949309       89.02249
2012    29      6       0.3965996       89.39559
2012    29      7       0.3967331       89.29794
2012    30      0       0.4016563       89.94487
2012    30      1       0.4059154       90.63374
2012    30      2       0.4648393       100.3529
2012    30      3       0.3827043       86.22666
2012    30      4       0.2688738       65.0023
2012    30      5       0.1535994       41.11556
2012    30      6       0.08288659      25.06987
2012    30      7       0.1197714       33.81082
2013    1       0       0.9349754       168.211
2013    1       1       1.078506        182.7892
2013    1       2       1.231516        196.4415
2013    1       3       1.389387        208.172
2013    1       4       1.316429        203.184
2013    1       5       1.346131        205.1444
2013    1       6       1.465616        213.222
2013    1       7       1.477866        213.3731
2013    2       0       1.356451        204.2327
2013    2       1       1.193592        190.9973
2013    2       2       1.267914        197.046
2013    2       3       1.256846        197.8633
2013    2       4       1.641511        223.4236
2013    2       5       1.671884        225.3737
2013    2       6       1.552657        218.5601
2013    2       7       1.459817        212.6573
2013    3       0       1.421158        210.0765
2013    3       1       1.596195        220.2161
2013    3       2       1.555045        217.8282
2013    3       3       1.443442        210.2383
2013    3       4       1.56285         216.5523
2013    3       5       1.329878        200.8822
2013    3       6       1.218462        192.294
2013    3       7       1.056476        178.9167
2013    4       0       0.7837961       150.0266
2013    4       1       0.936099        167.6956
2013    4       2       0.9212904       167.1101
2013    4       3       0.9064666       165.6447
2013    4       4       0.8673858       161.1637
2013    4       5       0.8761823       161.9281
2013    4       6       0.8549881       159.2725
2013    4       7       0.7912956       151.5484
2013    5       0       0.7258289       143.3593
2013    5       1       0.7720338       149.3025
2013    5       2       0.8636757       160.4671
2013    5       3       0.9285226       167.1441
2013    5       4       0.747737        145.211
2013    5       5       0.7167127       140.5361
2013    5       6       1.073029        180.794
2013    5       7       2.637561        255.1389
2013    6       0       1.887357        231.8264
2013    6       1       1.322399        200.4192
2013    6       2       1.519558        214.7288
2013    6       3       1.289464        199.9896
2013    6       4       1.201539        192.9603
2013    6       5       1.524611        214.9881
2013    6       6       2.10153         239.7306
2013    6       7       0.706875        139.5715
2013    7       0       0.4458083       99.93692
2013    7       1       0.5753156       120.7747
2013    7       2       0.5304329       114.2536
2013    7       3       0.4952256       108.5997
2013    7       4       0.4066862       93.35431
2013    7       5       0.4365872       98.34226
2013    7       6       0.4852598       106.4102
2013    7       7       0.4197286       95.16894
2013    8       0       0.326017        78.04332
2013    8       1       0.3948673       90.88009
2013    8       2       0.455619        101.885
2013    8       3       0.5019951       109.6683
2013    8       4       0.600638        125.0877
2013    8       5       0.5353232       114.984
2013    8       6       0.5103337       111.275
2013    8       7       0.5114844       111.5527
2013    9       0       0.5465036       117.4847
2013    9       1       0.8227906       155.0581
2013    9       2       1.145594        187.5928
2013    9       3       1.475203        211.4294
2013    9       4       1.763455        228.4071
2013    9       5       1.413291        207.9411
2013    9       6       0.9356183       165.9005
2013    9       7       0.2153203       55.78619
2013    10      0       0.09741866      29.15341
2013    10      1       0.2048087       53.62201
2013    10      2       0.2584385       64.9639
2013    10      3       0.289527        70.95776
2013    10      4       0.3068637       74.17399
2013    10      5       0.2905777       70.83085
2013    10      6       0.2506751       62.76621
2013    10      7       0.2605574       64.62193
2013    11      0       0.2486198       62.12016
2013    11      1       0.2920989       70.82521
2013    11      2       0.3075585       74.12771
2013    11      3       0.3275199       77.86538
2013    11      4       0.3228058       76.69012
2013    11      5       0.2778838       67.86184
2013    11      6       0.2352081       59.20204
2013    11      7       0.2838493       69.1231
2013    12      0       0.3369257       79.66228
2013    12      1       0.3812588       87.96576
2013    12      2       0.4425392       98.92569
2013    12      3       0.4140989       93.93852
2013    12      4       0.3623339       84.642
2013    12      5       0.3298284       78.58619
2013    12      6       0.3531791       82.99869
2013    12      7       0.4221983       95.38594
2013    13      0       0.4778368       104.8463
2013    13      1       0.5006807       108.601
2013    13      2       0.5178498       111.4907
2013    13      3       0.5222362       111.9937
2013    13      4       0.4982253       107.6535
2013    13      5       0.5238978       111.1527
2013    13      6       0.6831713       133.4097
2013    13      7       0.8778542       156.6063
2013    14      0       0.9665821       165.651
2013    14      1       0.9240457       161.526
2013    14      2       0.8928012       159.5539
2013    14      3       0.832506        153.6393
2013    14      4       0.8977989       160.9132
2013    14      5       1.12746         183.3503
2013    14      6       1.275331        195.6496
2013    14      7       1.260212        195.4439
2013    15      0       1.114889        183.7067
2013    15      1       0.8272935       154.4369
2013    15      2       0.7899597       150.1139
2013    15      3       0.7302589       142.8101
2013    15      4       0.6474792       131.8202
2013    15      5       0.5975562       124.6384
2013    15      6       0.5192951       112.4551
2013    15      7       0.4289913       97.29892
2013    16      0       0.4207599       95.29172
2013    16      1       0.5700381       119.2093
2013    16      2       0.6217137       127.0378
2013    16      3       0.6834915       134.7462
2013    16      4       0.9178996       162.9895
2013    16      5       1.251629        193.4956
2013    16      6       2.243046        241.8856
2013    16      7       1.211928        188.6219
2013    17      0       0.7556479       142.7256
2013    17      1       0.5233872       110.491
2013    17      2       0.4580922       99.46791
2013    17      3       0.4602946       99.13225
2013    17      4       0.3912383       87.63943
2013    17      5       0.3565845       81.55359
2013    17      6       0.4123683       90.88475
2013    17      7       0.4986689       104.6544
2013    18      0       0.3604979       81.54904
2013    18      1       0.3742745       84.04422
2013    18      2       0.3632872       82.22145
2013    18      3       0.4444406       95.62699
2013    18      4       0.4581679       97.91604
2013    18      5       0.4701347       99.88397
2013    18      6       0.548112        112.1031
2013    18      7       0.6605764       127.748
2013    19      0       0.4922832       103.6821
2013    19      1       0.4979105       105.1893
2013    19      2       0.4909236       104.2299
2013    19      3       0.4738724       101.4929
2013    19      4       0.4272207       93.95619
2013    19      5       0.3832462       86.41487
2013    19      6       0.347575        80.00832
2013    19      7       0.3270166       76.19164
2013    20      0       0.3068593       72.40287
2013    20      1       0.359795        82.45422
2013    20      2       0.3690931       84.5186
2013    20      3       0.3434376       79.94091
2013    20      4       0.4236287       94.05089
2013    20      5       0.4582272       99.87408
2013    20      6       0.4423162       97.2139
2013    20      7       0.4251363       94.47565
2013    21      0       0.4514459       99.046
2013    21      1       0.5014515       107.3182
2013    21      2       0.5032556       108.1814
2013    21      3       0.4073833       92.08015
2013    21      4       0.3099038       74.23035
2013    21      5       0.3408429       80.17131
2013    21      6       0.3594058       83.60513
2013    21      7       0.3293418       77.86357
2013    22      0       0.3195808       76.30281
2013    22      1       0.3994994       91.29603
2013    22      2       0.4855952       106.4029
2013    22      3       0.5775421       121.0648
2013    22      4       0.6893327       136.8832
2013    22      5       0.745807        144.0217
2013    22      6       0.7915941       149.4174
2013    22      7       0.7655201       146.0931
2013    23      0       0.7421029       143.0647
2013    23      1       0.6707496       133.6192
2013    23      2       0.6641296       133.2597
2013    23      3       0.7151687       140.3073
2013    23      4       0.987007        171.2571
2013    23      5       1.07157         179.2772
2013    23      6       1.652687        220.3538
2013    23      7       2.174206        241.4598
2013    24      0       1.6938          222.0428
2013    24      1       1.320577        199.0628
2013    24      2       1.08687         179.8295
2013    24      3       1.248793        193.6493
2013    24      4       1.374275        202.3834
2013    24      5       1.829833        229.2105
2013    24      6       1.940972        234.8735
2013    24      7       1.71266         222.1515
2013    25      0       1.190935        188.0989
2013    25      1       0.9511181       164.5378
2013    25      2       0.6489147       127.9256
2013    25      3       0.4211035       92.96558
2013    25      4       0.3292369       76.8308
2013    25      5       0.2471351       60.87496
2013    25      6       0.2262004       56.41758
2013    25      7       0.253905        62.05066
2013    26      0       0.3502734       80.56214
2013    26      1       0.4588549       99.33875
2013    26      2       0.4714605       101.4061
2013    26      3       0.5709677       116.4826
2013    26      4       0.6498013       127.5959
2013    26      5       0.8839352       155.2033
2013    26      6       0.4993767       104.9881
2013    26      7       0.3590869       81.5087
2013    27      0       0.4569667       97.63405
2013    27      1       0.7229129       135.1416
2013    27      2       0.4371999       93.70807
2013    27      3       0.2947373       68.60877
2013    27      4       0.2822656       66.21066
2013    27      5       0.2720548       64.20444
2013    27      6       0.2739305       64.45577
2013    27      7       0.2438854       58.97854
2013    28      0       0.2500805       60.38538
2013    28      1       0.2959331       69.43485
2013    28      2       0.3610818       81.35899
2013    28      3       0.3916484       86.69667
2013    28      4       0.3711745       83.37687
2013    28      5       0.4008894       88.87383
2013    28      6       0.3654232       82.96295
2013    28      7       0.2773756       66.73148
2013    29      0       0.2716176       65.87068
2013    29      1       0.3131937       74.07313
2013    29      2       0.3832385       87.09506
2013    29      3       0.4095414       91.77148
2013    29      4       0.4054199       91.38765
2013    29      5       0.442924        98.04709
2013    29      6       0.6376855       127.7623
2013    29      7       0.7134456       138.1977
2013    30      0       0.6244728       126.4228
2013    30      1       0.6029341       123.4354
2013    30      2       0.6207589       126.0962
2013    30      3       0.6909762       135.7071
2013    30      4       0.6963194       136.331
2013    30      5       0.5712797       118.7246
2013    30      6       0.3660402       84.70522
2013    30      7       0.2254077       57.31718
2014    1       0       1.289731        202.129
2014    1       1       1.47639         215.0949
2014    1       2       1.384231        209.9189
2014    1       3       1.288364        202.1079
2014    1       4       1.089571        184.0055
2014    1       5       1.119061        186.3896
2014    1       6       1.42964         209.0574
2014    1       7       1.230156        192.6392
2014    2       0       0.7000884       138.6823
2014    2       1       0.6656289       132.9995
2014    2       2       0.4121765       93.65948
2014    2       3       0.3712582       86.13235
2014    2       4       0.2920645       71.3594
2014    2       5       0.2914272       71.24964
2014    2       6       0.3074035       74.0977
2014    2       7       0.3457617       81.17828
2014    3       0       0.3682362       85.64887
2014    3       1       0.3944321       91.06469
2014    3       2       0.4199531       96.13135
2014    3       3       0.5155271       111.9585
2014    3       4       0.5693221       120.1953
2014    3       5       0.5580594       118.5642
2014    3       6       0.6393047       130.4807
2014    3       7       0.6974882       138.4854
2014    4       0       0.6602006       133.6384
2014    4       1       0.6996909       139.1735
2014    4       2       0.720809        142.4404
2014    4       3       0.7690929       148.4611
2014    4       4       0.6882392       137.9378
2014    4       5       0.6274806       129.5609
2014    4       6       0.7330575       143.9654
2014    4       7       0.9628789       170.1758
2014    5       0       1.115801        184.7645
2014    5       1       1.035928        177.6737
2014    5       2       1.094307        183.5027
2014    5       3       1.18942         191.5068
2014    5       4       1.226891        194.3266
2014    5       5       1.196521        191.4394
2014    5       6       1.247097        195.1147
2014    5       7       1.277955        197.7102
2014    6       0       1.123022        185.9908
2014    6       1       0.9716353       171.8118
2014    6       2       0.5914922       124.9829
2014    6       3       0.41161         95.0825
2014    6       4       0.4335686       98.49801
2014    6       5       0.5908151       123.9316
2014    6       6       0.8101168       152.8962
2014    6       7       0.8888728       161.4041
2014    7       0       0.8912988       161.5139
2014    7       1       0.9705089       169.8716
2014    7       2       0.8784485       160.0221
2014    7       3       0.6994615       138.1132
2014    7       4       0.696189        137.9726
2014    7       5       0.8247314       154.2973
2014    7       6       0.9466534       167.6569
2014    7       7       1.052502        177.4116
2014    8       0       1.045692        176.1445
2014    8       1       1.142121        184.71
2014    8       2       1.264302        194.4693
2014    8       3       1.12271         183.2827
2014    8       4       0.9275879       164.8684
2014    8       5       0.8312882       153.6756
2014    8       6       0.5918032       122.4445
2014    8       7       0.3915469       90.55927
2014    9       0       0.358456        84.67871
2014    9       1       0.4187425       95.58248
2014    9       2       0.4015658       92.99254
2014    9       3       0.3523728       84.08949
2014    9       4       0.3044531       74.71255
2014    9       5       0.2647449       66.65595
2014    9       6       0.2805361       69.78932
2014    9       7       0.2956305       72.82828
2014    10      0       0.2866089       71.16962
2014    10      1       0.3678022       86.8508
2014    10      2       0.3958646       92.31795
2014    10      3       0.3873684       90.98654
2014    10      4       0.4202826       96.86719
2014    10      5       0.5181559       113.0902
2014    10      6       0.6531886       133.0179
2014    10      7       0.7363326       143.8137
2014    11      0       0.6457541       131.6664
2014    11      1       0.7408937       144.3318
2014    11      2       0.8238342       154.5662
2014    11      3       1.014452        174.3292
2014    11      4       1.193522        189.1631
2014    11      5       1.581992        215.9456
2014    11      6       1.813594        226.8359
2014    11      7       1.251554        192.2483
2014    12      0       0.2479002       62.1291
2014    12      1       0.3359337       79.5513
2014    12      2       0.6911598       134.486
2014    12      3       0.2875463       68.90772
2014    12      4       0.2166985       54.56641
2014    12      5       0.1755594       45.8515
2014    12      6       0.2010455       51.25419
2014    12      7       0.2365178       58.43874
2014    13      0       0.2690487       64.85123
2014    13      1       0.2562221       62.71514
2014    13      2       0.2699382       65.87082
2014    13      3       0.2907692       69.86604
2014    13      4       0.3015159       71.99499
2014    13      5       0.4182527       93.33194
2014    13      6       0.5215027       110.2121
2014    13      7       0.500532        106.8048
2014    14      0       0.4413096       96.85096
2014    14      1       0.3577891       82.28932
2014    14      2       0.3639554       84.18687
2014    14      3       0.3727425       85.8151
2014    14      4       0.2925181       70.44691
2014    14      5       0.2321343       58.28618
2014    14      6       0.1882272       49.12127
2014    14      7       0.1981951       51.30617
2014    15      0       0.1964815       51.15275
2014    15      1       0.2286106       57.66372
2014    15      2       0.3326963       77.57687
2014    15      3       0.321197        75.84968
2014    15      4       0.2946079       70.69788
2014    15      5       0.3214013       75.60776
2014    15      6       0.4267585       94.00198
2014    15      7       0.4509683       98.13502
2014    16      0       0.3775257       86.3444
2014    16      1       0.3821878       87.21674
2014    16      2       0.3985296       90.16811
2014    16      3       0.550996        114.3261
2014    16      4       0.6973296       134.8049
2014    16      5       0.939857        163.1261
2014    16      6       0.9790401       167.2236
2014    16      7       0.9052717       159.9957
2014    17      0       0.8397846       152.6916
2014    17      1       0.6792316       132.5608
2014    17      2       0.5772337       118.9691
2014    17      3       0.4488703       99.27232
2014    17      4       0.3219818       76.64868
2014    17      5       0.3025876       72.91287
2014    17      6       0.2809912       68.61221
2014    17      7       0.2652501       65.50239
2014    18      0       0.259864        64.57412
2014    18      1       0.2958908       71.76897
2014    18      2       0.3085572       74.45398
2014    18      3       0.2776777       68.42984
2014    18      4       0.2186206       56.3553
2014    18      5       0.2142701       55.43043
2014    18      6       0.2184705       56.33587
2014    18      7       0.2167442       56.00326
2014    19      0       0.2231205       57.37253
2014    19      1       0.2718104       67.28308
2014    19      2       0.3266675       78.05352
2014    19      3       0.3975742       91.09647
2014    19      4       0.5019583       108.6907
2014    19      5       0.6310193       127.8744
2014    19      6       0.7520865       142.9448
2014    19      7       0.7112493       138.3082
2014    20      0       0.6452394       130.2371
2014    20      1       0.6667719       133.5434
2014    20      2       0.7499247       144.6149
2014    20      3       0.8509993       156.9605
2014    20      4       0.9281002       165.5441
2014    20      5       1.182528        188.6339
2014    20      6       1.159489        187.3265
2014    20      7       1.177166        189.514
2014    21      0       1.345553        202.7953
2014    21      1       1.852336        231.2209
2014    21      2       1.410918        207.8299
2014    21      3       1.300709        200.1184
2014    21      4       1.321823        201.5229
2014    21      5       1.34831         203.0331
2014    21      6       1.43571         208.8257
2014    21      7       1.639495        220.4769
2014    22      0       1.389372        204.4958
2014    22      1       1.068166        178.0696
2014    22      2       0.6471085       130.8147
2014    22      3       0.3824636       89.09393
2014    22      4       0.3624331       85.38063
2014    22      5       0.3512416       83.41753
2014    22      6       0.3250672       78.36983
2014    22      7       0.3211227       77.21632
2014    23      0       0.3121829       74.87339
2014    23      1       0.3839125       87.15744
2014    23      2       0.4823326       102.9132
2014    23      3       0.4788909       103.5966
2014    23      4       0.5203266       111.5304
2014    23      5       0.4295921       96.56937
2014    23      6       0.3271722       77.93862
2014    23      7       0.4476647       99.44886
2014    24      0       0.4947939       107.8574
2014    24      1       0.6204962       127.1546
2014    24      2       0.6861597       135.9704
2014    24      3       0.6804523       135.1453
2014    24      4       0.6651353       133.4455
2014    24      5       0.7839036       148.9026
2014    24      6       0.9151683       164.3286
2014    24      7       0.860401        158.3727
2014    25      0       0.7817611       149.0104
2014    25      1       0.82072         153.6473
2014    25      2       0.7864477       149.8047
2014    25      3       0.8180753       152.148
2014    25      4       0.7824651       147.6383
2014    25      5       0.7854228       147.8459
2014    25      6       0.7959672       149.2044
2014    25      7       0.8236691       152.3282
2014    26      0       0.8184842       151.9921
2014    26      1       0.8182117       152.7246
2014    26      2       0.806436        152.33
2014    26      3       0.8236332       154.7334
2014    26      4       0.848557        157.9843
2014    26      5       0.9382792       168.209
2014    26      6       1.046486        179.085
2014    26      7       2.58734         254.1868
2014    27      0       2.474448        251.4912
2014    27      1       2.253852        246.0395
2014    27      2       1.485724        213.2484
2014    27      3       1.371072        206.2443
2014    27      4       1.158235        189.4687
2014    27      5       1.050742        179.189
2014    27      6       1.362264        202.8079
2014    27      7       1.474889        210.6333
2014    28      0       1.61923         218.988
2014    28      1       1.44602         209.2348
2014    28      2       1.37775         205.3433
2014    28      3       1.631454        221.826
2014    28      4       1.11748         185.4647
2014    28      5       0.9624939       169.9842
2014    28      6       0.9428101       167.9428
2014    28      7       0.8895088       162.3456
2014    29      0       0.8193978       154.8226
2014    29      1       0.8418367       157.5025
2014    29      2       0.8216997       155.8833
2014    29      3       0.838086        157.8609
2014    29      4       0.9063312       165.3492
2014    29      5       1.097037        183.1826
2014    29      6       1.4385          207.9396
2014    29      7       1.41737         206.652
2014    30      0       1.330259        200.7561
2014    30      1       1.093267        182.8714
2014    30      2       0.9863707       173.5508
2014    30      3       1.032535        177.4319
2014    30      4       1.161715        187.928
2014    30      5       1.47794         209.7351
2014    30      6       0.617011        125.4203
2014    30      7       0.3224953       76.64079
2015    1       0       0.4126001       92.57007
2015    1       1       0.3984505       90.5242
2015    1       2       0.5324304       113.3094
2015    1       3       0.3422966       78.40377
2015    1       4       0.5676317       117.4971
2015    1       5       0.5704081       118.4292
2015    1       6       0.7258762       139.9321
2015    1       7       0.8505589       154.7708
2015    2       0       0.8195054       151.8543
2015    2       1       0.8221463       152.601
2015    2       2       0.9471039       167.3605
2015    2       3       0.9829236       172.1833
2015    2       4       0.9060514       164.566
2015    2       5       0.79756         152.3371
2015    2       6       0.8338887       156.8801
2015    2       7       0.7396284       145.5001
2015    3       0       0.6506757       133.791
2015    3       1       0.6357699       131.9529
2015    3       2       0.7678131       150.0993
2015    3       3       0.7192201       144.162
2015    3       4       0.5594282       121.4695
2015    3       5       0.4273627       99.56646
2015    3       6       0.3123921       77.85517
2015    3       7       0.3072405       76.82552
2015    4       0       0.3122582       77.82286
2015    4       1       0.5133633       114.1303
2015    4       2       0.6672371       137.5234
2015    4       3       0.5685912       122.7717
2015    4       4       0.3585383       86.19641
2015    4       5       0.4463207       101.7047
2015    4       6       0.5662698       120.3182
2015    4       7       1.104517        182.7307
2015    5       0       1.103521        184.039
2015    5       1       1.031771        178.3373
2015    5       2       1.096857        185.0818
2015    5       3       1.201723        194.4041
2015    5       4       1.065939        182.4362
2015    5       5       0.9129991       166.7714
2015    5       6       1.11268         186.1662
2015    5       7       1.177983        191.3975
2015    6       0       1.339614        203.6607
2015    6       1       1.326774        202.3259
2015    6       2       1.317154        201.009
2015    6       3       1.461534        209.8385
2015    6       4       1.514764        212.8144
2015    6       5       1.414973        208.0569
2015    6       6       1.440671        209.5924
2015    6       7       2.61587         255.8494
2015    7       0       1.483355        212.9546
2015    7       1       1.627331        221.1143
2015    7       2       1.908216        235.3221
2015    7       3       1.866771        233.6508
2015    7       4       1.940891        237.0327
2015    7       5       1.851373        233.8001
2015    7       6       1.931392        236.3004
2015    7       7       1.70227         225.7416
2015    8       0       1.418618        209.7506
2015    8       1       1.534499        216.6842
2015    8       2       1.696045        226.1041
2015    8       3       1.644876        222.2398
2015    8       4       1.789403        229.4931
2015    8       5       1.910304        235.2997
2015    8       6       1.983009        237.641
2015    8       7       1.792318        229.6177
2015    9       0       1.451073        210.8969
2015    9       1       1.466073        211.5617
2015    9       2       1.931908        235.3162
2015    9       3       1.512783        214.7054
2015    9       4       1.341675        203.2268
2015    9       5       1.159712        188.8207
2015    9       6       1.043885        178.4931
2015    9       7       0.8996664       163.8979
2015    10      0       0.8570807       158.9839
2015    10      1       0.9146481       165.3908
2015    10      2       0.8932524       163.2786
2015    10      3       0.9173236       165.9501
2015    10      4       0.9686281       170.9988
2015    10      5       0.9482427       168.4886
2015    10      6       0.8904743       162.2202
2015    10      7       0.9209314       165.4721
2015    11      0       0.9819545       171.8465
2015    11      1       1.0896          182.306
2015    11      2       1.076347        181.6812
2015    11      3       1.043499        178.894
2015    11      4       0.9963404       174.6652
2015    11      5       1.082776        182.7934
2015    11      6       1.183811        191.4029
2015    11      7       1.188323        191.7435
2015    12      0       1.190358        191.9066
2015    12      1       1.39092         206.6159
2015    12      2       1.332604        203.1091
2015    12      3       1.246578        196.9783
2015    12      4       1.210398        194.2717
2015    12      5       1.145162        188.3425
2015    12      6       1.145234        187.3416
2015    12      7       1.217573        192.4894
2015    13      0       1.340582        201.0062
2015    13      1       1.413201        206.2013
2015    13      2       1.623352        219.2121
2015    13      3       1.716009        224.2497
2015    13      4       1.637346        221.7758
2015    13      5       1.574276        219.1998
2015    13      6       1.611989        221.5781
2015    13      7       1.534273        217.4714
2015    14      0       1.634954        223.1956
2015    14      1       1.970243        238.4803
2015    14      2       2.003685        240.0138
2015    14      3       1.47607         213.9666
2015    14      4       1.302393        202.1245
2015    14      5       1.338984        204.746
2015    14      6       1.409965        209.8584
2015    14      7       1.414866        209.9865
2015    15      0       1.279834        200.1944
2015    15      1       1.358132        206.1681
2015    15      2       1.417721        210.6521
2015    15      3       1.561084        219.2215
2015    15      4       1.687597        226.4109
2015    15      5       1.677433        225.9779
2015    15      6       1.606437        222.0738
2015    15      7       1.268154        199.5114
2015    16      0       1.161261        189.0194
2015    16      1       1.392797        205.5212
2015    16      2       1.618801        219.545
2015    16      3       1.489032        213.914
2015    16      4       1.456516        212.4455
2015    16      5       1.349105        206.1345
2015    16      6       1.356997        207.0836
2015    16      7       1.329949        204.8537
2015    17      0       1.297768        202.1032
2015    17      1       1.267884        199.7735
2015    17      2       1.293811        202.3949
2015    17      3       1.273589        201.0267
2015    17      4       1.28348         201.6735
2015    17      5       1.35471         205.5176
2015    17      6       1.462172        211.7655
2015    17      7       1.259114        197.2836
2015    18      0       1.177849        189.6747
2015    18      1       1.275514        196.2707
2015    18      2       1.278329        196.2294
2015    18      3       0.9030968       162.5062
2015    18      4       0.7794503       149.5676
2015    18      5       0.7628549       147.7411
2015    18      6       0.7948877       151.4599
2015    18      7       0.8133198       153.2722
2015    19      0       0.8763415       160.2679
2015    19      1       0.9365076       166.9886
2015    19      2       1.046533        178.403
2015    19      3       1.13607         186.9203
2015    19      4       1.026952        176.9563
2015    19      5       1.002844        174.3164
2015    19      6       1.058532        179.2742
2015    19      7       1.168045        188.5088
2015    20      0       1.166279        188.4229
2015    20      1       1.262127        195.9139
2015    20      2       1.219159        192.5149
2015    20      3       1.082565        180.8353
2015    20      4       0.9534783       167.8962
2015    20      5       0.7932269       149.3818
2015    20      6       0.7832051       147.5622
2015    20      7       0.8011717       149.6097
2015    21      0       0.645355        130.3187
2015    21      1       0.6407312       129.8058
2015    21      2       0.7100391       139.9577
2015    21      3       0.7102317       140.3097
2015    21      4       0.7299002       142.6964
2015    21      5       0.7294659       142.2856
2015    21      6       0.762416        145.5724
2015    21      7       0.7413966       142.9281
2015    22      0       0.7828133       148.3076
2015    22      1       0.9675686       168.6395
2015    22      2       1.252143        194.6528
2015    22      3       1.668717        221.4116
2015    22      4       1.440742        208.3084
2015    22      5       1.429404        207.4668
2015    22      6       1.489611        211.0227
2015    22      7       1.467055        209.8746
2015    23      0       1.424745        207.2184
2015    23      1       1.379345        204.3244
2015    23      2       1.35644         202.6186
2015    23      3       1.540304        213.8968
2015    23      4       1.736126        223.8299
2015    23      5       1.331992        199.7746
2015    23      6       0.7706475       146.7288
2015    23      7       0.6870757       135.7188
2015    24      0       0.7139907       139.2501
2015    24      1       0.7774677       146.986
2015    24      2       0.8141721       150.2864
2015    24      3       0.8624807       154.5935
2015    24      4       0.8257381       150.5987
2015    24      5       0.9394048       161.9921
2015    24      6       0.9443934       162.5747
2015    24      7       0.8939309       158.0762
2015    25      0       1.006568        170.289
2015    25      1       1.439798        203.639
2015    25      2       1.093688        177.6675
2015    25      3       0.7413765       139.3822
2015    25      4       0.5324843       110.3501
2015    25      5       0.4395522       95.3017
2015    25      6       0.492863        103.1887
2015    25      7       0.4887185       102.0771
2015    26      0       0.5212299       106.7962
2015    26      1       0.5178748       106.5131
2015    26      2       0.5232604       107.6254
2015    26      3       0.5179319       106.5891
2015    26      4       0.4062487       88.69751
2015    26      5       0.2799096       66.22095
2015    26      6       0.2514793       61.02714
2015    26      7       0.2303483       56.89048
2015    27      0       0.2318061       57.23634
2015    27      1       0.3662243       82.98267
2015    27      2       0.4327073       94.62123
2015    27      3       0.4319376       94.45177
2015    27      4       0.3297493       76.61785
2015    27      5       0.3604284       82.50387
2015    27      6       0.4675742       100.6279
2015    27      7       0.5542028       113.9846
2015    28      0       0.6787808       130.9675
2015    28      1       0.702803        135.0108
2015    28      2       1.026036        171.2175
2015    28      3       0.7927513       146.9895
2015    28      4       0.6208615       125.0958
2015    28      5       0.4524351       99.3381
2015    28      6       0.4990439       106.6857
2015    28      7       0.6893925       134.2281
2015    29      0       0.9496412       164.2787
2015    29      1       0.9352753       162.647
2015    29      2       1.156551        182.8816
2015    29      3       1.698828        219.3789
2015    29      4       1.983319        232.1672
2015    29      5       1.367073        200.6866
2015    29      6       1.117073        181.2416
2015    29      7       0.886701        158.5672
2015    30      0       0.3805079       87.55452
2015    30      1       0.2383263       60.22489
2015    30      2       0.3148649       75.31818
2015    30      3       0.2209356       56.33267
2015    30      4       0.1425438       39.10806
2015    30      5       0.1236848       34.68499
2015    30      6       0.1426126       38.87833
2015    30      7       0.1766552       46.29847
2016    1       0       0.1905636       50.08151
2016    1       1       0.2983008       72.13539
2016    1       2       0.2937309       71.24208
2016    1       3       0.2567895       63.68978
2016    1       4       0.2518697       62.60112
2016    1       5       0.2780338       67.30806
2016    1       6       0.2824346       68.40868
2016    1       7       0.3291101       77.72822
2016    2       0       0.4894347       105.8003
2016    2       1       0.5447628       114.3508
2016    2       2       0.6026752       123.3667
2016    2       3       0.657083        130.6731
2016    2       4       0.7810231       146.2634
2016    2       5       1.051079        175.0215
2016    2       6       1.296675        196.8101
2016    2       7       1.044557        176.4054
2016    3       0       0.7460599       143.3881
2016    3       1       0.7853932       148.4356
2016    3       2       0.7399381       143.5445
2016    3       3       0.6728964       135.2806
2016    3       4       0.8101899       153.384
2016    3       5       1.030998        177.6239
2016    3       6       1.111959        185.2088
2016    3       7       1.175673        190.8526
2016    4       0       1.406006        208.7491
2016    4       1       1.260351        198.8721
2016    4       2       1.413315        210.7937
2016    4       3       1.351706        207.0042
2016    4       4       1.511829        217.3031
2016    4       5       1.697401        227.3887
2016    4       6       1.85327         234.3756
2016    4       7       1.76481         230.5311
2016    5       0       1.520623        217.9153
2016    5       1       1.473285        215.7298
2016    5       2       1.548715        220.6902
2016    5       3       1.555221        220.5917
2016    5       4       1.435854        213.2042
2016    5       5       1.411362        210.8307
2016    5       6       1.132427        187.8679
2016    5       7       0.9273844       167.4562
2016    6       0       0.9255558       166.6787
2016    6       1       0.9335623       167.5177
2016    6       2       0.9874125       173.4781
2016    6       3       0.9623258       171.5618
2016    6       4       0.9613931       171.1575
2016    6       5       1.013963        176.1295
2016    6       6       1.031536        177.6215
2016    6       7       1.181599        190.1207
2016    7       0       1.184178        191.1985
2016    7       1       1.330092        203.1041
2016    7       2       1.565877        218.321
2016    7       3       1.927046        234.5908
2016    7       4       1.375738        202.2862
2016    7       5       1.015386        171.7349
2016    7       6       0.4236683       96.22103
2016    7       7       0.2805542       69.51267
2016    8       0       0.2924033       71.66697
2016    8       1       0.3507837       82.54328
2016    8       2       0.2998953       72.75605
2016    8       3       0.2536336       63.33476
2016    8       4       0.1741606       46.42544
2016    8       5       0.1479407       40.62858
2016    8       6       0.1491781       40.97086
2016    8       7       0.1518647       41.64212
2016    9       0       0.1312409       36.88603
2016    9       1       0.1658585       44.68439
2016    9       2       0.2279463       58.09182
2016    9       3       0.2419802       61.11305
2016    9       4       0.2421136       60.99285
2016    9       5       0.2186782       55.77595
2016    9       6       0.2177931       55.30671
2016    9       7       0.2671936       65.21143
2016    10      0       0.4355474       95.91853
2016    10      1       0.6498985       128.1564
2016    10      2       0.8531497       154.0794
2016    10      3       1.001126        170.1332
2016    10      4       1.090687        178.7064
2016    10      5       1.064804        177.3428
2016    10      6       1.510937        209.8552
2016    10      7       1.176401        187.8186
2016    11      0       0.8094575       151.7493
2016    11      1       0.7919855       150.3082
2016    11      2       0.6017822       124.9806
2016    11      3       0.5414479       115.7169
2016    11      4       0.6548579       132.1672
2016    11      5       0.9106207       163.6247
2016    11      6       0.9188682       164.9529
2016    11      7       1.010953        174.7297
2016    12      0       1.044874        178.4902
2016    12      1       1.13824         186.8257
2016    12      2       1.309688        201.1255
2016    12      3       1.31903         202.5676
2016    12      4       1.461935        212.7047
2016    12      5       1.696392        226.2584
2016    12      6       2.219216        247.3153
2016    12      7       1.881902        235.1926
2016    13      0       2.088338        242.9675
2016    13      1       1.861549        234.3796
2016    13      2       1.521803        217.9122
2016    13      3       1.410641        211.1623
2016    13      4       1.322042        204.8644
2016    13      5       1.333986        205.9632
2016    13      6       1.584468        222.1068
2016    13      7       2.344584        252.7011
2016    14      0       2.261956        250.0521
2016    14      1       2.304466        251.2336
2016    14      2       2.590949        258.6312
2016    14      3       1.633413        224.3279
2016    14      4       0.6960786       140.1691
2016    14      5       0.3190818       77.48205
2016    14      6       0.2397093       61.57011
2016    14      7       0.2004586       52.9876
2016    15      0       0.1632112       44.69676
2016    15      1       0.260601        65.56467
2016    15      2       0.3079288       74.78716
2016    15      3       0.3141933       75.71
2016    15      4       0.295016        72.01085
2016    15      5       0.2480967       62.67385
2016    15      6       0.2166099       55.85042
2016    15      7       0.2360882       59.53158
2016    16      0       0.3323373       78.70658
2016    16      1       0.4698233       103.2538
2016    16      2       0.6339597       128.7894
2016    16      3       0.649606        131.2499
2016    16      4       0.6428524       130.6194
2016    16      5       0.6477457       131.4374
2016    16      6       0.7094651       139.5396
2016    16      7       0.8728763       159.4382
2016    17      0       1.015332        174.8553
2016    17      1       0.8811843       161.1567
2016    17      2       0.7396318       145.072
2016    17      3       0.6715164       136.1771
2016    17      4       0.5675727       121.1482
2016    17      5       0.5022945       110.7813
2016    17      6       0.5440112       117.2326
2016    17      7       0.5745676       121.8331
2016    18      0       0.5811101       122.5914
2016    18      1       0.6323072       129.2727
2016    18      2       0.852216        156.6647
2016    18      3       0.8445223       155.5348
2016    18      4       0.8114778       153.3769
2016    18      5       1.224817        194.8996
2016    18      6       1.452883        211.6812
2016    18      7       1.296569        202.361
2016    19      0       1.187228        193.8366
2016    19      1       1.214891        196.3436
2016    19      2       1.517543        218.126
2016    19      3       2.307308        250.7183
2016    19      4       1.716661        227.8461
2016    19      5       0.9761926       172.6212
2016    19      6       0.3871993       87.77276
2016    19      7       0.3636473       82.56225
2016    20      0       0.1332203       37.59663
2016    20      1       0.2734788       68.38968
2016    20      2       0.3624358       85.52565
2016    20      3       0.3833184       89.5639
2016    20      4       0.4134187       94.9025
2016    20      5       0.4148887       95.60069
2016    20      6       0.4283943       97.72534
2016    20      7       0.5263511       113.8605
2016    21      0       0.9762011       172.4661
2016    21      1       1.000762        174.8948
2016    21      2       0.9843974       173.8748
2016    21      3       0.9301746       167.7702
2016    21      4       0.8401688       157.2869
2016    21      5       0.8117046       153.2734
2016    21      6       0.8276302       153.908
2016    21      7       0.8486305       153.3555
2016    22      0       0.4522868       98.58459
2016    22      1       0.3249615       75.91396
2016    22      2       0.2389335       60.01573
2016    22      3       0.1943473       50.60796
2016    22      4       0.1793808       47.02865
2016    22      5       0.2356998       59.08413
2016    22      6       0.3049138       72.76657
2016    22      7       0.2640965       64.62024
2016    23      0       0.2104575       53.50677
2016    23      1       0.2242567       56.05043
2016    23      2       0.2570685       62.41439
2016    23      3       0.21113         53.27353
2016    23      4       0.1767913       46.15283
2016    23      5       0.196246        49.96527
2016    23      6       0.1669789       43.80208
2016    23      7       0.1404863       38.19236
2016    24      0       0.1589773       42.30383
2016    24      1       0.2020208       51.72845
2016    24      2       0.2298085       57.62687
2016    24      3       0.2717399       65.95775
2016    24      4       0.3001894       71.59276
2016    24      5       0.2771484       67.18732
2016    24      6       0.2852739       68.85846
2016    24      7       0.3736005       85.01308
2016    25      0       0.5009133       105.622
2016    25      1       0.4091659       91.43099
2016    25      2       0.3944723       89.44183
2016    25      3       0.3612416       83.79163
2016    25      4       0.3378125       79.74609
2016    25      5       0.3819902       87.92328
2016    25      6       0.4812979       104.5499
2016    25      7       0.5562812       115.6988
2016    26      0       0.7120349       136.3391
2016    26      1       0.9103346       159.2287
2016    26      2       0.8430259       152.1863
2016    26      3       0.895622        159.5885
2016    26      4       1.602815        215.5032
2016    26      5       1.743853        223.3833
2016    26      6       1.105532        181.6218
2016    26      7       0.794453        149.1797
2016    27      0       0.6868437       135.4298
2016    27      1       0.6501972       130.4671
2016    27      2       0.6026345       123.075
2016    27      3       0.3959593       89.81209
2016    27      4       0.5697851       118.2026
2016    27      5       0.5261261       112.1436
2016    27      6       0.274294        67.75054
2016    27      7       0.1772535       47.20695
2016    28      0       0.161174        43.6339
2016    28      1       0.1738603       46.48508
2016    28      2       0.2729291       67.02993
2016    28      3       0.2283367       57.77089
2016    28      4       0.2252369       57.36425
2016    28      5       0.2521636       63.12499
2016    28      6       0.2649195       65.72182
2016    28      7       0.2687283       66.43474
2016    29      0       0.2529672       63.26762
2016    29      1       0.2646442       65.58149
2016    29      2       0.3201523       76.49888
2016    29      3       0.373623        86.49037
2016    29      4       0.5071893       109.042
2016    29      5       0.6697819       132.4017
2016    29      6       0.950089        164.386
2016    29      7       1.111875        180.5039
2016    30      0       0.9832552       167.5983
2016    30      1       0.9086956       159.5507
2016    30      2       0.7745564       145.7409
2016    30      3       0.758263        144.3095
2016    30      4       1.303142        197.1659
2016    30      5       0.9856841       170.303
2016    30      6       0.7156809       139.6679
2016    30      7       0.5508558       116.1051
2017    1       0       1.243513        196.7824
2017    1       1       1.223747        195.7825
2017    1       2       1.149825        190.0318
2017    1       3       0.8628456       161.0592
2017    1       4       1.004442        175.5175
2017    1       5       1.320235        202.0302
2017    1       6       1.490871        212.9084
2017    1       7       1.540694        216.435
2017    2       0       1.445367        211.4187
2017    2       1       1.761487        229.4402
2017    2       2       1.796652        231.243
2017    2       3       1.628475        222.5138
2017    2       4       1.556242        218.6559
2017    2       5       1.660954        224.3333
2017    2       6       1.941584        237.1556
2017    2       7       2.396836        251.8718
2017    3       0       2.297743        248.5683
2017    3       1       1.263318        196.7156
2017    3       2       0.8536366       157.6369
2017    3       3       0.5018173       109.0572
2017    3       4       0.6372609       128.8763
2017    3       5       0.9954863       170.6261
2017    3       6       0.7704416       145.059
2017    3       7       0.5588831       116.6986
2017    4       0       0.5375055       114.2805
2017    4       1       0.5637184       118.8427
2017    4       2       0.4134018       94.60174
2017    4       3       0.324934        78.09345
2017    4       4       0.316841        76.7047
2017    4       5       0.3531867       83.94349
2017    4       6       0.5903663       123.7659
2017    4       7       0.8170768       154.0543
2017    5       0       0.8299492       155.8692
2017    5       1       0.8042537       153.0242
2017    5       2       0.8407449       157.8068
2017    5       3       0.83842         157.3432
2017    5       4       0.7095787       141.3711
2017    5       5       0.6914548       139.0623
2017    5       6       1.317658        201.5638
2017    5       7       2.273674        245.6461
2017    6       0       1.334083        201.8908
2017    6       1       1.091569        182.9942
2017    6       2       1.198235        192.6609
2017    6       3       1.415568        207.743
2017    6       4       1.347875        203.9312
2017    6       5       1.647404        222.6015
2017    6       6       2.429422        251.4173
2017    6       7       2.583522        254.9969
2017    7       0       1.600547        220.7016
2017    7       1       1.367924        206.7227
2017    7       2       1.436559        211.652
2017    7       3       1.533636        217.9554
2017    7       4       1.923986        237.1865
2017    7       5       2.620484        258.0121
2017    7       6       1.466379        213.2651
2017    7       7       0.7660719       149.1957
2017    8       0       0.4739355       106.4683
2017    8       1       0.54706         117.7517
2017    8       2       0.4543403       102.5396
2017    8       3       0.4244348       97.05051
2017    8       4       0.3772975       88.52816
2017    8       5       0.3748036       87.95226
2017    8       6       0.4246856       96.56977
2017    8       7       0.4499355       100.6162
2017    9       0       0.443467        99.50134
2017    9       1       0.4761562       105.6161
2017    9       2       0.4956844       109.3941
2017    9       3       0.4435915       100.83
2017    9       4       0.3874832       90.86278
2017    9       5       0.432818        98.89684
2017    9       6       0.6526817       131.2421
2017    9       7       0.6708703       135.3914
2017    10      0       1.665246        223.4458
2017    10      1       2.377576        249.8914
2017    10      2       1.824873        229.704
2017    10      3       0.5556853       117.5103
2017    10      4       0.4299313       96.39256
2017    10      5       0.3778891       87.2674
2017    10      6       0.3897365       89.55253
2017    10      7       0.3207816       77.0601
2017    11      0       0.2352988       60.15053
2017    11      1       0.3456296       81.9976
2017    11      2       0.3668259       86.13302
2017    11      3       0.3665165       85.91984
2017    11      4       0.3692973       86.33482
2017    11      5       0.3664127       85.72543
2017    11      6       0.3393092       80.49208
2017    11      7       0.3871142       88.95946
2017    12      0       0.3716424       86.03346
2017    12      1       0.4613831       101.9726
2017    12      2       0.5397889       115.1314
2017    12      3       0.5287016       113.6896
2017    12      4       0.477642        105.2886
2017    12      5       0.5368165       114.5063
2017    12      6       0.6898489       135.8497
2017    12      7       1.106283        180.7821
2017    13      0       1.189326        188.3005
2017    13      1       0.9486376       168.0498
2017    13      2       1.573519        216.6417
2017    13      3       2.003796        237.4343
2017    13      4       1.250512        195.9467
2017    13      5       0.7104926       139.407
2017    13      6       0.5667469       118.6117
2017    13      7       0.4786251       104.5512
2017    14      0       0.3080523       73.98417
2017    14      1       0.374482        86.33096
2017    14      2       0.4052974       91.71158
2017    14      3       0.3858578       87.9765
2017    14      4       0.381651        86.92201
2017    14      5       0.4282972       95.05432
2017    14      6       0.530031        111.3552
2017    14      7       0.4435818       97.13559
2017    15      0       0.3281881       76.59131
2017    15      1       0.304998        72.26092
2017    15      2       0.3166065       74.587
2017    15      3       0.2839204       68.29001
2017    15      4       0.2627301       64.12198
2017    15      5       0.2787512       67.09693
2017    15      6       0.2918909       69.49323
2017    15      7       0.2725281       65.61476
2017    16      0       0.2317855       57.60772
2017    16      1       0.2929562       69.73219
2017    16      2       0.3163428       74.48249
2017    16      3       0.3019038       71.89787
2017    16      4       0.260163        63.79623
2017    16      5       0.2388412       59.57918
2017    16      6       0.2434041       60.52974
2017    16      7       0.2608311       64.21377
2017    17      0       0.3548157       82.30636
2017    17      1       0.5093491       108.0123
2017    17      2       0.7647324       144.342
2017    17      3       1.305841        196.7343
2017    17      4       0.9848381       167.9518
2017    17      5       0.3894891       87.88658
2017    17      6       0.1889277       49.22007
2017    17      7       0.1219252       34.29798
2017    18      0       0.1325437       36.54971
2017    18      1       0.1926517       49.51239
2017    18      2       0.1936504       49.67276
2017    18      3       0.1967786       50.2392
2017    18      4       0.2015838       51.18031
2017    18      5       0.2240344       55.72973
2017    18      6       0.1588882       42.19903
2017    18      7       0.1796629       46.88221
2017    19      0       0.2087342       53.09213
2017    19      1       0.2268677       56.77795
2017    19      2       0.2826765       68.08862
2017    19      3       0.3245419       75.66624
2017    19      4       0.2887127       68.7164
2017    19      5       0.3415177       78.56237
2017    19      6       0.3558126       81.38971
2017    19      7       0.2279934       57.14424
2017    20      0       0.3112584       73.51255
2017    20      1       0.4103742       91.44364
2017    20      2       0.7716092       143.6116
2017    20      3       0.4989438       106.6331
2017    20      4       0.2571403       63.46266
2017    20      5       0.2210971       56.23696
2017    20      6       0.2166539       55.38945
2017    20      7       0.2198859       56.16706
2017    21      0       0.232494        58.94631
2017    21      1       0.2974312       71.8397
2017    21      2       0.3711875       85.73438
2017    21      3       0.3728441       86.06212
2017    21      4       0.4398894       98.07229
2017    21      5       0.7477257       143.0543
2017    21      6       1.102824        180.4346
2017    21      7       1.757704        223.6632
2017    22      0       1.562776        213.6109
2017    22      1       1.346529        199.6158
2017    22      2       0.526831        111.2267
2017    22      3       0.2717073       66.27168
2017    22      4       0.2559732       62.9609
2017    22      5       0.2216939       55.85051
2017    22      6       0.1689137       44.53284
2017    22      7       0.2462252       60.18076
2017    23      0       0.6074625       120.2477
2017    23      1       0.38445         85.87597
2017    23      2       0.2953298       69.89878
2017    23      3       0.2667851       64.20393
2017    23      4       0.3137685       72.98878
2017    23      5       0.5460601       111.2334
2017    23      6       0.4839773       102.1212
2017    23      7       0.3143002       73.05035
2017    24      0       0.2299851       56.39755
2017    24      1       0.2609765       63.07142
2017    24      2       0.3478778       79.71061
2017    24      3       0.3957213       88.27903
2017    24      4       0.35468         80.99973
2017    24      5       0.3738864       84.4775
2017    24      6       0.4293612       94.07772
2017    24      7       0.5122763       107.4082
2017    25      0       0.6006991       120.893
2017    25      1       0.7633167       142.7283
2017    25      2       1.036709        172.451
2017    25      3       1.616479        214.8586
2017    25      4       0.8321924       151.7399
2017    25      5       0.6158762       123.5546
2017    25      6       0.575449        117.8575
2017    25      7       0.5015914       106.4604
2017    26      0       0.5650575       115.531
2017    26      1       0.4476621       98.0727
2017    26      2       0.3703818       85.39245
2017    26      3       0.2873793       70.0901
2017    26      4       0.2045884       53.29286
2017    26      5       0.1514155       41.62219
2017    26      6       0.1201209       34.36397
2017    26      7       0.2280168       58.26557
2017    27      0       0.1388432       38.66975
2017    27      1       0.2189727       56.34673
2017    27      2       0.2843176       69.93887
2017    27      3       0.2455718       62.40868
2017    27      4       0.3029869       73.81925
2017    27      5       0.5173219       111.5443
2017    27      6       0.5816431       121.931
2017    27      7       0.5465711       116.215
2017    28      0       0.6611036       131.2473
2017    28      1       0.725347        140.9548
2017    28      2       1.078312        179.8845
2017    28      3       1.650852        220.8293
2017    28      4       1.37078         204.6106
2017    28      5       1.365128        203.1842
2017    28      6       0.3245945       77.39209
2017    28      7       0.1402536       38.30873
2017    29      0       0.1165291       33.0754
2017    29      1       0.1516908       40.97192
2017    29      2       0.2143177       54.04021
2017    29      3       0.2639547       63.26459
2017    29      4       0.3167264       73.24794
2017    29      5       0.2385649       58.80833
2017    29      6       0.180989        47.00932
2017    29      7       0.2069905       52.05778
2017    30      0       0.1921162       49.13247
2017    30      1       0.1652387       43.69841
2017    30      2       0.1584904       42.46817
2017    30      3       0.1613629       42.98919
2017    30      4       0.1644514       43.5233
2017    30      5       0.1993475       50.90446
2017    30      6       0.1099883       31.35864
2017    30      7       0.1298415       35.87144
2018    1       0       0.5121842       110.8496
2018    1       1       0.5090989       111.0539
2018    1       2       0.5675811       120.7412
2018    1       3       0.5324086       115.5656
2018    1       4       0.5368995       116.2691
2018    1       5       0.5444913       117.5407
2018    1       6       0.5250009       114.6916
2018    1       7       0.5155538       113.2961
2018    2       0       0.4927742       109.6609
2018    2       1       0.59367         125.4577
2018    2       2       0.6413346       132.8301
2018    2       3       0.6332202       131.8675
2018    2       4       0.6529895       134.8131
2018    2       5       0.6784893       138.4043
2018    2       6       0.6518642       134.7139
2018    2       7       0.7179389       143.8603
2018    3       0       0.8647121       162.155
2018    3       1       1.028206        179.2554
2018    3       2       1.013081        178.3948
2018    3       3       0.9821223       175.4851
2018    3       4       0.9430158       171.384
2018    3       5       0.9598036       173.0333
2018    3       6       0.9483707       171.6967
2018    3       7       0.8461648       160.2281
2018    4       0       0.7412543       147.0931
2018    4       1       0.7464569       147.3724
2018    4       2       0.7825434       152.2377
2018    4       3       0.8144841       155.883
2018    4       4       0.8505155       159.4341
2018    4       5       0.8497664       158.6805
2018    4       6       0.8084626       153.8261
2018    4       7       0.8553639       159.4325
2018    5       0       0.8811395       162.6995
2018    5       1       0.9542715       170.3312
2018    5       2       0.9935818       174.983
2018    5       3       1.063904        181.8225
2018    5       4       1.200249        193.3179
2018    5       5       1.281849        199.6725
2018    5       6       1.378568        206.2793
2018    5       7       1.43356         209.6399
2018    6       0       1.425279        209.2045
2018    6       1       1.475831        212.1038
2018    6       2       1.555969        217.7829
2018    6       3       1.451098        211.2511
2018    6       4       1.56642         218.1398
2018    6       5       1.868537        232.4263
2018    6       6       1.865782        232.1082
2018    6       7       1.717019        225.7038
2018    7       0       1.94818         236.8633
2018    7       1       1.708571        226.5534
2018    7       2       1.618021        221.5121
2018    7       3       1.60032         220.8323
2018    7       4       1.634421        222.7059
2018    7       5       1.791006        229.9182
2018    7       6       1.988873        237.6606
2018    7       7       2.078943        241.4239
2018    8       0       2.136077        243.6758
2018    8       1       2.029954        241.3371
2018    8       2       2.265545        248.8907
2018    8       3       2.781529        263.0796
2018    8       4       2.420754        253.835
2018    8       5       2.184099        243.112
2018    8       6       1.733701        225.3272
2018    8       7       1.312107        200.3717
2018    9       0       1.103914        183.9453
2018    9       1       0.9808595       172.512
2018    9       2       0.7450995       145.6951
2018    9       3       0.9552912       169.7314
2018    9       4       1.062325        179.8542
2018    9       5       1.190618        190.7274
2018    9       6       1.097753        183.5261
2018    9       7       1.187645        191.6152
2018    10      0       1.289923        199.6325
2018    10      1       0.8880104       162.6902
2018    10      2       0.6486908       133.1407
2018    10      3       0.6233692       129.5865
2018    10      4       0.5473398       117.913
2018    10      5       0.5334294       115.2837
2018    10      6       0.5696875       120.4566
2018    10      7       0.5289148       113.7693
2018    11      0       0.5418119       115.1083
2018    11      1       0.76328         143.8478
2018    11      2       0.7236988       139.8211
2018    11      3       0.6591822       132.2386
2018    11      4       0.7245101       140.7047
2018    11      5       0.6578647       132.2355
2018    11      6       0.4764259       105.4701
2018    11      7       0.3727017       87.6623
2018    12      0       0.5022754       109.8171
2018    12      1       0.7343339       143.0125
2018    12      2       0.801928        151.8856
2018    12      3       0.8033185       152.138
2018    12      4       0.8287212       154.9886
2018    12      5       0.866967        159.1585
2018    12      6       0.8940573       161.9078
2018    12      7       0.8886756       161.1192
2018    13      0       0.8633817       158.1527
2018    13      1       0.8622273       157.9546
2018    13      2       0.8019318       151.3304
2018    13      3       0.7727304       147.8223
2018    13      4       0.802478        151.3867
2018    13      5       0.8289705       154.5188
2018    13      6       0.8218128       153.6537
2018    13      7       0.8143661       152.8889
2018    14      0       0.8006613       151.4744
2018    14      1       0.830282        154.9997
2018    14      2       0.8022843       152.1053
2018    14      3       0.7995728       151.8534
2018    14      4       0.7903552       150.6519
2018    14      5       0.7835105       149.6859
2018    14      6       0.7852293       149.8452
2018    14      7       0.7698581       147.8057
2018    15      0       0.7171488       140.9122
2018    15      1       0.7322779       142.6246
2018    15      2       0.8077101       151.6984
2018    15      3       0.7273058       141.9331
2018    15      4       0.6583368       131.9222
2018    15      5       0.718492        140.2941
2018    15      6       0.8983218       161.6581
2018    15      7       1.035296        175.3419
2018    16      0       1.179668        187.4006
2018    16      1       1.132699        183.8884
2018    16      2       0.9963386       171.8804
2018    16      3       0.6394861       129.842
2018    16      4       0.5035629       109.3622
2018    16      5       0.3938984       90.40665
2018    16      6       0.2460993       62.14839
2018    16      7       0.2300979       58.89073
2018    17      0       0.2231773       57.06956
2018    17      1       0.3992679       90.80651
2018    17      2       0.5136162       108.3927
2018    17      3       0.4196684       92.80923
2018    17      4       0.2426415       60.67783
2018    17      5       0.2441776       61.21065
2018    17      6       0.4897509       106.2669
2018    17      7       0.7254066       139.8915
2018    18      0       0.7594439       144.3479
2018    18      1       0.6591943       131.1218
2018    18      2       0.6395163       128.3262
2018    18      3       0.6378414       128.0131
2018    18      4       0.6295076       126.5419
2018    18      5       0.5836212       120.7902
2018    18      6       0.6038816       124.4638
2018    18      7       0.6993761       137.674
2018    19      0       0.5215618       112.0838
2018    19      1       0.4258126       96.23826
2018    19      2       0.3512037       82.88805
2018    19      3       0.3264023       78.02461
2018    19      4       0.3336773       78.99397
2018    19      5       0.2228926       56.77913
2018    19      6       0.2216409       56.56211
2018    19      7       0.2603566       64.47498
2018    20      0       0.302664        72.89291
2018    20      1       0.3429819       80.52364
2018    20      2       0.4817711       104.708
2018    20      3       0.6109913       124.5724
2018    20      4       0.7756438       146.8974
2018    20      5       1.080983        179.524
2018    20      6       1.427896        205.9968
2018    20      7       0.7700697       144.2233
2018    21      0       0.5668629       115.7518
2018    21      1       0.701751        134.4054
2018    21      2       0.5502538       112.9721
2018    21      3       0.5050842       105.6109
2018    21      4       0.3589742       82.23517
2018    21      5       0.2389537       60.04741
2018    21      6       0.2300836       57.84642
2018    21      7       0.1919816       49.63789
2018    22      0       0.251839        62.08692
2018    22      1       0.3327471       77.69652
2018    22      2       0.382651        86.77342
2018    22      3       0.2735982       66.39452
2018    22      4       0.2120735       53.92057
2018    22      5       0.2217721       56.01235
2018    22      6       0.1975072       50.88595
2018    22      7       0.1725914       45.61085
2018    23      0       0.1385822       38.1643
2018    23      1       0.2249376       56.56698
2018    23      2       0.3291062       75.97364
2018    23      3       0.2708951       65.7587
2018    23      4       0.3087412       72.79264
2018    23      5       0.454051        97.52879
2018    23      6       0.5900739       118.5734
2018    23      7       1.144346        182.5991
2018    24      0       0.7818069       144.575
2018    24      1       1.139159        182.0396
2018    24      2       1.662056        218.4877
2018    24      3       1.276118        195.1242
2018    24      4       0.9178877       163.1758
2018    24      5       0.8158132       151.8404
2018    24      6       0.9256545       164.0663
2018    24      7       0.9967386       171.2828
2018    25      0       0.9323166       164.9592
2018    25      1       0.9385436       165.715
2018    25      2       1.206476        190.3027
2018    25      3       1.053127        177.51
2018    25      4       0.7973794       150.7736
2018    25      5       0.7577513       146.0968
2018    25      6       0.754046        145.5556
2018    25      7       0.6728975       134.9439
2018    26      0       0.5315454       114.458
2018    26      1       0.5054912       110.46
2018    26      2       0.6642835       133.9597
2018    26      3       0.4867409       107.5035
2018    26      4       0.3851786       89.91557
2018    26      5       0.5010582       109.7912
2018    26      6       0.9022517       163.4993
2018    26      7       1.613607        219.2893
2018    27      0       1.360153        203.9829
2018    27      1       1.68943         223.4874
2018    27      2       0.9255258       164.7018
2018    27      3       0.285935        69.19217
2018    27      4       0.2838202       69.07328
2018    27      5       0.296099        71.54064
2018    27      6       0.1885457       48.38273
2018    27      7       0.2092328       52.51439
2018    28      0       0.175199        45.81098
2018    28      1       0.1953229       50.72937
2018    28      2       0.2463283       61.35631
2018    28      3       0.2197604       55.81072
2018    28      4       0.1947101       50.38583
2018    28      5       0.1922719       49.81621
2018    28      6       0.2255907       57.19732
2018    28      7       0.3890705       88.68557
2018    29      0       0.4330937       96.43396
2018    29      1       0.4042542       91.65624
2018    29      2       0.4091222       92.45916
2018    29      3       0.3635299       84.40387
2018    29      4       0.3075687       73.91833
2018    29      5       0.232806        58.95098
2018    29      6       0.1758237       46.57398
2018    29      7       0.1664897       44.48556
2018    30      0       0.1647146       43.9647
2018    30      1       0.2482572       61.50481
2018    30      2       0.3339653       78.4211
2018    30      3       1.036828        174.2716
2018    30      4       0.4104781       92.95591
2018    30      5       0.5389337       114.2417
2018    30      6       0.6761775       134.3553
2018    30      7       0.7381657       142.7984
