####################################################################################################
# Month: 06Jun                                                                                     #
# Station: ORG                                                                                     #
# Frequency: 230 GHz                                                                               #
# Columns are: year    day     tau     Tb (K)                                                      #
####################################################################################################
2009    1       0.9890931       171.6152875
2009    2       0.92226941      164.06405
2009    3       0.69596838      137.0729125
2009    4       0.52602851      111.95839375
2009    5       0.41676869      94.64277875
2009    6       0.90292725      159.8669125
2009    7       0.58937896      114.3965125
2009    8       0.40286636      91.27932875
2009    9       0.52543161      110.63334875
2009    10      0.77904271      143.7232625
2009    11      0.77582959      145.042775
2009    12      0.64135519      128.2925625
2009    13      0.93130015      162.906575
2009    14      0.88946781      158.5230875
2009    15      0.89527075      159.9677875
2009    16      0.74777631      143.697475
2009    17      0.93536894      164.620175
2009    18      0.50393669      106.9030675
2009    19      0.49603489      108.443925
2009    20      0.7843599       147.4139375
2009    21      0.62766721      125.7021
2009    22      0.32324918      74.76345625
2009    23      0.2509364       63.2890175
2009    24      0.38241806      90.96219125
2009    25      0.39883634      93.9370725
2009    26      0.39902196      93.237115
2009    27      0.26208531      66.83486125
2009    28      0.34018158      83.74431875
2009    29      0.40319146      95.14120125
2009    30      0.4295861       99.29690875
2010    1       0.80281318      149.31425
2010    2       0.94552734      165.9851875
2010    3       1.05942825      176.7936875
2010    4       1.14363888      185.5177625
2010    5       0.97385035      169.627275
2010    6       1.08522682      180.5763
2010    7       0.96646711      165.528275
2010    8       0.44377868      96.481485
2010    9       0.73855396      142.9734
2010    10      0.42777736      93.73913
2010    11      0.41703682      91.9734825
2010    12      0.27867542      68.7847825
2010    13      0.22476515      58.59594
2010    14      0.23956034      61.49469125
2010    15      0.48119361      104.1895275
2010    16      0.39377371      88.56209625
2010    17      0.30715836      72.70645625
2010    18      0.32445792      77.47283375
2010    19      0.42231574      95.47654875
2010    20      0.40071884      90.3793875
2010    21      0.2566517       63.6512925
2010    22      0.31876061      76.8472525
2010    23      0.44428716      99.42651625
2010    24      0.61232124      124.907095
2010    25      0.93938855      166.986125
2010    26      0.66303359      133.241775
2010    27      0.3576446       86.2701875
2010    28      0.38725584      92.27846625
2010    29      0.53585308      115.10954875
2010    30      0.49480589      107.755885
2011    1       0.4677126       100.61427375
2011    2       0.3994931       88.70220125
2011    3       0.24831504      60.92248
2011    4       0.42488794      93.443435
2011    5       0.54689372      115.0131
2011    6       0.5869187       121.6804375
2011    7       0.66544738      129.8474375
2011    8       0.36634075      82.6422675
2011    9       0.28289566      69.55813875
2011    10      0.44535964      98.0607475
2011    11      0.51647031      108.55979625
2011    12      0.50830149      104.8120875
2011    13      0.72725406      139.92180125
2011    14      0.28062977      69.9462125
2011    15      0.26422276      66.66862625
2011    16      0.30636562      73.17820875
2011    17      0.19730231      52.07935875
2011    18      0.61639531      119.470485
2011    19      0.66027205      124.18711625
2011    20      0.38322206      90.47248
2011    21      0.3351155       81.5877025
2011    22      0.47155865      106.6574625
2011    23      0.50348069      110.85581875
2011    24      0.42206324      96.06067875
2011    25      0.34693899      82.4273725
2011    26      0.47343366      104.47552
2011    27      0.45274144      102.1255275
2011    28      0.54740969      118.6062625
2011    29      0.88296772      160.6474125
2011    30      0.57190459      120.71565
2012    1       0.55316524      118.8242625
2012    2       0.58517876      121.027575
2012    3       0.71722048      139.949075
2012    4       0.56347196      119.5931875
2012    5       0.48761834      100.80335125
2012    6       0.25075564      61.4100575
2012    7       0.26610031      64.80850875
2012    8       0.56893332      117.65962625
2012    9       0.34250496      78.9185125
2012    10      0.21415901      54.4717575
2012    11      0.27434041      67.2460975
2012    12      0.4371561       97.91647875
2012    13      0.44701964      98.979775
2012    14      0.29907976      73.491965
2012    15      0.45885475      101.99862125
2012    16      0.26298214      65.1360375
2012    17      0.67646002      137.4593625
2012    18      0.27207417      68.31995
2012    19      0.20711877      54.3535775
2012    20      0.19681304      51.95376
2012    21      0.2846828       71.1912675
2012    22      0.39175504      90.47561625
2012    23      0.57751093      119.74080625
2012    24      0.36108192      84.654235
2012    25      0.36048165      85.5109875
2012    26      0.3571996       82.56059125
2012    27      0.22916755      59.0179125
2012    28      0.26589175      67.76903125
2012    29      0.30860634      76.8449475
2012    30      0.35005451      84.2518425
2013    1       0.35231369      83.25760875
2013    2       0.39089592      91.38021375
2013    3       0.19775226      51.93184125
2013    4       0.27222291      68.413445
2013    5       0.32667654      79.078365
2013    6       0.38914791      91.55429875
2013    7       0.5161143       113.28877375
2013    8       0.4780352       106.6533325
2013    9       0.40600091      95.6909175
2013    10      0.65531339      135.041075
2013    11      0.59857341      124.9778125
2013    12      0.31182916      76.3026275
2013    13      0.39426688      90.19986875
2013    14      0.22106718      55.31967
2013    15      0.17376181      47.09535625
2013    16      0.27892239      69.1935025
2013    17      0.3648115       86.99823
2013    18      0.32945908      79.96430875
2013    19      0.53804605      113.0483125
2013    20      0.35714506      82.24964875
2013    21      0.45456849      98.71735875
2013    22      0.36784151      85.819215
2013    23      0.53734899      113.51941875
2013    24      0.91341326      161.481275
2013    25      1.01283872      172.5761375
2013    26      0.82488964      154.3260375
2013    27      0.4408444       101.31022
2013    28      0.48197115      107.73511375
2013    29      0.68407532      140.5028375
2013    30      0.56603114      124.1127875
2014    1       0.30596942      73.871315
2014    2       0.35001909      83.0505925
2014    3       0.47136484      104.69043
2014    4       0.39003236      86.9423475
2014    5       0.17666152      48.09513375
2014    6       0.26557009      67.19620125
2014    7       0.3145666       76.9710925
2014    8       0.29617338      72.166625
2014    9       0.2595778       66.33144
2014    10      0.36147476      85.653435
2014    11      0.19276311      51.83597375
2014    12      0.32421015      78.172585
2014    13      0.28906052      71.22063875
2014    14      0.40170052      90.8025125
2014    15      0.47231936      102.47818625
2014    16      0.56857205      117.454215
2014    17      0.43333231      94.401665
2014    18      0.41210456      92.0876125
2014    19      0.34869121      82.18327875
2014    20      0.38760795      90.34808625
2014    21      0.39720551      92.07489
2014    22      0.42373431      96.71379625
2014    23      0.50322275      110.7719875
2014    24      0.71209167      138.7615125
2014    25      1.02549469      176.118225
2014    26      0.98100429      169.2762125
2014    27      0.79385789      148.4372
2014    28      0.42120104      96.25325625
2014    29      0.39224632      91.2670975
2014    30      0.33367465      80.89355375
2015    1       0.45976526      100.24202125
2015    2       0.52369832      112.35818125
2015    3       0.44806276      99.62188625
2015    4       0.58508731      119.969425
2015    5       0.57323595      119.28228125
2015    6       0.69347086      136.584475
2015    7       0.59679729      124.769175
2015    8       0.6538416       134.9997
2015    9       0.66780621      136.98475
2015    10      1.01072239      176.142825
2015    11      0.25848697      63.961375
2015    12      0.31845786      78.3853
2015    13      0.32404226      79.59776375
2015    14      0.32632202      79.39384375
2015    15      0.35343625      85.14168
2015    16      0.43337488      99.61916375
2015    17      0.43897699      100.46494375
2015    18      0.40903948      95.31444375
2015    19      0.33097088      80.21799375
2015    20      0.3505804       83.34969
2015    21      0.3218572       78.14493125
2015    22      0.34232805      82.42461875
2015    23      0.34429366      83.55378875
2015    24      0.37388456      89.39230125
2015    25      0.5630263       121.15545
2015    26      0.51424229      114.4643375
2015    27      0.80627019      153.001425
2015    28      0.7847535       152.1759375
2015    29      1.03354079      179.546225
2015    30      1.16979395      192.143475
2016    1       0.28686764      71.60889125
2016    2       0.46498106      104.41564125
2016    3       0.41115579      94.2264125
2016    4       0.27722068      70.7223675
2016    5       0.50904355      112.33145
2016    6       0.71374979      140.739175
2016    7       0.74411439      146.4239625
2016    8       0.63884704      128.24515875
2016    9       0.39728294      91.302125
2016    10      0.37680388      88.1016875
2016    11      0.28698468      69.88924
2016    12      0.24860301      61.92131625
2016    13      0.24245719      61.03495375
2016    14      0.57379813      117.7183325
2016    15      0.49864998      105.104005
2016    16      0.4877425       103.56849625
2016    17      0.40279866      91.3103575
2016    18      0.62361438      126.74418625
2016    19      0.26934151      67.35210375
2016    20      0.28228335      70.64886125
2016    21      0.29484472      73.2647675
2016    22      0.3721537       88.8405825
2016    23      0.33399667      81.3182825
2016    24      0.36250617      84.74945
2016    25      0.19183686      51.15115125
2016    26      0.23761238      61.7577
2016    27      0.29659896      74.3839775
2016    28      0.30539823      76.7144825
2016    29      0.5117511       112.06048625
2016    30      0.50562465      112.40089375
2017    1       0.79134224      148.4183375
2017    2       0.4892261       107.4500675
2017    3       0.46220201      103.93093
2017    4       0.4720323       104.82797
2017    5       0.44996996      99.517665
2017    6       0.3660075       86.87043
2017    7       0.43245877      99.3610825
2017    8       0.53988816      113.38472
2017    9       0.48070654      102.87908
2017    10      0.50802731      107.91142
2017    11      0.42330126      93.8161075
2017    12      0.77604288      145.3974875
2017    13      0.49053032      103.60171625
2017    14      0.29132006      71.40531125
2017    15      0.68775905      136.064775
2017    16      0.90465415      164.1646625
2017    17      0.8803766       158.8626375
2017    18      0.57152421      122.55595875
2017    19      0.53861107      117.70085
2017    20      0.74166698      148.0028125
2017    21      0.7031645       143.872875
2017    22      0.24935056      64.0329725
2017    23      0.18969599      51.57186
2017    24      0.19497085      53.133765
2017    25      0.19343702      52.759245
2017    26      0.4780138       106.734335
2017    27      0.42805374      98.38312375
2017    28      0.41485926      96.109175
2017    29      0.23110118      60.1242025
2017    30      0.22753321      59.72439625
2018    1       0.40255934      88.96102625
2018    2       0.2929264       72.4625475
2018    3       0.32805775      79.72352375
2018    4       0.43684475      99.8251775
2018    5       0.30668929      75.62651125
2018    6       0.39289916      90.3778875
2018    7       0.72316055      141.04645
2018    8       0.50449893      109.11544125
2018    9       0.46116548      101.71742625
2018    10      0.34140381      77.85091125
2018    11      0.330977        79.2510375
2018    12      0.2914949       72.50429625
2018    13      0.30876406      77.22519625
2018    14      0.45591569      103.34464625
2018    15      0.69607214      136.6531125
2018    16      0.50416234      106.6873725
2018    17      0.68790588      135.74495
2018    18      0.93018785      163.2634
2018    19      1.02243621      174.089525
2018    20      0.64629531      132.873225
2018    21      0.42624076      98.68216875
2018    22      0.43528465      99.87833625
2018    23      0.37549491      87.977295
2018    24      0.22562009      59.721085
2018    25      0.32279031      79.66241625
2018    26      0.4015774       94.12257125
2018    27      0.35509715      85.975275
2018    28      0.43199254      98.49982125
2018    29      0.45939514      101.55783125
2018    30      0.41427793      95.5042075
