####################################################################################################
# Month: 09Sep                                                                                     #
# Station: BAN                                                                                     #
# Frequency: 230 GHz                                                                               #
# Columns are: year    day     tau     Tb (K)                                                      #
####################################################################################################
2009    1       0.59449134      124.6433375
2009    2       0.85413928      154.6707475
2009    3       0.50851944      110.76550125
2009    4       0.78593039      148.1759875
2009    5       0.2540108       63.49871625
2009    6       0.75199896      142.4637
2009    7       0.58344644      119.02975625
2009    8       0.63143304      125.772525
2009    9       0.52236875      108.85079875
2009    10      0.48670845      103.59592125
2009    11      0.55230319      116.353085
2009    12      0.44391264      101.19466375
2009    13      0.30076222      74.77477125
2009    14      0.29263695      72.56771125
2009    15      0.4344223       98.2860825
2009    16      0.68080398      136.2371
2009    17      0.56876691      117.60715875
2009    18      0.32792036      76.414705
2009    19      0.6519232       127.0853325
2009    20      0.27808434      67.58484
2009    21      0.50276761      103.649635
2009    22      0.62489138      125.21169375
2009    23      0.25770241      65.55607625
2009    24      0.25060198      63.1617875
2009    25      0.31572711      74.24397875
2009    26      0.37890522      84.0603575
2009    27      0.21568815      53.73412125
2009    28      0.32727915      74.37903875
2009    29      0.36552772      82.50633125
2009    30      0.30055659      69.64742875
2010    1       0.41362581      91.67231875
2010    2       0.41579369      92.292355
2010    3       0.51963378      110.6236125
2010    4       0.33969295      78.50266625
2010    5       0.30685785      72.48837875
2010    6       0.16008789      42.61573625
2010    7       0.42787305      92.85674125
2010    8       0.31174029      73.83675125
2010    9       0.47914456      103.40480875
2010    10      0.38419796      87.067835
2010    11      0.38582702      85.8647975
2010    12      0.33164395      77.30583
2010    13      0.30947128      71.1424375
2010    14      0.26125498      63.68071125
2010    15      0.27076309      65.5085825
2010    16      0.18986908      48.3390775
2010    17      0.1087059       30.94079875
2010    18      0.17419853      45.20763125
2010    19      0.21955706      54.9462375
2010    20      0.37445242      82.8315475
2010    21      0.15677548      41.70495
2010    22      0.18926388      49.2756325
2010    23      0.17490796      46.44883
2010    24      0.34250806      78.83882
2010    25      0.79301712      146.5780025
2010    26      0.53876109      106.6099575
2010    27      0.53706718      108.65741625
2010    28      0.47584095      103.03083125
2010    29      0.23169954      57.62003875
2010    30      0.1674014       44.54643625
2011    1       0.41733071      91.6547675
2011    2       0.51089086      107.0780875
2011    3       0.40264819      91.349955
2011    4       0.48693749      105.207985
2011    5       0.47502554      103.00629625
2011    6       0.63366558      128.701825
2011    7       0.70418781      140.30425
2011    8       0.61547905      128.2511375
2011    9       0.54704106      117.431025
2011    10      0.37142339      86.51811625
2011    11      0.55414201      108.5643275
2011    12      0.20599519      53.35258125
2011    13      0.24762514      61.62400625
2011    14      0.36167632      83.796895
2011    15      0.42225658      94.65120875
2011    16      0.7456181       140.88795
2011    17      0.5025148       103.930845
2011    18      0.30843575      71.79190875
2011    19      0.37082949      83.6282825
2011    20      0.30149019      71.53346875
2011    21      0.65667985      128.31776
2011    22      0.49724975      100.06315
2011    23      0.78185612      145.7455525
2011    24      0.75646039      144.2033625
2011    25      0.59566304      119.050215
2011    26      0.29453361      67.9127125
2011    27      0.41644854      91.8219125
2011    28      0.41781786      92.25177125
2011    29      0.264698        62.2656125
2011    30      0.41093722      92.166535
2012    1       0.41078488      92.72035375
2012    2       0.62896218      125.31531125
2012    3       0.33769165      78.9965575
2012    4       0.51022868      106.85844625
2012    5       0.4324934       93.76306625
2012    6       0.28708121      70.11187625
2012    7       0.36478655      85.61593875
2012    8       0.28307722      70.00006375
2012    9       0.59823206      120.68149
2012    10      0.54571134      112.70119875
2012    11      0.24285552      58.99722625
2012    12      0.30190719      69.7312175
2012    13      0.47485892      102.987155
2012    14      0.3109679       72.28644375
2012    15      0.27587582      66.55273125
2012    16      0.26831377      65.0597775
2012    17      0.43248157      93.9375475
2012    18      0.28664194      66.02340125
2012    19      0.40467492      88.16489125
2012    20      0.50266494      109.32799625
2012    21      0.32043735      78.88770625
2012    22      0.36378171      87.08315625
2012    23      0.297783        73.91765
2012    24      0.29402142      71.44643125
2012    25      0.63448237      124.84438875
2012    26      0.22512565      57.1579125
2012    27      0.32999699      76.6647875
2012    28      0.67128755      134.7108125
2012    29      0.26672904      57.66396625
2012    30      0.21852543      54.6813375
2013    1       0.52256559      112.5910625
2013    2       0.48150763      106.290385
2013    3       0.34776259      83.38110375
2013    4       0.47146176      104.78962
2013    5       0.30689809      74.06691875
2013    6       0.60842331      126.3238625
2013    7       0.43914512      100.22366375
2013    8       0.29777691      74.0153425
2013    9       0.31039969      75.4350375
2013    10      0.38380799      87.46779
2013    11      0.4553795       102.22420875
2013    12      0.33262936      81.10317375
2013    13      0.51888435      114.2911625
2013    14      0.46809267      104.6520625
2013    15      0.39315332      91.82703875
2013    16      0.66807871      130.7118275
2013    17      0.8411965       146.76414875
2013    18      0.31143686      74.4744975
2013    19      0.35172219      81.364675
2013    20      0.47178742      103.4839575
2013    21      0.6206504       124.0805425
2013    22      0.35082912      80.2840925
2013    23      0.48748718      104.10557625
2013    24      0.30167141      70.81977875
2013    25      0.35212         80.79526625
2013    26      0.21911562      55.39104
2013    27      0.41656591      89.192075
2013    28      0.39995029      88.3340325
2013    29      0.47279899      99.173195
2013    30      0.39504731      88.5442675
2014    1       0.5912255       119.6194
2014    2       0.61924012      123.316175
2014    3       0.4337098       94.59833375
2014    4       0.35574082      82.68788875
2014    5       0.4395466       96.75156875
2014    6       0.521344        111.0068025
2014    7       0.69202175      134.2743
2014    8       0.38359888      84.206835
2014    9       0.21812436      54.5484475
2014    10      0.1960048       48.92321375
2014    11      0.10153566      28.54433
2014    12      0.47769691      101.84157875
2014    13      0.28924691      67.56667125
2014    14      0.33800775      78.759085
2014    15      0.36345669      84.91732625
2014    16      0.30224381      73.861565
2014    17      0.4680683       102.97381875
2014    18      0.66974022      131.96725
2014    19      0.51590522      107.6404075
2014    20      0.40677234      89.66451625
2014    21      0.44765719      100.10925375
2014    22      0.44839024      100.55974875
2014    23      0.37218231      82.4769625
2014    24      0.77438104      141.301115
2014    25      0.35219698      81.24024125
2014    26      0.57782746      117.24898375
2014    27      0.34837904      79.0303575
2014    28      0.37396922      84.23210625
2014    29      0.4939353       107.55389125
2014    30      0.53014236      109.26455
2015    1       0.40133285      87.9823925
2015    2       0.49730361      103.7810525
2015    3       0.3691001       82.89667625
2015    4       0.25796395      63.29551625
2015    5       0.16658868      44.24196875
2015    6       0.15597706      41.81799
2015    7       0.23184705      57.79636875
2015    8       0.42498391      92.46339625
2015    9       0.48858426      104.5288775
2015    10      0.33717812      78.78474125
2015    11      0.46055789      100.65905375
2015    12      0.62920423      124.98958125
2015    13      0.41054168      90.71523625
2015    14      0.27155657      64.6867225
2015    15      0.23447092      56.68696125
2015    16      0.29299542      68.97426125
2015    17      0.28658839      68.3711675
2015    18      0.35940351      81.9529575
2015    19      0.51513429      108.7790175
2015    20      0.17798009      45.87372
2015    21      0.2783433       65.999675
2015    22      0.27569544      65.6934025
2015    23      0.32532378      75.49575125
2015    24      0.3534943       81.164185
2015    25      0.46364628      93.8553575
2015    26      0.16902688      44.3976
2015    27      0.18420168      46.34241375
2015    28      0.30484753      70.71586125
2015    29      0.59327439      121.12363375
2015    30      0.59915036      125.268275
2016    1       0.85370102      154.0233625
2016    2       0.27672446      67.824855
2016    3       0.42292734      93.1137975
2016    4       0.29875579      69.10914875
2016    5       0.31345042      73.2112725
2016    6       0.40420798      90.07046
2016    7       0.3565271       82.0529025
2016    8       0.38890791      87.327225
2016    9       0.34559756      79.25049875
2016    10      0.41754601      86.89465375
2016    11      0.36956493      83.14911
2016    12      0.12681196      35.00279125
2016    13      0.35618995      82.95158375
2016    14      0.34088157      78.8610475
2016    15      0.43316318      98.08114125
2016    16      0.55736909      116.41278625
2016    17      0.45914039      99.45662375
2016    18      0.51777005      108.22224875
2016    19      0.41367749      91.67708125
2016    20      0.4782066       101.5491325
2016    21      0.2412169       59.96458
2016    22      0.1691658       44.86001125
2016    23      0.28001547      67.61708
2016    24      0.26179169      63.18126875
2016    25      0.2774001       63.89922875
2016    26      0.4287393       94.9558
2016    27      0.52235859      102.58255875
2016    28      0.2175563       54.7030725
2016    29      0.11209154      32.07655625
2016    30      0.31924868      74.95823375
2017    1       0.33062212      77.57131875
2017    2       0.47932241      98.56628875
2017    3       0.28629866      69.41055
2017    4       0.20949135      53.70343125
2017    5       0.36067695      85.44171125
2017    6       0.31147901      76.25507625
2017    7       0.49670845      106.51256625
2017    8       0.90952022      161.373525
2017    9       0.84285766      153.4038375
2017    10      0.35196896      81.4147725
2017    11      0.75054698      138.51545
2017    12      0.28685424      69.05526
2017    13      0.33868584      77.875165
2017    14      0.3094004       72.06067125
2017    15      0.14008261      38.1170375
2017    16      0.2335902       58.92156875
2017    17      0.37044195      84.90060625
2017    18      0.50880014      107.29522875
2017    19      0.53951795      110.93692625
2017    20      0.57378543      115.61472125
2017    21      0.34849184      75.84014375
2017    22      0.13677445      37.6638575
2017    23      0.28058008      67.60931375
2017    24      0.438676        96.5896575
2017    25      0.53561389      112.7731675
2017    26      0.22672791      56.7833775
2017    27      0.52196438      110.75710125
2017    28      0.22027985      57.15218625
2017    29      0.25156494      63.95679
2017    30      0.53742901      109.77576375
2018    1       0.38802811      85.67808
2018    2       0.32129378      74.5792975
2018    3       0.37838205      84.25553875
2018    4       0.14464631      38.92731625
2018    5       0.17487207      45.55743875
2018    6       0.39711862      89.01425375
2018    7       0.55039171      113.30282875
2018    8       0.76412711      143.4410375
2018    9       0.62037298      124.3174375
2018    10      0.55997439      114.7125125
2018    11      0.38924011      87.5319325
2018    12      0.33462102      75.143175
2018    13      0.09524569      27.37815875
2018    14      0.11685335      32.05310875
2018    15      0.1994269       49.83775875
2018    16      0.40601111      89.614165
2018    17      0.34464689      79.02829
2018    18      0.34668716      78.93930125
2018    19      0.18173576      47.38950625
2018    20      0.21169185      53.26078875
2018    21      0.17962836      46.0359125
2018    22      0.13029893      35.8651025
2018    23      0.165649        43.6047475
2018    24      0.34846552      79.8819925
2018    25      0.29653598      70.8748375
2018    26      0.42349304      91.8661625
2018    27      0.19011669      48.7941425
2018    28      0.18030536      46.34823875
2018    29      0.15152729      40.03786375
2018    30      0.12039205      33.50684125
