####################################################################################################
# Month: 08Aug                                                                                     #
# Station: GLTS                                                                                    #
# Frequency: 230 GHz                                                                               #
# Columns are: year    day     segment         tau     Tb (K)                                      #
####################################################################################################
2009    1       0       0.1635901       42.65517
2009    1       1       0.1606269       41.99307
2009    1       2       0.1473134       39.13663
2009    1       3       0.1413557       37.85794
2009    1       4       0.146069        38.80068
2009    1       5       0.1619594       42.20273
2009    1       6       0.1678983       43.60479
2009    1       7       0.1822042       46.62685
2009    2       0       0.2028946       50.96505
2009    2       1       0.2569987       61.58914
2009    2       2       0.2192237       54.33162
2009    2       3       0.193126        49.06407
2009    2       4       0.1847485       47.24113
2009    2       5       0.1973742       49.65815
2009    2       6       0.1726744       44.59761
2009    2       7       0.1607182       42.10058
2009    3       0       0.1646631       42.90663
2009    3       1       0.1856928       47.25169
2009    3       2       0.1675788       43.34232
2009    3       3       0.1873641       47.56412
2009    3       4       0.1873836       47.60992
2009    3       5       0.2126147       52.81745
2009    3       6       0.2098191       52.26168
2009    3       7       0.2265647       55.67515
2009    4       0       0.2517473       60.78964
2009    4       1       0.2540248       61.23902
2009    4       2       0.2267982       55.88888
2009    4       3       0.2672511       63.97597
2009    4       4       0.3165579       73.34861
2009    4       5       0.2270903       56.26224
2009    4       6       0.2220726       55.11741
2009    4       7       0.269264        64.14808
2009    5       0       0.2428015       59.13934
2009    5       1       0.2006404       50.56526
2009    5       2       0.1594968       41.92123
2009    5       3       0.1350867       36.65553
2009    5       4       0.137253        37.15478
2009    5       5       0.1405869       37.81633
2009    5       6       0.1341834       36.39722
2009    5       7       0.1230029       33.96128
2009    6       0       0.1118635       31.54359
2009    6       1       0.1058085       30.20304
2009    6       2       0.1303555       35.64185
2009    6       3       0.163579        42.68934
2009    6       4       0.2005119       50.57137
2009    6       5       0.2176527       54.13189
2009    6       6       0.2987267       69.59719
2009    6       7       0.2981369       69.41163
2009    7       0       0.1951996       49.43685
2009    7       1       0.1742675       45.08667
2009    7       2       0.1836463       46.95072
2009    7       3       0.1807744       46.24881
2009    7       4       0.1768237       45.40322
2009    7       5       0.1574273       41.30276
2009    7       6       0.1378002       37.07148
2009    7       7       0.1386431       37.27928
2009    8       0       0.1542858       40.68986
2009    8       1       0.1697702       43.96096
2009    8       2       0.1476753       39.22149
2009    8       3       0.1448095       38.6706
2009    8       4       0.1445852       38.57083
2009    8       5       0.1447876       38.5678
2009    8       6       0.1468612       39.00825
2009    8       7       0.1494815       39.59214
2009    9       0       0.1842733       47.00048
2009    9       1       0.1849941       47.00667
2009    9       2       0.1585717       41.39967
2009    9       3       0.1369486       36.74145
2009    9       4       0.1310776       35.45571
2009    9       5       0.1194355       32.91015
2009    9       6       0.1141565       31.72296
2009    9       7       0.114218        31.70084
2009    10      0       0.1148108       31.78912
2009    10      1       0.1144158       31.6654
2009    10      2       0.1139372       31.57039
2009    10      3       0.1151671       31.84683
2009    10      4       0.118547        32.59382
2009    10      5       0.1236819       33.73153
2009    10      6       0.1287605       34.83137
2009    10      7       0.1302578       35.16711
2009    11      0       0.1290494       34.86765
2009    11      1       0.1320315       35.47296
2009    11      2       0.1304441       35.18211
2009    11      3       0.1271722       34.52136
2009    11      4       0.1219558       33.35527
2009    11      5       0.1250353       34.04785
2009    11      6       0.1283343       34.76132
2009    11      7       0.1344044       36.10251
2009    12      0       0.1280238       34.6757
2009    12      1       0.1245239       33.88922
2009    12      2       0.1251425       33.99232
2009    12      3       0.1249459       33.9343
2009    12      4       0.1243428       33.83301
2009    12      5       0.124482        33.88666
2009    12      6       0.126739        34.41551
2009    12      7       0.1240339       33.85279
2009    13      0       0.1218626       33.387
2009    13      1       0.1215661       33.32039
2009    13      2       0.114484        31.80608
2009    13      3       0.1068564       30.1357
2009    13      4       0.1115738       31.18011
2009    13      5       0.1152097       31.9546
2009    13      6       0.1340672       36.06204
2009    13      7       0.1571569       41.12938
2009    14      0       0.1711377       44.17348
2009    14      1       0.1787042       45.60479
2009    14      2       0.1653373       42.73967
2009    14      3       0.1561192       40.77982
2009    14      4       0.1454214       38.43386
2009    14      5       0.1535433       40.14909
2009    14      6       0.1488926       39.17181
2009    14      7       0.1498605       39.38604
2009    15      0       0.1708021       43.84978
2009    15      1       0.2185407       53.65825
2009    15      2       0.2481679       59.6983
2009    15      3       0.2535034       60.75527
2009    15      4       0.2371901       57.58635
2009    15      5       0.2239728       54.94056
2009    15      6       0.2125312       52.68197
2009    15      7       0.2122321       52.61941
2009    16      0       0.1928485       48.67405
2009    16      1       0.1772865       45.34872
2009    16      2       0.1892518       47.73753
2009    16      3       0.1962871       49.16693
2009    16      4       0.2013702       49.97307
2009    16      5       0.2091312       51.46278
2009    16      6       0.1752999       44.63125
2009    16      7       0.1437425       37.97288
2009    17      0       0.1305516       35.10985
2009    17      1       0.1305291       35.08253
2009    17      2       0.1307987       35.03953
2009    17      3       0.1262158       34.0065
2009    17      4       0.1291344       34.61946
2009    17      5       0.1371666       36.29707
2009    17      6       0.1310058       34.97555
2009    17      7       0.1220381       33.02842
2009    18      0       0.1195953       32.48206
2009    18      1       0.1121532       30.8427
2009    18      2       0.1050319       29.2592
2009    18      3       0.09486756      26.96496
2009    18      4       0.08629603      24.99981
2009    18      5       0.08547641      24.78492
2009    18      6       0.08652787      25.01086
2009    18      7       0.09212018      26.28509
2009    19      0       0.0932493       26.57589
2009    19      1       0.09440436      26.8545
2009    19      2       0.09250009      26.41739
2009    19      3       0.08723628      25.22375
2009    19      4       0.08348167      24.3303
2009    19      5       0.08274915      24.1304
2009    19      6       0.08187097      23.92055
2009    19      7       0.0797507       23.43186
2009    20      0       0.07919918      23.33253
2009    20      1       0.07920683      23.36719
2009    20      2       0.08179788      23.97952
2009    20      3       0.09393511      26.77037
2009    20      4       0.09703163      27.50609
2009    20      5       0.09824757      27.8209
2009    20      6       0.1021549       28.71522
2009    20      7       0.103102        28.94987
2009    21      0       0.09816185      27.86236
2009    21      1       0.09346174      26.81042
2009    21      2       0.09138343      26.38114
2009    21      3       0.08727021      25.40965
2009    21      4       0.08102834      24.01529
2009    21      5       0.0806661       23.91472
2009    21      6       0.083039        24.43709
2009    21      7       0.0861863       25.16174
2009    22      0       0.09166351      26.46754
2009    22      1       0.11019         30.70108
2009    22      2       0.1293603       34.96403
2009    22      3       0.1433221       37.91875
2009    22      4       0.1590298       41.37867
2009    22      5       0.1598675       41.49832
2009    22      6       0.1683596       43.15147
2009    22      7       0.151523        39.65857
2009    23      0       0.1584999       41.2306
2009    23      1       0.1479319       38.91525
2009    23      2       0.1259826       34.16158
2009    23      3       0.1254723       34.06769
2009    23      4       0.1172238       32.31517
2009    23      5       0.1100258       30.74976
2009    23      6       0.09917939      28.28709
2009    23      7       0.08757277      25.62082
2009    24      0       0.07612072      22.96674
2009    24      1       0.07328966      22.28753
2009    24      2       0.07313134      22.28251
2009    24      3       0.07410848      22.54278
2009    24      4       0.07460345      22.68409
2009    24      5       0.07628892      23.09431
2009    24      6       0.0798209       23.92961
2009    24      7       0.08165477      24.37371
2009    25      0       0.08197845      24.43912
2009    25      1       0.08459022      25.08016
2009    25      2       0.0888223       26.15227
2009    25      3       0.08861019      26.19054
2009    25      4       0.09056368      26.68727
2009    25      5       0.0956621       27.96006
2009    25      6       0.1037985       29.85681
2009    25      7       0.1161558       32.52002
2009    26      0       0.1267883       34.79882
2009    26      1       0.1364081       36.91092
2009    26      2       0.1415771       38.1825
2009    26      3       0.1353998       36.80718
2009    26      4       0.152652        40.43757
2009    26      5       0.1883753       48.38093
2009    26      6       0.1953376       49.73092
2009    26      7       0.1731595       44.89661
2009    27      0       0.2147998       53.30605
2009    27      1       0.2218921       54.84339
2009    27      2       0.2025637       50.97015
2009    27      3       0.2287398       56.11163
2009    27      4       0.2533254       60.63471
2009    27      5       0.1900797       48.15642
2009    27      6       0.1725343       44.5144
2009    27      7       0.1655272       42.91678
2009    28      0       0.1591692       41.42535
2009    28      1       0.1410469       37.56894
2009    28      2       0.1374716       36.78624
2009    28      3       0.1437626       38.09312
2009    28      4       0.1557054       40.62952
2009    28      5       0.152002        39.91233
2009    28      6       0.1521012       39.97507
2009    28      7       0.1438797       38.18289
2009    29      0       0.1264008       34.41876
2009    29      1       0.1215997       33.40934
2009    29      2       0.1222273       33.59616
2009    29      3       0.116817        32.42931
2009    29      4       0.1066361       30.19789
2009    29      5       0.1064048       30.20312
2009    29      6       0.1046746       29.79196
2009    29      7       0.1016788       29.08766
2009    30      0       0.09715303      28.02044
2009    30      1       0.09527705      27.55323
2009    30      2       0.09714786      27.97589
2009    30      3       0.09723556      27.99858
2009    30      4       0.09363101      27.17595
2009    30      5       0.09205322      26.78831
2009    30      6       0.09309917      27.04394
2009    30      7       0.09207758      26.825
2009    31      0       0.09524467      27.53287
2009    31      1       0.1037652       29.44898
2009    31      2       0.1114635       31.16303
2009    31      3       0.1190428       32.8483
2009    31      4       0.1249735       34.14752
2009    31      5       0.1273756       34.65382
2009    31      6       0.1293212       35.0185
2009    31      7       0.1419707       37.6334
2010    1       0       0.2744585       66.02876
2010    1       1       0.3102289       72.55109
2010    1       2       0.2841487       67.64908
2010    1       3       0.2503454       61.03022
2010    1       4       0.2391495       58.73187
2010    1       5       0.2777658       66.026
2010    1       6       0.2946816       69.47036
2010    1       7       0.2543915       61.55457
2010    2       0       0.2647978       63.23281
2010    2       1       0.2709402       64.43485
2010    2       2       0.2261459       55.78231
2010    2       3       0.2183624       54.24945
2010    2       4       0.2400605       58.37419
2010    2       5       0.2035311       51.13047
2010    2       6       0.1855958       47.63179
2010    2       7       0.1963844       49.7636
2010    3       0       0.19882         50.1218
2010    3       1       0.2062144       51.36518
2010    3       2       0.172702        44.53104
2010    3       3       0.1615696       42.22882
2010    3       4       0.1690781       43.7673
2010    3       5       0.2048486       50.96687
2010    3       6       0.2560275       61.22148
2010    3       7       0.2904525       67.83457
2010    4       0       0.3169904       72.58451
2010    4       1       0.240076        58.21471
2010    4       2       0.1601596       41.94298
2010    4       3       0.143306        38.27896
2010    4       4       0.1401702       37.48568
2010    4       5       0.1328187       35.87454
2010    4       6       0.1211258       33.30318
2010    4       7       0.1261512       34.32788
2010    5       0       0.143445        38.04984
2010    5       1       0.1220519       33.38462
2010    5       2       0.17044         43.98734
2010    5       3       0.1738288       44.76627
2010    5       4       0.1894028       47.82268
2010    5       5       0.2186928       53.61425
2010    5       6       0.1901898       47.9353
2010    5       7       0.1553024       40.62147
2010    6       0       0.1274373       34.57426
2010    6       1       0.1120305       31.34026
2010    6       2       0.09003832      26.50785
2010    6       3       0.07774132      23.69576
2010    6       4       0.08532015      25.18352
2010    6       5       0.1036865       29.48774
2010    6       6       0.1362046       36.81954
2010    6       7       0.2617816       63.26365
2010    7       0       0.3143888       73.75327
2010    7       1       0.2954527       69.99336
2010    7       2       0.229585        57.07742
2010    7       3       0.2721124       65.78159
2010    7       4       0.2547146       62.18681
2010    7       5       0.2745155       65.8309
2010    7       6       0.278414        66.62881
2010    7       7       0.2867065       68.41131
2010    8       0       0.2070812       52.48092
2010    8       1       0.1829692       47.35958
2010    8       2       0.251925        61.39092
2010    8       3       0.2809001       67.17367
2010    8       4       0.2024744       51.6894
2010    8       5       0.1784576       46.82411
2010    8       6       0.132297        36.71024
2010    8       7       0.1378524       37.96937
2010    9       0       0.1445395       39.31765
2010    9       1       0.1525488       40.96452
2010    9       2       0.163227        43.0339
2010    9       3       0.1811709       47.02549
2010    9       4       0.1687491       44.49937
2010    9       5       0.1595721       42.48212
2010    9       6       0.1301071       35.99789
2010    9       7       0.07804647      23.94479
2010    10      0       0.08383527      25.25844
2010    10      1       0.08622056      25.53061
2010    10      2       0.1267453       34.27679
2010    10      3       0.123674        33.76951
2010    10      4       0.1270784       34.64654
2010    10      5       0.1506141       40.05344
2010    10      6       0.1916135       48.86264
2010    10      7       0.2828448       67.07459
2010    11      0       0.3246729       74.67192
2010    11      1       0.2476599       60.20171
2010    11      2       0.2397858       58.5544
2010    11      3       0.2532053       61.02854
2010    11      4       0.1793026       46.22274
2010    11      5       0.1693457       44.15084
2010    11      6       0.1700312       44.34095
2010    11      7       0.1387223       37.49629
2010    12      0       0.1202869       33.33061
2010    12      1       0.1144313       31.95719
2010    12      2       0.1096443       30.86253
2010    12      3       0.09505017      27.48164
2010    12      4       0.1003373       28.56533
2010    12      5       0.115446        31.85174
2010    12      6       0.1221334       33.34647
2010    12      7       0.1309147       35.36022
2010    13      0       0.1461619       38.78889
2010    13      1       0.1735712       44.52962
2010    13      2       0.1794941       45.9334
2010    13      3       0.1905108       48.35827
2010    13      4       0.2231015       55.12115
2010    13      5       0.253447        61.12146
2010    13      6       0.235631        57.71358
2010    13      7       0.2138325       53.49711
2010    14      0       0.2066032       52.13643
2010    14      1       0.2473565       60.1394
2010    14      2       0.212726        53.14775
2010    14      3       0.1969984       50.03745
2010    14      4       0.1820585       46.94418
2010    14      5       0.1630673       42.94126
2010    14      6       0.1415273       38.26955
2010    14      7       0.119223        33.36483
2010    15      0       0.09216444      27.31512
2010    15      1       0.0841268       25.40052
2010    15      2       0.1142739       32.1678
2010    15      3       0.1863182       47.59362
2010    15      4       0.2951927       69.33173
2010    15      5       0.3634091       82.07749
2010    15      6       0.2739815       66.09984
2010    15      7       0.2405165       59.61381
2010    16      0       0.2401606       59.30647
2010    16      1       0.236903        58.41951
2010    16      2       0.2242671       55.75761
2010    16      3       0.2246326       55.73946
2010    16      4       0.2309521       56.91946
2010    16      5       0.2115387       52.9082
2010    16      6       0.1971181       49.98003
2010    16      7       0.1985191       50.29606
2010    17      0       0.1792679       46.20913
2010    17      1       0.1454272       38.84165
2010    17      2       0.1291847       35.2958
2010    17      3       0.1207796       33.43513
2010    17      4       0.1146023       32.05352
2010    17      5       0.1052369       29.98342
2010    17      6       0.09027747      26.62669
2010    17      7       0.07630255      23.40861
2010    18      0       0.07520775      23.02445
2010    18      1       0.1172203       32.38552
2010    18      2       0.2296089       56.20407
2010    18      3       0.3118429       72.71904
2010    18      4       0.3351656       77.22154
2010    18      5       0.3980805       88.29157
2010    18      6       0.3481442       80.03023
2010    18      7       0.348089        80.0373
2010    19      0       0.3458532       79.95668
2010    19      1       0.3647451       83.4421
2010    19      2       0.3922462       88.27576
2010    19      3       0.3148914       74.33609
2010    19      4       0.2814016       67.79296
2010    19      5       0.2924549       69.6113
2010    19      6       0.2984722       70.62539
2010    19      7       0.2691651       65.06382
2010    20      0       0.2498117       61.23475
2010    20      1       0.2503105       61.20364
2010    20      2       0.2553398       62.23185
2010    20      3       0.2512526       61.5032
2010    20      4       0.2279566       56.81844
2010    20      5       0.2124867       53.56677
2010    20      6       0.211264        53.28526
2010    20      7       0.2366101       58.39219
2010    21      0       0.2894325       68.72916
2010    21      1       0.327936        76.08475
2010    21      2       0.288819        68.95004
2010    21      3       0.290208        69.05087
2010    21      4       0.3782437       84.67216
2010    21      5       0.2592043       62.66943
2010    21      6       0.3282436       75.53849
2010    21      7       0.3677431       82.44569
2010    22      0       0.2176867       54.29528
2010    22      1       0.1723183       44.74549
2010    22      2       0.1574737       41.57022
2010    22      3       0.1946651       49.23479
2010    22      4       0.2835412       66.54756
2010    22      5       0.2985456       69.30381
2010    22      6       0.2615038       62.4557
2010    22      7       0.2329258       57.02872
2010    23      0       0.2245524       55.28268
2010    23      1       0.2047696       51.14379
2010    23      2       0.1890861       47.87067
2010    23      3       0.1888853       47.79644
2010    23      4       0.2198379       53.86796
2010    23      5       0.1917355       48.19557
2010    23      6       0.1972695       49.25564
2010    23      7       0.1811694       46.06173
2010    24      0       0.1755866       44.9275
2010    24      1       0.2019266       50.32856
2010    24      2       0.1833268       46.51535
2010    24      3       0.1682567       43.49956
2010    24      4       0.1639032       42.59314
2010    24      5       0.1610146       41.93584
2010    24      6       0.1766097       45.1581
2010    24      7       0.18585         47.04971
2010    25      0       0.176379        45.10877
2010    25      1       0.1853023       46.78219
2010    25      2       0.1643167       42.4105
2010    25      3       0.1700762       43.8298
2010    25      4       0.1494138       39.53184
2010    25      5       0.1641224       42.483
2010    25      6       0.1799601       45.68628
2010    25      7       0.2053028       50.75112
2010    26      0       0.1753232       44.63821
2010    26      1       0.1392137       36.85983
2010    26      2       0.1372235       36.35298
2010    26      3       0.1537568       39.81174
2010    26      4       0.126122        33.86497
2010    26      5       0.1185468       32.23788
2010    26      6       0.1155807       31.63469
2010    26      7       0.1208041       32.79305
2010    27      0       0.1085571       30.13062
2010    27      1       0.09060674      26.14611
2010    27      2       0.08659424      25.25747
2010    27      3       0.08529042      25.0005
2010    27      4       0.07352641      22.2952
2010    27      5       0.07233161      21.99479
2010    27      6       0.07646046      22.87655
2010    27      7       0.07485329      22.49129
2010    28      0       0.06874033      21.11353
2010    28      1       0.06829805      21.06211
2010    28      2       0.09325623      26.91158
2010    28      3       0.2560505       61.45363
2010    28      4       0.344942        78.27181
2010    28      5       0.3719804       83.00898
2010    28      6       0.3388689       76.99363
2010    28      7       0.2946237       68.82804
2010    29      0       0.2791917       65.93955
2010    29      1       0.2093391       52.54307
2010    29      2       0.1920991       48.99906
2010    29      3       0.1544813       40.96337
2010    29      4       0.1554692       41.10102
2010    29      5       0.2150705       53.45683
2010    29      6       0.2771589       65.69007
2010    29      7       0.2983517       69.52058
2010    30      0       0.2728165       64.48888
2010    30      1       0.2400166       58.1205
2010    30      2       0.2386724       57.81767
2010    30      3       0.212286        52.56475
2010    30      4       0.1787361       45.67079
2010    30      5       0.1574414       41.2283
2010    30      6       0.1462875       38.91561
2010    30      7       0.128862        35.22668
2010    31      0       0.1397677       37.5255
2010    31      1       0.1838919       46.95715
2010    31      2       0.1913862       48.63681
2010    31      3       0.1774016       45.64714
2010    31      4       0.1627868       42.42492
2010    31      5       0.1160774       32.38706
2010    31      6       0.09643586      27.87141
2010    31      7       0.1121103       31.28137
2011    1       0       0.2342939       58.5481
2011    1       1       0.2238793       56.48855
2011    1       2       0.2088747       53.42909
2011    1       3       0.1946816       50.48709
2011    1       4       0.1888389       49.31261
2011    1       5       0.192889        50.19766
2011    1       6       0.2051443       52.64858
2011    1       7       0.2090931       53.39022
2011    2       0       0.2068792       52.97936
2011    2       1       0.2088272       53.4028
2011    2       2       0.2130207       54.33556
2011    2       3       0.2160946       54.97026
2011    2       4       0.2177348       55.19123
2011    2       5       0.2174337       55.06938
2011    2       6       0.2168636       54.86994
2011    2       7       0.2129548       53.96146
2011    3       0       0.2104159       53.32678
2011    3       1       0.2071361       52.55388
2011    3       2       0.2024841       51.56889
2011    3       3       0.2014204       51.31164
2011    3       4       0.1940144       49.81357
2011    3       5       0.1834474       47.66309
2011    3       6       0.1718334       45.17497
2011    3       7       0.1572443       41.98822
2011    4       0       0.1458246       39.43845
2011    4       1       0.136864        37.36877
2011    4       2       0.1228233       34.22143
2011    4       3       0.108639        31.04147
2011    4       4       0.0963889       28.20064
2011    4       5       0.08044011      24.4224
2011    4       6       0.069349        21.72009
2011    4       7       0.06218144      19.92107
2011    5       0       0.06055762      19.46614
2011    5       1       0.06348199      20.1142
2011    5       2       0.0665957       20.83729
2011    5       3       0.07332638      22.42412
2011    5       4       0.08592057      25.33601
2011    5       5       0.1085566       30.51676
2011    5       6       0.1430493       38.20851
2011    5       7       0.1704417       44.20242
2011    6       0       0.1906616       48.58617
2011    6       1       0.2062472       51.86711
2011    6       2       0.2076607       52.14517
2011    6       3       0.2077695       52.0917
2011    6       4       0.1951006       49.4533
2011    6       5       0.1792878       46.18885
2011    6       6       0.1778299       45.83258
2011    6       7       0.1772799       45.67675
2011    7       0       0.1771314       45.65184
2011    7       1       0.1804865       46.3095
2011    7       2       0.176023        45.4124
2011    7       3       0.157871        41.59957
2011    7       4       0.1464342       39.12341
2011    7       5       0.1459091       39.01726
2011    7       6       0.1448327       38.82836
2011    7       7       0.1424344       38.36018
2011    8       0       0.1419213       38.28316
2011    8       1       0.1372638       37.31072
2011    8       2       0.1322737       36.24461
2011    8       3       0.1303149       35.77424
2011    8       4       0.1311937       35.90404
2011    8       5       0.144307        38.81725
2011    8       6       0.1510173       40.22569
2011    8       7       0.1698152       44.1696
2011    9       0       0.1898399       48.36577
2011    9       1       0.1988471       50.24885
2011    9       2       0.1983371       50.22567
2011    9       3       0.2025101       51.23058
2011    9       4       0.2032108       51.48485
2011    9       5       0.1972718       50.26937
2011    9       6       0.1925545       49.32971
2011    9       7       0.2009947       51.15079
2011    10      0       0.2023952       51.499
2011    10      1       0.2053981       52.15144
2011    10      2       0.2038104       51.86482
2011    10      3       0.1994105       50.97989
2011    10      4       0.1981137       50.67921
2011    10      5       0.2076856       52.60365
2011    10      6       0.2184746       54.80604
2011    10      7       0.2397928       59.12737
2011    11      0       0.2524212       61.43391
2011    11      1       0.2681836       64.27188
2011    11      2       0.2414013       59.00011
2011    11      3       0.1984763       50.26493
2011    11      4       0.1703819       44.37104
2011    11      5       0.1219675       33.74286
2011    11      6       0.1049184       29.79942
2011    11      7       0.1078099       30.38894
2011    12      0       0.1193862       32.93446
2011    12      1       0.1350808       36.39434
2011    12      2       0.1432991       38.19613
2011    12      3       0.1441213       38.41657
2011    12      4       0.15337         40.35091
2011    12      5       0.1555029       40.7666
2011    12      6       0.1560278       40.92726
2011    12      7       0.1449594       38.63153
2011    13      0       0.1294863       35.38497
2011    13      1       0.1317933       35.91214
2011    13      2       0.1385541       37.41592
2011    13      3       0.1607139       42.18902
2011    13      4       0.129749        35.36908
2011    13      5       0.1231793       33.83987
2011    13      6       0.1301177       35.31055
2011    13      7       0.1468805       38.91114
2011    14      0       0.1478208       38.99699
2011    14      1       0.1744734       44.45871
2011    14      2       0.172185        44.04936
2011    14      3       0.1717548       44.12167
2011    14      4       0.1513375       39.73349
2011    14      5       0.1540753       40.33349
2011    14      6       0.1639438       42.36148
2011    14      7       0.1605952       41.61613
2011    15      0       0.155693        40.48392
2011    15      1       0.1580207       40.95769
2011    15      2       0.153358        40.21402
2011    15      3       0.1389418       37.14434
2011    15      4       0.1288003       34.8623
2011    15      5       0.1321753       35.55969
2011    15      6       0.1348109       36.13857
2011    15      7       0.1400798       37.28746
2011    16      0       0.1484585       39.08925
2011    16      1       0.1316536       35.49364
2011    16      2       0.1188646       32.64956
2011    16      3       0.1069292       29.9882
2011    16      4       0.1040888       29.36612
2011    16      5       0.1052098       29.59719
2011    16      6       0.1028261       29.07894
2011    16      7       0.09570687      27.55303
2011    17      0       0.1143679       31.69958
2011    17      1       0.1929209       48.56819
2011    17      2       0.26514         62.88394
2011    17      3       0.2361043       57.36916
2011    17      4       0.1996688       50.07089
2011    17      5       0.1758459       45.11138
2011    17      6       0.1618884       42.19143
2011    17      7       0.1522996       40.17558
2011    18      0       0.1494951       39.60312
2011    18      1       0.1488998       39.50661
2011    18      2       0.1479981       39.32227
2011    18      3       0.1410096       37.83397
2011    18      4       0.1274967       34.8398
2011    18      5       0.1236495       33.90829
2011    18      6       0.1187127       32.74681
2011    18      7       0.1137661       31.62955
2011    19      0       0.1153609       31.95023
2011    19      1       0.1186086       32.64587
2011    19      2       0.133042        35.77802
2011    19      3       0.1372984       36.80507
2011    19      4       0.1563539       40.93184
2011    19      5       0.2020184       50.17855
2011    19      6       0.1615648       41.88684
2011    19      7       0.1585838       41.27576
2011    20      0       0.1555133       40.5451
2011    20      1       0.1496458       39.28123
2011    20      2       0.1368582       36.56862
2011    20      3       0.1269033       34.47632
2011    20      4       0.1255224       34.15576
2011    20      5       0.1242852       33.84816
2011    20      6       0.1201029       32.94345
2011    20      7       0.1151788       31.84816
2011    21      0       0.1122119       31.17073
2011    21      1       0.1142668       31.59821
2011    21      2       0.1132144       31.33811
2011    21      3       0.1037527       29.16743
2011    21      4       0.1072701       29.83673
2011    21      5       0.1118174       30.90981
2011    21      6       0.1235708       33.50641
2011    21      7       0.1191938       32.60324
2011    22      0       0.106762        29.84529
2011    22      1       0.1141074       31.39493
2011    22      2       0.1188398       32.38704
2011    22      3       0.1102755       30.49641
2011    22      4       0.1096811       30.31732
2011    22      5       0.1161493       31.71023
2011    22      6       0.1201426       32.60301
2011    22      7       0.1236856       33.38702
2011    23      0       0.1358292       36.02684
2011    23      1       0.1326392       35.32461
2011    23      2       0.1213179       32.82773
2011    23      3       0.1145744       31.32919
2011    23      4       0.1072286       29.69904
2011    23      5       0.1094602       30.18454
2011    23      6       0.1031819       28.81183
2011    23      7       0.1020218       28.5556
2011    24      0       0.1038443       28.96939
2011    24      1       0.1092392       30.16714
2011    24      2       0.1179418       32.08863
2011    24      3       0.1100055       30.36922
2011    24      4       0.1031328       28.85506
2011    24      5       0.1006689       28.31479
2011    24      6       0.09639021      27.40066
2011    24      7       0.08672777      25.24927
2011    25      0       0.08154697      24.09385
2011    25      1       0.07943453      23.60093
2011    25      2       0.07425066      22.39397
2011    25      3       0.07164176      21.80993
2011    25      4       0.06907909      21.23649
2011    25      5       0.06378625      20.04503
2011    25      6       0.05991636      19.18744
2011    25      7       0.06535681      20.55524
2011    26      0       0.09510928      27.57579
2011    26      1       0.1279734       34.97367
2011    26      2       0.1652519       42.85718
2011    26      3       0.170235        43.80915
2011    26      4       0.1704359       43.83146
2011    26      5       0.1582837       41.29071
2011    26      6       0.1397954       37.37508
2011    26      7       0.1364118       36.7121
2011    27      0       0.1528356       40.33392
2011    27      1       0.171739        44.42664
2011    27      2       0.199303        50.38599
2011    27      3       0.3118174       72.55019
2011    27      4       0.417739        91.25035
2011    27      5       0.4622526       98.65203
2011    27      6       0.4364119       94.04459
2011    27      7       0.3464965       78.66905
2011    28      0       0.3259678       74.71383
2011    28      1       0.2509412       60.79889
2011    28      2       0.235326        57.71064
2011    28      3       0.2238716       55.27115
2011    28      4       0.2457684       59.83832
2011    28      5       0.2923162       68.92499
2011    28      6       0.3661963       82.10279
2011    28      7       0.3778336       85.06853
2011    29      0       0.3945743       88.18758
2011    29      1       0.4522461       97.45262
2011    29      2       0.3810068       86.12424
2011    29      3       0.3164521       74.33612
2011    29      4       0.3063745       72.45382
2011    29      5       0.4464357       96.76579
2011    29      6       0.4399907       95.47993
2011    29      7       0.3859454       86.20632
2011    30      0       0.3302692       76.2092
2011    30      1       0.2896298       68.56298
2011    30      2       0.2764121       65.93553
2011    30      3       0.2379842       58.51028
2011    30      4       0.2261351       56.01051
2011    30      5       0.2332508       57.24665
2011    30      6       0.2494578       60.46718
2011    30      7       0.2927503       68.96619
2011    31      0       0.2885479       68.37957
2011    31      1       0.3326551       75.94071
2011    31      2       0.3408324       77.18965
2011    31      3       0.2814462       66.20709
2011    31      4       0.2241602       54.98771
2011    31      5       0.2257027       55.05664
2011    31      6       0.1991966       49.71125
2011    31      7       0.1759367       44.83291
2012    1       0       0.1660572       43.94064
2012    1       1       0.163393        43.25856
2012    1       2       0.1657149       43.74549
2012    1       3       0.1756973       45.8155
2012    1       4       0.1925478       49.38326
2012    1       5       0.2238246       55.91259
2012    1       6       0.2871405       68.29292
2012    1       7       0.3775837       84.62063
2012    2       0       0.3732756       83.82373
2012    2       1       0.2290039       56.88373
2012    2       2       0.1709622       44.67432
2012    2       3       0.1577963       41.91062
2012    2       4       0.1438914       38.76856
2012    2       5       0.1587285       41.75938
2012    2       6       0.2361883       57.82793
2012    2       7       0.2721027       65.00272
2012    3       0       0.2853473       67.41553
2012    3       1       0.2465674       59.89714
2012    3       2       0.1956328       49.72418
2012    3       3       0.1783888       46.33883
2012    3       4       0.1709566       44.88616
2012    3       5       0.1666579       43.95472
2012    3       6       0.1836181       47.34674
2012    3       7       0.2699762       64.32621
2012    4       0       0.2437433       59.77724
2012    4       1       0.2048329       52.31914
2012    4       2       0.1914595       49.41742
2012    4       3       0.1917107       49.08463
2012    4       4       0.2000699       50.62923
2012    4       5       0.3520918       80.72446
2012    4       6       0.3919204       87.82481
2012    4       7       0.3242043       75.94478
2012    5       0       0.3092276       73.06192
2012    5       1       0.3168987       74.29083
2012    5       2       0.3835847       86.22119
2012    5       3       0.3484427       80.14585
2012    5       4       0.400729        88.96504
2012    5       5       0.432458        94.40304
2012    5       6       0.449591        97.35953
2012    5       7       0.431937        94.68889
2012    6       0       0.4046382       89.9523
2012    6       1       0.4178118       91.93253
2012    6       2       0.3987643       88.85089
2012    6       3       0.3474497       79.93433
2012    6       4       0.3621301       82.55869
2012    6       5       0.3538003       80.79549
2012    6       6       0.3586401       81.92365
2012    6       7       0.2512196       62.12274
2012    7       0       0.2333677       58.53176
2012    7       1       0.2470496       61.11167
2012    7       2       0.3049342       71.90746
2012    7       3       0.3574891       81.45043
2012    7       4       0.4863632       103.1972
2012    7       5       0.4837396       102.498
2012    7       6       0.3613202       82.27861
2012    7       7       0.2774405       66.68348
2012    8       0       0.2359189       58.62358
2012    8       1       0.2259681       56.7427
2012    8       2       0.2572412       62.87967
2012    8       3       0.2643022       64.2913
2012    8       4       0.3074821       72.49751
2012    8       5       0.4194923       91.83904
2012    8       6       0.3698456       83.42785
2012    8       7       0.3174327       73.94401
2012    9       0       0.3015842       70.85398
2012    9       1       0.3170459       73.4541
2012    9       2       0.3255292       74.70397
2012    9       3       0.3148296       72.68123
2012    9       4       0.2967534       69.09663
2012    9       5       0.2641928       62.98792
2012    9       6       0.231837        56.79247
2012    9       7       0.2103929       52.57388
2012    10      0       0.1979921       50.16775
2012    10      1       0.163           42.93488
2012    10      2       0.154225        40.87119
2012    10      3       0.1718087       44.57166
2012    10      4       0.1894146       48.35255
2012    10      5       0.1919477       48.92576
2012    10      6       0.2637672       63.052
2012    10      7       0.267052        63.99285
2012    11      0       0.2372131       58.19482
2012    11      1       0.2346036       57.64028
2012    11      2       0.199029        50.31494
2012    11      3       0.2060954       51.65488
2012    11      4       0.1839352       47.06895
2012    11      5       0.1577952       41.52534
2012    11      6       0.1350967       36.60543
2012    11      7       0.134457        36.43461
2012    12      0       0.1959821       49.40902
2012    12      1       0.2305958       56.16237
2012    12      2       0.2057577       51.05421
2012    12      3       0.1378237       36.77403
2012    12      4       0.118342        32.45828
2012    12      5       0.1131252       31.29051
2012    12      6       0.1075808       30.0373
2012    12      7       0.103661        29.17042
2012    13      0       0.09824488      28.02597
2012    13      1       0.09753689      27.92574
2012    13      2       0.09911133      28.36579
2012    13      3       0.1004808       28.77424
2012    13      4       0.09285223      27.10776
2012    13      5       0.06772869      21.29729
2012    13      6       0.05318829      17.81747
2012    13      7       0.0452636       15.87317
2012    14      0       0.04144236      14.87647
2012    14      1       0.04847043      16.53146
2012    14      2       0.0541366       17.87078
2012    14      3       0.04720051      16.1819
2012    14      4       0.07249269      22.16733
2012    14      5       0.195501        49.15531
2012    14      6       0.2684895       63.67717
2012    14      7       0.1932289       48.99201
2012    15      0       0.1765636       45.54503
2012    15      1       0.3374219       76.47377
2012    15      2       0.2123577       52.92229
2012    15      3       0.1802981       46.22929
2012    15      4       0.1343955       36.39896
2012    15      5       0.0905802       26.58163
2012    15      6       0.06650141      20.81325
2012    15      7       0.06293202      19.97837
2012    16      0       0.06499404      20.43707
2012    16      1       0.07550181      22.90752
2012    16      2       0.08951701      26.20361
2012    16      3       0.09519659      27.59126
2012    16      4       0.1057541       29.98661
2012    16      5       0.115924        32.33994
2012    16      6       0.1049887       29.90577
2012    16      7       0.09139683      26.78689
2012    17      0       0.09333434      27.22242
2012    17      1       0.09280128      27.08522
2012    17      2       0.08848001      26.11568
2012    17      3       0.08575595      25.51288
2012    17      4       0.0819432       24.63878
2012    17      5       0.07871728      23.95148
2012    17      6       0.07674141      23.51775
2012    17      7       0.07437318      22.98929
2012    18      0       0.06770924      21.44539
2012    18      1       0.06219955      20.12937
2012    18      2       0.06369426      20.52041
2012    18      3       0.05887588      19.39308
2012    18      4       0.04988029      17.20024
2012    18      5       0.04358857      15.6097
2012    18      6       0.03840727      14.23567
2012    18      7       0.03843429      14.20711
2012    19      0       0.039803        14.5098
2012    19      1       0.03971229      14.49978
2012    19      2       0.04040032      14.70095
2012    19      3       0.04543239      15.95012
2012    19      4       0.0491802       16.7998
2012    19      5       0.05173533      17.36897
2012    19      6       0.05372064      17.86509
2012    19      7       0.05540262      18.29425
2012    20      0       0.05965401      19.27107
2012    20      1       0.06756988      21.06555
2012    20      2       0.0760684       23.01444
2012    20      3       0.08185099      24.38546
2012    20      4       0.08611517      25.42775
2012    20      5       0.08693761      25.68062
2012    20      6       0.08413184      25.06871
2012    20      7       0.08338881      24.91689
2012    21      0       0.07693608      23.36474
2012    21      1       0.07349232      22.49385
2012    21      2       0.08078249      24.13766
2012    21      3       0.09989003      28.48714
2012    21      4       0.1283174       34.85332
2012    21      5       0.1575551       41.26674
2012    21      6       0.1877404       47.65749
2012    21      7       0.2057678       51.4145
2012    22      0       0.2034483       50.78442
2012    22      1       0.261178        61.9776
2012    22      2       0.2574132       61.27811
2012    22      3       0.2040633       50.90957
2012    22      4       0.2367837       57.26634
2012    22      5       0.2245873       54.77707
2012    22      6       0.1964153       49.13119
2012    22      7       0.186362        47.04856
2012    23      0       0.149091        39.15444
2012    23      1       0.1661519       42.70775
2012    23      2       0.1547323       40.25924
2012    23      3       0.1449367       38.13717
2012    23      4       0.1176285       32.22197
2012    23      5       0.1100483       30.50302
2012    23      6       0.1051543       29.40396
2012    23      7       0.09956649      28.2148
2012    24      0       0.1104862       30.71536
2012    24      1       0.1196639       32.73609
2012    24      2       0.1281672       34.54691
2012    24      3       0.121627        33.09682
2012    24      4       0.1239787       33.63674
2012    24      5       0.1350079       36.05221
2012    24      6       0.1351238       36.0664
2012    24      7       0.1303091       35.00529
2012    25      0       0.1228212       33.36828
2012    25      1       0.1230532       33.43562
2012    25      2       0.1326688       35.56901
2012    25      3       0.1480003       38.89228
2012    25      4       0.1460748       38.57165
2012    25      5       0.1273104       34.53447
2012    25      6       0.1249652       33.95405
2012    25      7       0.1421173       37.6072
2012    26      0       0.1462931       38.43758
2012    26      1       0.1537837       39.9666
2012    26      2       0.1430955       37.616
2012    26      3       0.1259068       33.8932
2012    26      4       0.1163914       31.81009
2012    26      5       0.1191429       32.38435
2012    26      6       0.1319959       35.15179
2012    26      7       0.1485419       38.68113
2012    27      0       0.1235989       33.403
2012    27      1       0.1014824       28.57933
2012    27      2       0.090671        26.16355
2012    27      3       0.09321471      26.76788
2012    27      4       0.1007153       28.46863
2012    27      5       0.09875271      28.06065
2012    27      6       0.0929632       26.79487
2012    27      7       0.09339573      26.88284
2012    28      0       0.09234618      26.60472
2012    28      1       0.08946817      25.92345
2012    28      2       0.09468908      27.0526
2012    28      3       0.1077423       29.94526
2012    28      4       0.1172908       32.16107
2012    28      5       0.1092707       30.39044
2012    28      6       0.1085876       30.1485
2012    28      7       0.1100107       30.39574
2012    29      0       0.1049507       29.26703
2012    29      1       0.1020915       28.65205
2012    29      2       0.1050381       29.2659
2012    29      3       0.1000621       28.13913
2012    29      4       0.09406923      26.83175
2012    29      5       0.09254233      26.51991
2012    29      6       0.0928292       26.56738
2012    29      7       0.09111463      26.18172
2012    30      0       0.08877718      25.67578
2012    30      1       0.08822216      25.54608
2012    30      2       0.08621401      25.07618
2012    30      3       0.0833899       24.425
2012    30      4       0.0838352       24.49598
2012    30      5       0.09541098      27.08267
2012    30      6       0.08748714      25.35444
2012    30      7       0.07727446      23.07215
2012    31      0       0.0948155       27.37383
2012    31      1       0.1550871       40.70852
2012    31      2       0.1403734       37.49361
2012    31      3       0.1383193       37.02814
2012    31      4       0.1289682       34.98647
2012    31      5       0.1378099       36.9371
2012    31      6       0.1398852       37.47785
2012    31      7       0.1422227       38.0307
2013    1       0       0.3380392       77.41327
2013    1       1       0.3482358       79.12781
2013    1       2       0.3217554       74.5126
2013    1       3       0.273891        65.70212
2013    1       4       0.3358402       76.90295
2013    1       5       0.2546213       61.70823
2013    1       6       0.2272428       56.24316
2013    1       7       0.2051515       51.66101
2013    2       0       0.210356        52.68984
2013    2       1       0.1876147       47.91728
2013    2       2       0.1658303       43.04562
2013    2       3       0.1787082       45.6739
2013    2       4       0.2332155       56.59677
2013    2       5       0.2765724       64.78553
2013    2       6       0.2889495       67.54057
2013    2       7       0.229348        56.11365
2013    3       0       0.200078        50.32524
2013    3       1       0.1832883       46.85156
2013    3       2       0.1681649       43.71773
2013    3       3       0.1494044       39.72031
2013    3       4       0.1340009       36.3882
2013    3       5       0.151401        40.07805
2013    3       6       0.1359959       36.7148
2013    3       7       0.1351352       36.54588
2013    4       0       0.1238456       34.09447
2013    4       1       0.1110224       31.14759
2013    4       2       0.1043054       29.56175
2013    4       3       0.1196536       32.96647
2013    4       4       0.128866        34.98329
2013    4       5       0.1868506       47.48016
2013    4       6       0.2491207       60.24474
2013    4       7       0.2456422       59.73035
2013    5       0       0.2876082       67.56584
2013    5       1       0.3092593       71.27378
2013    5       2       0.3046125       70.24059
2013    5       3       0.2330004       56.67735
2013    5       4       0.2282358       55.666
2013    5       5       0.2065507       51.28509
2013    5       6       0.2053741       50.95792
2013    5       7       0.1678695       43.22353
2013    6       0       0.1330795       35.78098
2013    6       1       0.1149754       31.80943
2013    6       2       0.09251726      26.78308
2013    6       3       0.0756247       22.89026
2013    6       4       0.08864712      25.78645
2013    6       5       0.1266294       34.26115
2013    6       6       0.1861995       47.0498
2013    6       7       0.2348945       57.10055
2013    7       0       0.1712023       44.39653
2013    7       1       0.1285259       35.14143
2013    7       2       0.1278421       34.95944
2013    7       3       0.1355744       36.62709
2013    7       4       0.1267971       34.59591
2013    7       5       0.1597423       41.65732
2013    7       6       0.1538231       40.42213
2013    7       7       0.1437038       38.29641
2013    8       0       0.1443058       38.47612
2013    8       1       0.1422312       38.01506
2013    8       2       0.1236125       33.87058
2013    8       3       0.1081654       30.34087
2013    8       4       0.1127591       31.34114
2013    8       5       0.1312429       35.47505
2013    8       6       0.1317228       35.5933
2013    8       7       0.129315        35.08359
2013    9       0       0.1328157       35.94411
2013    9       1       0.1472489       39.109
2013    9       2       0.1714782       44.32548
2013    9       3       0.1562063       41.07924
2013    9       4       0.1383461       37.25743
2013    9       5       0.1337548       36.29902
2013    9       6       0.1268854       34.79433
2013    9       7       0.1201772       33.34766
2013    10      0       0.1141404       31.99967
2013    10      1       0.1069363       30.36826
2013    10      2       0.1026          29.43212
2013    10      3       0.1039732       29.77884
2013    10      4       0.1080244       30.66526
2013    10      5       0.1211662       33.43452
2013    10      6       0.1918494       48.23523
2013    10      7       0.1625375       42.59651
2013    11      0       0.1637566       42.89509
2013    11      1       0.1889948       48.08302
2013    11      2       0.2341094       57.45806
2013    11      3       0.2574457       62.31718
2013    11      4       0.2654671       64.0261
2013    11      5       0.2602838       63.16699
2013    11      6       0.3453971       79.01858
2013    11      7       0.3514892       79.94026
2013    12      0       0.3077002       72.03673
2013    12      1       0.2908848       68.81916
2013    12      2       0.2687355       64.44963
2013    12      3       0.2622638       63.13103
2013    12      4       0.2156902       53.98562
2013    12      5       0.2085075       52.64564
2013    12      6       0.2197631       54.98626
2013    12      7       0.2151116       54.04001
2013    13      0       0.1991014       50.73437
2013    13      1       0.1742206       45.4487
2013    13      2       0.1229013       34.00831
2013    13      3       0.1185072       33.0863
2013    13      4       0.1621224       42.88349
2013    13      5       0.1887255       48.48988
2013    13      6       0.2210343       55.07675
2013    13      7       0.2348198       57.77808
2013    14      0       0.2598485       62.55303
2013    14      1       0.2716719       64.46128
2013    14      2       0.2739957       64.67249
2013    14      3       0.2341924       56.92125
2013    14      4       0.1973996       49.43139
2013    14      5       0.196           49.08536
2013    14      6       0.2056646       51.1461
2013    14      7       0.1855141       47.04428
2013    15      0       0.1635712       42.37519
2013    15      1       0.1715329       43.82269
2013    15      2       0.1390188       36.89468
2013    15      3       0.1179029       32.23619
2013    15      4       0.09958796      28.13217
2013    15      5       0.08402857      24.63771
2013    15      6       0.08263817      24.32713
2013    15      7       0.08547726      24.96261
2013    16      0       0.08930577      25.88113
2013    16      1       0.09155734      26.44636
2013    16      2       0.09007969      26.10306
2013    16      3       0.09324972      26.79805
2013    16      4       0.1092147       30.31578
2013    16      5       0.1312561       35.11425
2013    16      6       0.1247472       33.71381
2013    16      7       0.1460107       38.46818
2013    17      0       0.1474476       38.92119
2013    17      1       0.1770009       45.24295
2013    17      2       0.2629112       62.19753
2013    17      3       0.1874965       47.27963
2013    17      4       0.1548182       40.41623
2013    17      5       0.1383154       36.84346
2013    17      6       0.1420795       37.55834
2013    17      7       0.1341651       35.78304
2013    18      0       0.1290862       34.54223
2013    18      1       0.1069094       29.59986
2013    18      2       0.1086978       30.00295
2013    18      3       0.1082766       29.85976
2013    18      4       0.1164238       31.60601
2013    18      5       0.1441339       37.60743
2013    18      6       0.1525487       39.49418
2013    18      7       0.1787209       44.96751
2013    19      0       0.1875394       46.77591
2013    19      1       0.161683        41.54811
2013    19      2       0.1678344       42.92947
2013    19      3       0.1528917       39.78282
2013    19      4       0.1349223       36.01313
2013    19      5       0.1274773       34.47311
2013    19      6       0.1310495       35.275
2013    19      7       0.1429402       37.85948
2013    20      0       0.1734087       44.41911
2013    20      1       0.2134998       52.68787
2013    20      2       0.2409014       58.17148
2013    20      3       0.2217318       54.46023
2013    20      4       0.1793452       45.82215
2013    20      5       0.1685352       43.54606
2013    20      6       0.174994        44.8116
2013    20      7       0.1818412       46.18927
2013    21      0       0.1555376       40.68983
2013    21      1       0.135057        36.25815
2013    21      2       0.1516276       39.78088
2013    21      3       0.1573496       41.04775
2013    21      4       0.1581192       41.15121
2013    21      5       0.1813052       46.01839
2013    21      6       0.1700281       43.69511
2013    21      7       0.1700618       43.74772
2013    22      0       0.1783612       45.51468
2013    22      1       0.1907283       48.15019
2013    22      2       0.1738453       44.76977
2013    22      3       0.15584         40.971
2013    22      4       0.1421718       38.0409
2013    22      5       0.1316979       35.69566
2013    22      6       0.1217219       33.48139
2013    22      7       0.09626004      27.74522
2013    23      0       0.09264742      26.88541
2013    23      1       0.09985153      28.51324
2013    23      2       0.0947788       27.40081
2013    23      3       0.09550654      27.6116
2013    23      4       0.08645101      25.56054
2013    23      5       0.07198256      22.14593
2013    23      6       0.08069913      24.11548
2013    23      7       0.1341354       36.12614
2013    24      0       0.2157596       53.34692
2013    24      1       0.2927129       68.2861
2013    24      2       0.2976966       69.16261
2013    24      3       0.2503982       60.31553
2013    24      4       0.2242008       55.19689
2013    24      5       0.1967574       49.57667
2013    24      6       0.190955        48.46159
2013    24      7       0.1680514       43.6365
2013    25      0       0.147927        39.29908
2013    25      1       0.1510314       39.92589
2013    25      2       0.1688771       43.71562
2013    25      3       0.1799232       46.12796
2013    25      4       0.2008789       50.45086
2013    25      5       0.2055389       51.29919
2013    25      6       0.1872244       47.50204
2013    25      7       0.1941485       48.84978
2013    26      0       0.2007826       50.05524
2013    26      1       0.1838836       46.52227
2013    26      2       0.1711216       43.77376
2013    26      3       0.1790558       45.41249
2013    26      4       0.1708353       43.67133
2013    26      5       0.1651901       42.48954
2013    26      6       0.1610077       41.56823
2013    26      7       0.1376053       36.5703
2013    27      0       0.1369912       36.51169
2013    27      1       0.1511137       39.59845
2013    27      2       0.164892        42.38335
2013    27      3       0.1711322       43.65444
2013    27      4       0.1504537       39.41819
2013    27      5       0.1390358       36.89155
2013    27      6       0.1233145       33.47659
2013    27      7       0.1154691       31.78024
2013    28      0       0.09872877      28.03415
2013    28      1       0.06973827      21.37168
2013    28      2       0.06316954      19.82426
2013    28      3       0.06631312      20.56083
2013    28      4       0.07684559      23.00487
2013    28      5       0.09587642      27.39868
2013    28      6       0.1071255       29.9694
2013    28      7       0.1144376       31.56266
2013    29      0       0.1073013       29.8956
2013    29      1       0.1162715       31.80151
2013    29      2       0.1155949       31.76394
2013    29      3       0.1553123       40.23557
2013    29      4       0.1823597       45.63589
2013    29      5       0.148891        38.77516
2013    29      6       0.1400735       36.87056
2013    29      7       0.1287108       34.35002
2013    30      0       0.1098663       30.21438
2013    30      1       0.09706969      27.3587
2013    30      2       0.09287396      26.38915
2013    30      3       0.08530406      24.63325
2013    30      4       0.07306706      21.84944
2013    30      5       0.06343069      19.65175
2013    30      6       0.05869825      18.5989
2013    30      7       0.0558153       17.96733
2013    31      0       0.075924        22.61385
2013    31      1       0.1243084       33.56389
2013    31      2       0.1393282       37.15483
2013    31      3       0.1266229       34.67057
2013    31      4       0.1473213       39.38466
2013    31      5       0.2184814       54.34423
2013    31      6       0.2275726       56.02222
2013    31      7       0.2196815       54.64023
2014    1       0       0.1391485       37.23737
2014    1       1       0.1238341       33.85867
2014    1       2       0.1187801       32.73197
2014    1       3       0.1177163       32.46261
2014    1       4       0.1348706       36.26677
2014    1       5       0.1440126       38.33772
2014    1       6       0.154238        40.56405
2014    1       7       0.18764         47.52469
2014    2       0       0.1746247       44.94714
2014    2       1       0.1728356       44.62104
2014    2       2       0.1832076       46.78594
2014    2       3       0.1805734       46.2917
2014    2       4       0.1670411       43.39935
2014    2       5       0.1558712       40.96286
2014    2       6       0.1441984       38.38823
2014    2       7       0.1338278       36.10277
2014    3       0       0.1241596       33.96512
2014    3       1       0.1273267       34.65352
2014    3       2       0.1251387       34.19787
2014    3       3       0.132099        35.73822
2014    3       4       0.124395        34.07408
2014    3       5       0.1238028       33.96558
2014    3       6       0.1311365       35.6381
2014    3       7       0.1329045       36.11809
2014    4       0       0.146451        39.02622
2014    4       1       0.1453223       38.6402
2014    4       2       0.1490497       39.40727
2014    4       3       0.159472        41.6769
2014    4       4       0.1780639       45.57719
2014    4       5       0.169297        43.77249
2014    4       6       0.1465123       38.91557
2014    4       7       0.1332972       36.06602
2014    5       0       0.14362         38.31634
2014    5       1       0.1432016       38.16112
2014    5       2       0.1344004       36.22829
2014    5       3       0.1093057       30.73477
2014    5       4       0.1008768       28.82752
2014    5       5       0.09786665      28.14653
2014    5       6       0.09050322      26.4934
2014    5       7       0.08753217      25.81015
2014    6       0       0.08183823      24.49952
2014    6       1       0.07946308      23.92688
2014    6       2       0.07949456      23.88967
2014    6       3       0.08121758      24.26537
2014    6       4       0.08214851      24.46165
2014    6       5       0.08395698      24.8402
2014    6       6       0.0879179       25.71254
2014    6       7       0.09277277      26.81861
2014    7       0       0.0992357       28.32873
2014    7       1       0.1031073       29.20931
2014    7       2       0.1010233       28.74471
2014    7       3       0.09626645      27.68568
2014    7       4       0.0947473       27.33241
2014    7       5       0.09323051      26.99982
2014    7       6       0.09180665      26.70795
2014    7       7       0.08912799      26.09041
2014    8       0       0.09505371      27.5083
2014    8       1       0.1022397       29.15361
2014    8       2       0.104438        29.63609
2014    8       3       0.10715         30.2246
2014    8       4       0.1112773       31.074
2014    8       5       0.1126746       31.34693
2014    8       6       0.1176339       32.48266
2014    8       7       0.116897        32.33323
2014    9       0       0.09956957      28.46581
2014    9       1       0.09015835      26.34779
2014    9       2       0.09554357      27.63421
2014    9       3       0.109367        30.77309
2014    9       4       0.1126413       31.45967
2014    9       5       0.1399362       37.26325
2014    9       6       0.1938203       48.67747
2014    9       7       0.2583839       61.99494
2014    10      0       0.3605285       81.36746
2014    10      1       0.441975        95.49751
2014    10      2       0.3547224       80.05597
2014    10      3       0.3695281       83.21307
2014    10      4       0.3120455       72.90391
2014    10      5       0.2916525       68.83749
2014    10      6       0.2781752       66.01901
2014    10      7       0.1899818       48.40687
2014    11      0       0.07310482      22.67316
2014    11      1       0.05086261      17.10992
2014    11      2       0.05916612      18.99176
2014    11      3       0.07300496      22.23634
2014    11      4       0.09060417      26.25046
2014    11      5       0.1046525       29.38554
2014    11      6       0.1349773       36.07208
2014    11      7       0.1337234       35.86082
2014    12      0       0.1285915       34.75754
2014    12      1       0.1262062       34.21262
2014    12      2       0.1201557       32.90817
2014    12      3       0.1129921       31.35554
2014    12      4       0.1255884       34.15587
2014    12      5       0.1554957       40.65099
2014    12      6       0.2398601       57.9252
2014    12      7       0.3234578       74.27927
2014    13      0       0.3991339       88.24439
2014    13      1       0.3942629       87.15495
2014    13      2       0.323268        74.38306
2014    13      3       0.1368546       36.90963
2014    13      4       0.2257698       55.18794
2014    13      5       0.2504006       60.0325
2014    13      6       0.2020721       50.45817
2014    13      7       0.1737436       44.47347
2014    14      0       0.1605988       41.57082
2014    14      1       0.1550709       40.29111
2014    14      2       0.1431678       37.77585
2014    14      3       0.1193085       32.59927
2014    14      4       0.1122675       30.97718
2014    14      5       0.1049751       29.33955
2014    14      6       0.09959352      28.16419
2014    14      7       0.09876656      27.97828
2014    15      0       0.100993        28.44004
2014    15      1       0.1024905       28.76013
2014    15      2       0.1058054       29.4919
2014    15      3       0.1071897       29.80944
2014    15      4       0.1234535       33.32511
2014    15      5       0.1199771       32.55474
2014    15      6       0.1341381       35.75929
2014    15      7       0.1251594       33.95109
2014    16      0       0.09243082      26.60288
2014    16      1       0.09086635      26.18782
2014    16      2       0.1276563       34.27546
2014    16      3       0.1759141       44.65083
2014    16      4       0.1535162       40.01222
2014    16      5       0.2027155       50.42245
2014    16      6       0.3371844       76.81548
2014    16      7       0.4013121       88.82607
2014    17      0       0.3137335       73.43061
2014    17      1       0.3734205       83.38342
2014    17      2       0.1829137       46.86666
2014    17      3       0.1321624       35.60745
2014    17      4       0.1720243       44.00897
2014    17      5       0.2586938       61.5403
2014    17      6       0.2362871       57.47383
2014    17      7       0.3104388       72.28139
2014    18      0       0.3753227       83.95565
2014    18      1       0.3527679       80.1594
2014    18      2       0.2674634       64.22504
2014    18      3       0.1998121       50.66455
2014    18      4       0.2153726       53.46222
2014    18      5       0.3123497       72.35367
2014    18      6       0.2938955       69.16336
2014    18      7       0.3011207       70.59843
2014    19      0       0.2949821       69.37694
2014    19      1       0.2753953       65.68867
2014    19      2       0.2695346       64.6417
2014    19      3       0.2651115       63.84173
2014    19      4       0.2403227       58.96026
2014    19      5       0.2254229       55.94035
2014    19      6       0.2315452       57.21557
2014    19      7       0.2064948       52.09697
2014    20      0       0.1920558       48.98453
2014    20      1       0.1842183       47.26608
2014    20      2       0.1562851       41.37908
2014    20      3       0.1443827       38.82402
2014    20      4       0.1437721       38.74343
2014    20      5       0.1477912       39.66189
2014    20      6       0.1662956       43.65286
2014    20      7       0.2099366       52.93893
2014    21      0       0.2329909       57.75431
2014    21      1       0.2294288       57.00805
2014    21      2       0.2131963       53.57472
2014    21      3       0.2130846       53.3778
2014    21      4       0.2318166       56.91996
2014    21      5       0.2237312       55.47295
2014    21      6       0.2449344       59.805
2014    21      7       0.2577692       62.31493
2014    22      0       0.2664969       63.90929
2014    22      1       0.305039        71.1277
2014    22      2       0.2829595       67.0088
2014    22      3       0.2030607       51.44286
2014    22      4       0.1959783       49.85383
2014    22      5       0.2757454       65.16912
2014    22      6       0.3422303       77.21351
2014    22      7       0.3134178       71.78251
2014    23      0       0.1728692       44.48861
2014    23      1       0.1545287       40.49367
2014    23      2       0.1561514       40.90854
2014    23      3       0.1346882       36.25435
2014    23      4       0.1507522       39.79289
2014    23      5       0.1948172       48.91923
2014    23      6       0.1752604       44.81471
2014    23      7       0.1555117       40.47854
2014    24      0       0.1377254       36.54581
2014    24      1       0.1281621       34.35445
2014    24      2       0.1185417       32.20377
2014    24      3       0.1063069       29.47854
2014    24      4       0.1022715       28.55328
2014    24      5       0.1001968       28.04938
2014    24      6       0.09855442      27.68001
2014    24      7       0.1041083       28.89582
2014    25      0       0.09424541      26.65975
2014    25      1       0.09090886      25.88131
2014    25      2       0.09294677      26.34765
2014    25      3       0.09550813      26.90204
2014    25      4       0.08591113      24.73535
2014    25      5       0.07958565      23.33138
2014    25      6       0.0910072       25.94689
2014    25      7       0.1004505       28.0777
2014    26      0       0.115166        31.20541
2014    26      1       0.1228862       32.89831
2014    26      2       0.1178244       31.92929
2014    26      3       0.127173        34.00447
2014    26      4       0.1265545       33.80921
2014    26      5       0.1278244       34.1147
2014    26      6       0.138647        36.49875
2014    26      7       0.1307452       34.86253
2014    27      0       0.1210857       32.74967
2014    27      1       0.1173918       31.92762
2014    27      2       0.1139164       31.17051
2014    27      3       0.1073702       29.78058
2014    27      4       0.08537476      24.89657
2014    27      5       0.07567593      22.74053
2014    27      6       0.07147787      21.7497
2014    27      7       0.06972016      21.30729
2014    28      0       0.06572556      20.38921
2014    28      1       0.06101628      19.28635
2014    28      2       0.05976438      18.99875
2014    28      3       0.06383408      20.00787
2014    28      4       0.07574075      22.82177
2014    28      5       0.08972741      26.07717
2014    28      6       0.1035094       29.15976
2014    28      7       0.1308286       35.14816
2014    29      0       0.14985         39.24422
2014    29      1       0.1466518       38.56021
2014    29      2       0.2456185       58.98154
2014    29      3       0.3079135       71.03767
2014    29      4       0.304534        70.64401
2014    29      5       0.2837608       66.85551
2014    29      6       0.271319        64.3619
2014    29      7       0.2817068       66.28569
2014    30      0       0.3107386       71.64105
2014    30      1       0.2869071       67.25932
2014    30      2       0.3064631       70.99263
2014    30      3       0.2921603       68.51743
2014    30      4       0.3212126       73.97118
2014    30      5       0.3205852       73.82304
2014    30      6       0.3136697       72.53066
2014    30      7       0.3047994       70.86753
2014    31      0       0.290649        68.18658
2014    31      1       0.2886295       67.79264
2014    31      2       0.2540094       61.26516
2014    31      3       0.2151019       53.59839
2014    31      4       0.1719831       44.62579
2014    31      5       0.1675          43.56407
2014    31      6       0.206898        51.61543
2014    31      7       0.2236596       55.09238
2015    1       0       0.188754        47.87905
2015    1       1       0.2040237       51.20008
2015    1       2       0.2261844       55.86659
2015    1       3       0.2183908       54.43617
2015    1       4       0.1794675       46.33876
2015    1       5       0.1595734       42.00854
2015    1       6       0.1549808       40.93463
2015    1       7       0.1601344       42.0563
2015    2       0       0.1777633       45.80397
2015    2       1       0.2114989       52.75331
2015    2       2       0.2011889       50.71579
2015    2       3       0.1923364       48.94579
2015    2       4       0.1944349       49.4972
2015    2       5       0.1979527       50.35509
2015    2       6       0.2000837       50.83328
2015    2       7       0.1983362       50.51613
2015    3       0       0.2007494       51.05346
2015    3       1       0.2158787       54.04816
2015    3       2       0.258056        62.18549
2015    3       3       0.2693778       64.57868
2015    3       4       0.310157        72.2932
2015    3       5       0.3690375       82.64553
2015    3       6       0.3433604       78.06926
2015    3       7       0.2836881       67.14878
2015    4       0       0.2730573       64.97635
2015    4       1       0.2937781       68.66244
2015    4       2       0.2833161       66.68788
2015    4       3       0.2445744       59.34889
2015    4       4       0.1894494       48.32073
2015    4       5       0.1484766       39.64703
2015    4       6       0.1435154       38.51071
2015    4       7       0.1298153       35.36616
2015    5       0       0.1306257       35.4127
2015    5       1       0.1430635       38.02792
2015    5       2       0.1576954       41.07696
2015    5       3       0.1525379       39.86933
2015    5       4       0.1769254       44.8899
2015    5       5       0.1689394       43.28664
2015    5       6       0.1899448       47.691
2015    5       7       0.1792638       45.53751
2015    6       0       0.1642107       42.40782
2015    6       1       0.1669175       42.96767
2015    6       2       0.1415306       37.64726
2015    6       3       0.1373878       36.78567
2015    6       4       0.1541599       40.44708
2015    6       5       0.1498434       39.57686
2015    6       6       0.1548597       40.76533
2015    6       7       0.1567922       41.23669
2015    7       0       0.1344171       36.31958
2015    7       1       0.1270251       34.61182
2015    7       2       0.1331421       35.85579
2015    7       3       0.1321142       35.528
2015    7       4       0.1229095       33.48589
2015    7       5       0.1199546       32.84861
2015    7       6       0.1283353       34.70043
2015    7       7       0.1309502       35.22035
2015    8       0       0.1363628       36.32405
2015    8       1       0.1689518       43.13415
2015    8       2       0.1478416       38.76339
2015    8       3       0.132828        35.49881
2015    8       4       0.1261212       34.04639
2015    8       5       0.1313138       35.17751
2015    8       6       0.1296928       34.8193
2015    8       7       0.1162387       31.85055
2015    9       0       0.108572        30.16911
2015    9       1       0.1104957       30.60507
2015    9       2       0.1208787       32.84042
2015    9       3       0.1152344       31.5525
2015    9       4       0.1059014       29.48952
2015    9       5       0.1082937       30.02049
2015    9       6       0.1104109       30.47183
2015    9       7       0.1105766       30.49729
2015    10      0       0.1050437       29.29846
2015    10      1       0.1023352       28.71943
2015    10      2       0.1012249       28.45338
2015    10      3       0.1007542       28.30787
2015    10      4       0.1071122       29.73887
2015    10      5       0.1393991       36.83837
2015    10      6       0.1238749       33.54136
2015    10      7       0.1228506       33.31618
2015    11      0       0.1433774       37.71777
2015    11      1       0.1797213       45.38395
2015    11      2       0.2430473       58.20312
2015    11      3       0.2439          58.45817
2015    11      4       0.2400982       57.78342
2015    11      5       0.2336945       56.55846
2015    11      6       0.2186177       53.57109
2015    11      7       0.2137121       52.59061
2015    12      0       0.2137437       52.66411
2015    12      1       0.1945389       48.70581
2015    12      2       0.154355        40.45905
2015    12      3       0.1485274       39.29775
2015    12      4       0.1294369       35.25645
2015    12      5       0.1183403       32.90681
2015    12      6       0.1126831       31.63706
2015    12      7       0.1173663       32.67181
2015    13      0       0.1263604       34.68085
2015    13      1       0.1358117       36.79127
2015    13      2       0.1448458       38.72884
2015    13      3       0.1460334       38.98057
2015    13      4       0.171113        44.37816
2015    13      5       0.1928521       48.82383
2015    13      6       0.1714524       44.44827
2015    13      7       0.1681752       43.52076
2015    14      0       0.1761856       45.17879
2015    14      1       0.1554841       40.79014
2015    14      2       0.1618829       42.08734
2015    14      3       0.15135         39.75133
2015    14      4       0.1285202       34.83791
2015    14      5       0.1270564       34.62652
2015    14      6       0.1408071       37.55928
2015    14      7       0.1563956       40.87992
2015    15      0       0.1613579       41.89111
2015    15      1       0.1524142       40.01619
2015    15      2       0.1494867       39.37621
2015    15      3       0.1562756       40.85273
2015    15      4       0.1588325       41.48493
2015    15      5       0.1531263       40.29914
2015    15      6       0.1564461       41.03786
2015    15      7       0.1333236       35.98395
2015    16      0       0.1352402       36.28649
2015    16      1       0.1565974       40.87115
2015    16      2       0.1388123       37.13263
2015    16      3       0.1437197       38.23669
2015    16      4       0.1629794       42.3877
2015    16      5       0.2474636       59.38711
2015    16      6       0.2575118       61.21312
2015    16      7       0.2459242       59.09889
2015    17      0       0.2147056       53.07182
2015    17      1       0.1623734       42.21179
2015    17      2       0.1721632       44.18868
2015    17      3       0.1797089       45.67836
2015    17      4       0.1820229       46.19547
2015    17      5       0.2101048       51.82652
2015    17      6       0.2224891       54.22485
2015    17      7       0.2153373       52.75925
2015    18      0       0.1979901       49.25096
2015    18      1       0.1793407       45.42829
2015    18      2       0.1665632       42.71994
2015    18      3       0.1394811       36.95564
2015    18      4       0.1460296       38.32575
2015    18      5       0.1369969       36.36417
2015    18      6       0.1212184       32.90313
2015    18      7       0.1084433       30.07676
2015    19      0       0.09995853      28.17342
2015    19      1       0.09411989      26.86712
2015    19      2       0.0889727       25.7257
2015    19      3       0.08309331      24.42203
2015    19      4       0.07761618      23.25777
2015    19      5       0.07559318      22.84123
2015    19      6       0.07602414      22.96371
2015    19      7       0.08372579      24.67823
2015    20      0       0.0921567       26.55976
2015    20      1       0.1076974       30.01612
2015    20      2       0.1175762       32.27232
2015    20      3       0.1283545       34.70593
2015    20      4       0.1361988       36.37781
2015    20      5       0.1281788       34.65381
2015    20      6       0.1186075       32.61234
2015    20      7       0.1124074       31.27814
2015    21      0       0.1015578       28.86352
2015    21      1       0.09044802      26.33446
2015    21      2       0.08009429      23.97775
2015    21      3       0.07403548      22.58979
2015    21      4       0.06924158      21.45884
2015    21      5       0.06756422      21.04221
2015    21      6       0.06784986      21.09371
2015    21      7       0.06566928      20.56127
2015    22      0       0.06036377      19.33333
2015    22      1       0.05698664      18.54824
2015    22      2       0.06006016      19.27268
2015    22      3       0.06943417      21.51057
2015    22      4       0.08077203      24.17571
2015    22      5       0.09475868      27.39945
2015    22      6       0.1052546       29.77497
2015    22      7       0.1005813       28.67801
2015    23      0       0.09152554      26.58215
2015    23      1       0.08887049      25.95353
2015    23      2       0.1012889       28.80163
2015    23      3       0.1110389       30.95745
2015    23      4       0.1065128       30.00918
2015    23      5       0.09069935      26.52333
2015    23      6       0.07960065      23.97661
2015    23      7       0.08087572      24.14895
2015    24      0       0.07738486      23.3984
2015    24      1       0.07772256      23.44684
2015    24      2       0.08559109      25.20225
2015    24      3       0.07570171      22.92756
2015    24      4       0.06618333      20.70075
2015    24      5       0.05351214      17.59104
2015    24      6       0.05100653      16.94603
2015    24      7       0.05534303      17.97973
2015    25      0       0.05901191      18.82255
2015    25      1       0.06590041      20.38058
2015    25      2       0.07609527      22.70748
2015    25      3       0.06824417      20.97807
2015    25      4       0.06848415      21.06341
2015    25      5       0.08161402      24.06591
2015    25      6       0.09350435      26.74384
2015    25      7       0.1228072       33.15901
2015    26      0       0.1200994       32.60085
2015    26      1       0.1119368       30.81382
2015    26      2       0.09341281      26.72566
2015    26      3       0.07703517      23.01214
2015    26      4       0.06406769      20.03182
2015    26      5       0.05652754      18.27888
2015    26      6       0.05481963      17.86664
2015    26      7       0.05315765      17.46595
2015    27      0       0.05452271      17.79107
2015    27      1       0.0566503       18.2942
2015    27      2       0.05619795      18.20984
2015    27      3       0.05571492      18.10543
2015    27      4       0.05537921      18.00233
2015    27      5       0.04997058      16.71046
2015    27      6       0.04673774      15.95293
2015    27      7       0.04638116      15.91642
2015    28      0       0.04670068      15.95464
2015    28      1       0.04836257      16.26993
2015    28      2       0.05976268      18.92935
2015    28      3       0.079516        23.50678
2015    28      4       0.1225353       33.22011
2015    28      5       0.1677736       43.47618
2015    28      6       0.2989649       70.09907
2015    28      7       0.3574472       80.72397
2015    29      0       0.3208376       74.26093
2015    29      1       0.3317376       76.19293
2015    29      2       0.2713797       65.07617
2015    29      3       0.2868187       68.09793
2015    29      4       0.2452232       60.20047
2015    29      5       0.2040185       51.84252
2015    29      6       0.1953908       49.82768
2015    29      7       0.1797534       46.34904
2015    30      0       0.1573094       41.41809
2015    30      1       0.1959349       49.49589
2015    30      2       0.3099268       71.87255
2015    30      3       0.2618062       62.92711
2015    30      4       0.3134054       72.73044
2015    30      5       0.3013295       70.78827
2015    30      6       0.3292059       76.04351
2015    30      7       0.2787503       66.60445
2015    31      0       0.3010475       70.86718
2015    31      1       0.2761165       65.79947
2015    31      2       0.2213237       54.95625
2015    31      3       0.1921099       48.79111
2015    31      4       0.2146526       53.56754
2015    31      5       0.268482        64.19209
2015    31      6       0.2282267       56.17237
2015    31      7       0.2297748       56.36487
2016    1       0       0.1175114       32.24527
2016    1       1       0.1139099       31.53158
2016    1       2       0.1094995       30.51998
2016    1       3       0.1096981       30.50444
2016    1       4       0.1100062       30.55617
2016    1       5       0.111337        30.85915
2016    1       6       0.110327        30.65274
2016    1       7       0.1087643       30.30439
2016    2       0       0.1050921       29.46876
2016    2       1       0.09695909      27.65801
2016    2       2       0.0906481       26.28886
2016    2       3       0.100296        28.48182
2016    2       4       0.122253        33.35522
2016    2       5       0.1258325       34.17095
2016    2       6       0.128326        34.73064
2016    2       7       0.1233888       33.71591
2016    3       0       0.1099474       30.82453
2016    3       1       0.09959043      28.56751
2016    3       2       0.1017449       29.13435
2016    3       3       0.1050942       29.94392
2016    3       4       0.1043242       29.76072
2016    3       5       0.09318422      27.17807
2016    3       6       0.08086097      24.21607
2016    3       7       0.09330993      27.0229
2016    4       0       0.1488234       39.46818
2016    4       1       0.1745123       45.06843
2016    4       2       0.1552709       41.0255
2016    4       3       0.147442        39.36678
2016    4       4       0.1559297       41.13529
2016    4       5       0.1758004       45.2893
2016    4       6       0.1827221       46.84104
2016    4       7       0.1886764       48.08974
2016    5       0       0.1847052       47.24145
2016    5       1       0.1710549       44.39312
2016    5       2       0.1786202       45.89894
2016    5       3       0.2294497       56.17549
2016    5       4       0.2308088       56.8219
2016    5       5       0.2548728       61.68711
2016    5       6       0.2731834       65.66598
2016    5       7       0.3230973       74.92739
2016    6       0       0.300532        70.57743
2016    6       1       0.2638806       63.55703
2016    6       2       0.2802051       66.74366
2016    6       3       0.2654736       63.83944
2016    6       4       0.2513947       61.04178
2016    6       5       0.2425985       59.35236
2016    6       6       0.2641453       63.5531
2016    6       7       0.2987283       69.94157
2016    7       0       0.3375331       76.70008
2016    7       1       0.3122282       72.14422
2016    7       2       0.3100548       71.79296
2016    7       3       0.3390662       76.79464
2016    7       4       0.3120331       71.77957
2016    7       5       0.2470436       59.59823
2016    7       6       0.201806        50.58081
2016    7       7       0.2091241       52.0095
2016    8       0       0.1782659       45.61226
2016    8       1       0.1683161       43.48514
2016    8       2       0.1744267       44.65532
2016    8       3       0.1643427       42.48736
2016    8       4       0.1612855       41.79503
2016    8       5       0.1535085       40.13632
2016    8       6       0.143527        38.09646
2016    8       7       0.1310165       35.3868
2016    9       0       0.1151127       31.94625
2016    9       1       0.1083691       30.43546
2016    9       2       0.1038265       29.46227
2016    9       3       0.105721        29.97779
2016    9       4       0.1202516       33.25306
2016    9       5       0.126093        34.56764
2016    9       6       0.1346391       36.50234
2016    9       7       0.1500056       39.91675
2016    10      0       0.1415392       38.11933
2016    10      1       0.1425986       38.37338
2016    10      2       0.1340178       36.49136
2016    10      3       0.1222032       33.88235
2016    10      4       0.116547        32.5833
2016    10      5       0.1025928       29.3757
2016    10      6       0.1037743       29.61369
2016    10      7       0.1053575       29.99648
2016    11      0       0.09790618      28.25172
2016    11      1       0.0950064       27.49231
2016    11      2       0.09052973      26.48699
2016    11      3       0.08862612      26.14595
2016    11      4       0.09258255      27.08772
2016    11      5       0.09464527      27.61207
2016    11      6       0.09200967      27.04243
2016    11      7       0.08848671      26.21056
2016    12      0       0.08786832      26.06195
2016    12      1       0.09261817      27.14793
2016    12      2       0.1019407       29.23937
2016    12      3       0.1172247       32.67698
2016    12      4       0.1370695       37.09784
2016    12      5       0.1476279       39.40236
2016    12      6       0.1461234       39.0534
2016    12      7       0.1340303       36.42726
2016    13      0       0.1152139       32.19475
2016    13      1       0.1018127       29.00138
2016    13      2       0.14661         38.73208
2016    13      3       0.1712564       44.21704
2016    13      4       0.1683891       43.6497
2016    13      5       0.1796782       46.04207
2016    13      6       0.1906251       48.29317
2016    13      7       0.2106574       52.30123
2016    14      0       0.2258529       55.23599
2016    14      1       0.2492171       59.57478
2016    14      2       0.2223556       54.26724
2016    14      3       0.1726479       44.24869
2016    14      4       0.1720149       44.30285
2016    14      5       0.1565189       41.00784
2016    14      6       0.1281234       34.88168
2016    14      7       0.1111346       31.26898
2016    15      0       0.09714383      28.21781
2016    15      1       0.08267042      24.93968
2016    15      2       0.0768652       23.61345
2016    15      3       0.07741306      23.61256
2016    15      4       0.0724815       22.34973
2016    15      5       0.06852622      21.34129
2016    15      6       0.1271921       34.81944
2016    15      7       0.1855587       47.45383
2016    16      0       0.199891        50.50221
2016    16      1       0.226289        55.88709
2016    16      2       0.2223994       55.24372
2016    16      3       0.2174088       54.23617
2016    16      4       0.1942305       49.38394
2016    16      5       0.2090588       52.33629
2016    16      6       0.2479353       60.13549
2016    16      7       0.2419472       59.05225
2016    17      0       0.2215911       54.8283
2016    17      1       0.2039006       51.30646
2016    17      2       0.1902252       48.36455
2016    17      3       0.1782913       45.81059
2016    17      4       0.1839402       46.92874
2016    17      5       0.1863547       47.38924
2016    17      6       0.1843497       46.96244
2016    17      7       0.1897571       48.00592
2016    18      0       0.1932965       48.59986
2016    18      1       0.218511        53.73062
2016    18      2       0.2203302       54.19886
2016    18      3       0.2022106       50.45812
2016    18      4       0.1947897       48.90542
2016    18      5       0.2251516       54.95707
2016    18      6       0.2396049       57.69696
2016    18      7       0.2050841       50.8954
2016    19      0       0.1520167       39.88688
2016    19      1       0.1138558       31.55255
2016    19      2       0.1010999       28.68986
2016    19      3       0.121294        33.20958
2016    19      4       0.2528685       60.61341
2016    19      5       0.2566573       61.65695
2016    19      6       0.2489271       60.35166
2016    19      7       0.2741202       64.84125
2016    20      0       0.2216373       54.93481
2016    20      1       0.2560868       61.80965
2016    20      2       0.262772        63.37711
2016    20      3       0.2909533       68.6588
2016    20      4       0.2628169       63.22283
2016    20      5       0.2097462       52.64341
2016    20      6       0.2034858       51.32864
2016    20      7       0.1822284       46.95061
2016    21      0       0.1733086       45.19197
2016    21      1       0.1633691       43.04495
2016    21      2       0.1511246       40.42713
2016    21      3       0.1525855       40.81516
2016    21      4       0.1430444       38.75041
2016    21      5       0.136404        37.19928
2016    21      6       0.1365937       37.11105
2016    21      7       0.1235945       34.14982
2016    22      0       0.1104428       31.07882
2016    22      1       0.1142393       31.78897
2016    22      2       0.1337423       36.11915
2016    22      3       0.1648367       42.95216
2016    22      4       0.1778478       45.77043
2016    22      5       0.1775025       45.78608
2016    22      6       0.1719242       44.68582
2016    22      7       0.1934731       49.25619
2016    23      0       0.1990328       50.39555
2016    23      1       0.1936333       49.21875
2016    23      2       0.1643289       43.15862
2016    23      3       0.1432142       38.73806
2016    23      4       0.1288502       35.61909
2016    23      5       0.1001741       28.99694
2016    23      6       0.09545613      27.7698
2016    23      7       0.1392072       37.20888
2016    24      0       0.2475925       59.49583
2016    24      1       0.346878        78.48645
2016    24      2       0.3103222       72.53369
2016    24      3       0.2733151       66.06161
2016    24      4       0.2261037       56.7427
2016    24      5       0.2210099       55.64342
2016    24      6       0.2575564       62.69843
2016    24      7       0.3997914       88.64061
2016    25      0       0.4098856       90.55412
2016    25      1       0.3406903       78.79473
2016    25      2       0.4234752       92.98756
2016    25      3       0.4353377       94.55771
2016    25      4       0.4449127       95.99624
2016    25      5       0.2842284       67.87263
2016    25      6       0.141934        38.87854
2016    25      7       0.0943562       27.95017
2016    26      0       0.08500752      25.58973
2016    26      1       0.08730079      25.96789
2016    26      2       0.1032465       29.57055
2016    26      3       0.1144451       32.02052
2016    26      4       0.113184        31.6103
2016    26      5       0.1086083       30.44226
2016    26      6       0.1297647       34.96925
2016    26      7       0.1198641       32.95374
2016    27      0       0.08636362      25.59813
2016    27      1       0.07157258      22.08792
2016    27      2       0.0603243       19.39824
2016    27      3       0.0543844       17.9098
2016    27      4       0.06299939      19.9344
2016    27      5       0.0720099       22.1521
2016    27      6       0.08444353      25.08026
2016    27      7       0.09080614      26.61523
2016    28      0       0.0855538       25.32163
2016    28      1       0.1042443       29.5975
2016    28      2       0.1103745       30.81612
2016    28      3       0.1365562       36.39278
2016    28      4       0.1316697       35.4141
2016    28      5       0.1254546       34.32188
2016    28      6       0.1245041       34.21506
2016    28      7       0.1318433       35.84013
2016    29      0       0.1387654       37.30372
2016    29      1       0.1575991       41.42071
2016    29      2       0.2419395       58.77545
2016    29      3       0.3052787       71.47736
2016    29      4       0.263948        63.64008
2016    29      5       0.1783265       46.15087
2016    29      6       0.1389402       37.49555
2016    29      7       0.1347345       36.61303
2016    30      0       0.1377798       37.19191
2016    30      1       0.1499956       39.8299
2016    30      2       0.1427867       38.28409
2016    30      3       0.1381525       37.35475
2016    30      4       0.1572447       41.48921
2016    30      5       0.214514        53.54737
2016    30      6       0.2543724       61.59934
2016    30      7       0.2640318       63.65578
2016    31      0       0.2375652       58.55874
2016    31      1       0.2387475       58.72894
2016    31      2       0.2308642       56.92154
2016    31      3       0.1947288       49.42529
2016    31      4       0.1955294       49.3673
2016    31      5       0.203235        50.91463
2016    31      6       0.211561        52.32369
2016    31      7       0.2751656       64.54283
2017    1       0       0.06302755      20.41857
2017    1       1       0.06220633      20.12761
2017    1       2       0.06350228      20.39163
2017    1       3       0.06690149      21.12724
2017    1       4       0.07249937      22.38589
2017    1       5       0.08421375      25.20771
2017    1       6       0.096084        28.0213
2017    1       7       0.1049903       30.09256
2017    2       0       0.114468        32.26806
2017    2       1       0.1207189       33.69355
2017    2       2       0.1217778       33.92305
2017    2       3       0.1159804       32.57522
2017    2       4       0.1279356       35.35901
2017    2       5       0.1642278       43.48632
2017    2       6       0.1982281       50.74257
2017    2       7       0.1755255       45.93029
2017    3       0       0.1666469       43.80465
2017    3       1       0.161824        42.5194
2017    3       2       0.148526        39.57794
2017    3       3       0.1456409       38.79314
2017    3       4       0.09869812      28.12252
2017    3       5       0.0825253       24.37313
2017    3       6       0.08709017      25.42583
2017    3       7       0.1023483       28.91003
2017    4       0       0.137396        36.72084
2017    4       1       0.1652202       42.74903
2017    4       2       0.1580279       41.38514
2017    4       3       0.1865099       47.61234
2017    4       4       0.1993409       50.35765
2017    4       5       0.2028896       51.15509
2017    4       6       0.2166197       53.91989
2017    4       7       0.2160268       53.66794
2017    5       0       0.1640105       42.66393
2017    5       1       0.1549301       40.52063
2017    5       2       0.1443577       38.26769
2017    5       3       0.1428144       37.99038
2017    5       4       0.1349773       36.29316
2017    5       5       0.1295126       35.1023
2017    5       6       0.1278524       34.73589
2017    5       7       0.1259403       34.28805
2017    6       0       0.1237845       33.80546
2017    6       1       0.1275643       34.70468
2017    6       2       0.1463348       38.82136
2017    6       3       0.1452466       38.58103
2017    6       4       0.1652914       42.85156
2017    6       5       0.1639223       42.54874
2017    6       6       0.1551051       40.6862
2017    6       7       0.1590511       41.53198
2017    7       0       0.1711125       44.04852
2017    7       1       0.1699627       43.729
2017    7       2       0.1625893       42.13938
2017    7       3       0.1585832       41.3224
2017    7       4       0.1648203       42.62053
2017    7       5       0.1631627       42.21751
2017    7       6       0.1397629       37.1704
2017    7       7       0.1337838       35.85841
2017    8       0       0.1355248       36.21589
2017    8       1       0.1462768       38.44754
2017    8       2       0.1369015       36.40869
2017    8       3       0.1277033       34.485
2017    8       4       0.1201233       32.81987
2017    8       5       0.1194445       32.62059
2017    8       6       0.1214764       33.07138
2017    8       7       0.1320397       35.41551
2017    9       0       0.1261543       34.15995
2017    9       1       0.1304538       35.08848
2017    9       2       0.1229214       33.43019
2017    9       3       0.1054398       29.5509
2017    9       4       0.09863416      28.06104
2017    9       5       0.1145091       31.57374
2017    9       6       0.1446491       38.29579
2017    9       7       0.1759384       45.26969
2017    10      0       0.22747         55.91853
2017    10      1       0.3187003       72.98334
2017    10      2       0.2914089       67.72253
2017    10      3       0.1632467       42.76774
2017    10      4       0.1128134       31.56691
2017    10      5       0.09714622      27.80284
2017    10      6       0.08244973      24.46144
2017    10      7       0.08512209      24.9838
2017    11      0       0.1017478       28.81371
2017    11      1       0.1503875       39.51641
2017    11      2       0.2944136       68.20323
2017    11      3       0.2358274       57.06601
2017    11      4       0.1649969       42.77036
2017    11      5       0.1621602       42.24458
2017    11      6       0.1789256       45.67577
2017    11      7       0.1943663       48.74317
2017    12      0       0.1686025       43.46119
2017    12      1       0.1609758       41.87979
2017    12      2       0.1537823       40.27709
2017    12      3       0.1689289       43.56526
2017    12      4       0.2025519       50.73869
2017    12      5       0.1790515       45.83578
2017    12      6       0.1754015       45.01835
2017    12      7       0.1794353       45.77546
2017    13      0       0.1783331       45.50813
2017    13      1       0.1835141       46.68153
2017    13      2       0.1700554       43.88981
2017    13      3       0.1930516       48.67423
2017    13      4       0.2496229       60.00033
2017    13      5       0.2167663       53.62821
2017    13      6       0.185625        47.36086
2017    13      7       0.1813493       46.45057
2017    14      0       0.2106007       52.54021
2017    14      1       0.2542669       61.45781
2017    14      2       0.2693659       64.43098
2017    14      3       0.2511995       61.02083
2017    14      4       0.2187177       54.67175
2017    14      5       0.2013444       51.24945
2017    14      6       0.1864849       48.21502
2017    14      7       0.1904802       49.15036
2017    15      0       0.2121554       53.82179
2017    15      1       0.1932452       49.81768
2017    15      2       0.1606074       42.42939
2017    15      3       0.1848624       47.18309
2017    15      4       0.206718        51.64777
2017    15      5       0.251697        60.70924
2017    15      6       0.2285364       56.32156
2017    15      7       0.229388        56.58887
2017    16      0       0.2683916       64.02797
2017    16      1       0.3224381       73.95201
2017    16      2       0.3398648       77.13279
2017    16      3       0.3001372       69.85631
2017    16      4       0.2731014       64.5679
2017    16      5       0.2361536       57.20641
2017    16      6       0.2105558       52.22996
2017    16      7       0.2135033       52.80159
2017    17      0       0.2366236       57.20436
2017    17      1       0.2500642       59.70673
2017    17      2       0.218965        53.63789
2017    17      3       0.209373        51.80856
2017    17      4       0.2215398       54.2558
2017    17      5       0.2526605       60.15679
2017    17      6       0.2158337       53.17692
2017    17      7       0.1906205       48.23241
2017    18      0       0.1968822       49.55939
2017    18      1       0.2155548       53.40336
2017    18      2       0.2135774       52.82833
2017    18      3       0.1808312       46.12375
2017    18      4       0.1809969       46.25171
2017    18      5       0.1775985       45.5534
2017    18      6       0.1998517       50.21874
2017    18      7       0.1837886       46.92942
2017    19      0       0.1632951       42.55846
2017    19      1       0.160519        41.9329
2017    19      2       0.1564286       41.03513
2017    19      3       0.1552631       40.7584
2017    19      4       0.151108        39.8478
2017    19      5       0.1505804       39.68575
2017    19      6       0.1609524       41.84279
2017    19      7       0.157291        41.03048
2017    20      0       0.1622843       42.09035
2017    20      1       0.1551027       40.59742
2017    20      2       0.1547771       40.53122
2017    20      3       0.1394736       37.22844
2017    20      4       0.1270895       34.59118
2017    20      5       0.1136221       31.71354
2017    20      6       0.1119238       31.36875
2017    20      7       0.1311512       35.53479
2017    21      0       0.1427378       37.92734
2017    21      1       0.168859        43.40484
2017    21      2       0.1852611       46.73105
2017    21      3       0.1626754       41.9663
2017    21      4       0.1772484       44.89405
2017    21      5       0.1855137       46.56493
2017    21      6       0.1518472       39.65085
2017    21      7       0.1133473       31.50374
2017    22      0       0.0641169       20.27443
2017    22      1       0.09390317      26.94453
2017    22      2       0.1880517       47.57222
2017    22      3       0.2508303       60.49776
2017    22      4       0.2758875       65.46899
2017    22      5       0.2899549       68.41223
2017    22      6       0.3046401       70.96774
2017    22      7       0.2605947       62.81308
2017    23      0       0.2394995       58.60411
2017    23      1       0.2129084       53.25096
2017    23      2       0.1944376       49.27902
2017    23      3       0.1613883       42.12827
2017    23      4       0.1122246       31.59163
2017    23      5       0.1200775       33.28209
2017    23      6       0.1433962       38.15142
2017    23      7       0.2119137       51.93803
2017    24      0       0.1049264       29.31543
2017    24      1       0.1348865       35.60884
2017    24      2       0.1307118       34.73635
2017    24      3       0.126128        33.78303
2017    24      4       0.1310019       34.82906
2017    24      5       0.1359401       35.87137
2017    24      6       0.1373375       36.27506
2017    24      7       0.1468147       38.34464
2017    25      0       0.1389334       36.71044
2017    25      1       0.1281461       34.4124
2017    25      2       0.1081775       30.05994
2017    25      3       0.09736525      27.67408
2017    25      4       0.1010348       28.55342
2017    25      5       0.1045612       29.35467
2017    25      6       0.1201556       32.83083
2017    25      7       0.1332171       35.6884
2017    26      0       0.1627898       42.03969
2017    26      1       0.1597958       41.40078
2017    26      2       0.1442427       38.06801
2017    26      3       0.1350325       36.15585
2017    26      4       0.1434492       38.00862
2017    26      5       0.124942        33.95923
2017    26      6       0.1208482       33.10169
2017    26      7       0.08677285      25.428
2017    27      0       0.05329949      17.59052
2017    27      1       0.05021175      16.7825
2017    27      2       0.070859        21.70183
2017    27      3       0.09744835      27.92519
2017    27      4       0.1014947       28.89254
2017    27      5       0.09946395      28.47839
2017    27      6       0.102855        29.20372
2017    27      7       0.1067727       30.1247
2017    28      0       0.1090589       30.69492
2017    28      1       0.1211764       33.38604
2017    28      2       0.1318159       35.67186
2017    28      3       0.1386831       37.20226
2017    28      4       0.1497733       39.58451
2017    28      5       0.1911954       48.39259
2017    28      6       0.1970261       49.81479
2017    28      7       0.2199598       54.49124
2017    29      0       0.2402956       58.62199
2017    29      1       0.2818229       66.40457
2017    29      2       0.246186        59.5108
2017    29      3       0.2056675       51.50524
2017    29      4       0.2144568       53.34667
2017    29      5       0.2119384       52.73056
2017    29      6       0.1895205       48.11445
2017    29      7       0.1877798       47.65487
2017    30      0       0.1721322       44.2702
2017    30      1       0.1874729       47.42349
2017    30      2       0.1964222       49.2345
2017    30      3       0.2002103       50.08844
2017    30      4       0.1757547       45.10286
2017    30      5       0.1791223       45.9043
2017    30      6       0.2008943       50.3283
2017    30      7       0.2418418       58.85245
2017    31      0       0.2745957       64.9659
2017    31      1       0.2274885       55.57642
2017    31      2       0.1548703       40.57278
2017    31      3       0.1978365       49.37959
2017    31      4       0.1978024       49.364
2017    31      5       0.1827842       46.28032
2017    31      6       0.1287123       34.8423
2017    31      7       0.0913927       26.48003
2018    1       0       0.3559137       80.60882
2018    1       1       0.3472226       78.73946
2018    1       2       0.256549        62.05838
2018    1       3       0.2050457       51.97895
2018    1       4       0.1496552       40.36808
2018    1       5       0.1255882       34.89867
2018    1       6       0.1555232       41.2977
2018    1       7       0.2439141       59.11111
2018    2       0       0.2680501       64.09369
2018    2       1       0.2335044       57.64889
2018    2       2       0.2088043       52.46061
2018    2       3       0.244089        59.08698
2018    2       4       0.2360278       57.41596
2018    2       5       0.203293        51.02226
2018    2       6       0.2016573       50.90505
2018    2       7       0.1842236       47.2273
2018    3       0       0.1621273       42.34742
2018    3       1       0.1756985       45.13905
2018    3       2       0.214357        53.06916
2018    3       3       0.2116013       52.49976
2018    3       4       0.1618375       42.20684
2018    3       5       0.1900028       48.16002
2018    3       6       0.2992481       69.68538
2018    3       7       0.279399        65.97719
2018    4       0       0.229762        56.20886
2018    4       1       0.203835        51.01665
2018    4       2       0.2392156       58.15638
2018    4       3       0.2348955       57.36985
2018    4       4       0.1985374       50.1271
2018    4       5       0.1916867       48.70131
2018    4       6       0.1829531       46.92132
2018    4       7       0.1641745       42.95945
2018    5       0       0.1692          43.97108
2018    5       1       0.1746642       45.00551
2018    5       2       0.1705249       44.14775
2018    5       3       0.1672777       43.49939
2018    5       4       0.1718962       44.42212
2018    5       5       0.1550348       40.93024
2018    5       6       0.1284673       35.30842
2018    5       7       0.1211107       33.62082
2018    6       0       0.1183214       32.81848
2018    6       1       0.117845        32.65101
2018    6       2       0.1206899       33.28861
2018    6       3       0.1266126       34.66854
2018    6       4       0.1278615       35.04014
2018    6       5       0.1235474       34.1953
2018    6       6       0.1165587       32.61225
2018    6       7       0.1250492       34.41859
2018    7       0       0.1236347       34.08253
2018    7       1       0.111765        31.43818
2018    7       2       0.1049043       29.81155
2018    7       3       0.1141891       31.83122
2018    7       4       0.1486158       39.5015
2018    7       5       0.2076817       52.28197
2018    7       6       0.2375776       58.57661
2018    7       7       0.255592        62.1684
2018    8       0       0.2738425       66.10675
2018    8       1       0.3305033       77.11147
2018    8       2       0.3398873       78.98004
2018    8       3       0.3442384       79.65843
2018    8       4       0.3503693       80.84948
2018    8       5       0.3456711       80.33382
2018    8       6       0.3549178       82.1985
2018    8       7       0.3764298       85.86163
2018    9       0       0.430099        94.91377
2018    9       1       0.4042747       90.51074
2018    9       2       0.3613036       82.9633
2018    9       3       0.3168359       74.72989
2018    9       4       0.2904237       69.63087
2018    9       5       0.3080526       72.77634
2018    9       6       0.2933957       70.00096
2018    9       7       0.3028685       71.64068
2018    10      0       0.3740397       84.12388
2018    10      1       0.3806127       85.14358
2018    10      2       0.3003285       70.89047
2018    10      3       0.253076        61.86596
2018    10      4       0.2299545       57.31707
2018    10      5       0.2189789       55.17974
2018    10      6       0.2087895       53.11025
2018    10      7       0.193183        49.98969
2018    11      0       0.1782111       46.94198
2018    11      1       0.1690222       44.91201
2018    11      2       0.1586441       42.66635
2018    11      3       0.1537233       41.68255
2018    11      4       0.1735001       45.96428
2018    11      5       0.2046732       52.38555
2018    11      6       0.2315631       57.62596
2018    11      7       0.2242481       56.00299
2018    12      0       0.2051547       52.22564
2018    12      1       0.1773168       46.48495
2018    12      2       0.1727765       45.36183
2018    12      3       0.1824119       47.18892
2018    12      4       0.1960715       49.95326
2018    12      5       0.1981166       50.40827
2018    12      6       0.2010795       51.11667
2018    12      7       0.1961872       50.10642
2018    13      0       0.1946083       49.74159
2018    13      1       0.2017509       51.19703
2018    13      2       0.2018111       51.23986
2018    13      3       0.2022577       51.47217
2018    13      4       0.1910616       49.20448
2018    13      5       0.1999424       51.15836
2018    13      6       0.2012517       51.42342
2018    13      7       0.2008959       51.29306
2018    14      0       0.2074224       52.50824
2018    14      1       0.2265151       56.27351
2018    14      2       0.2263436       56.18724
2018    14      3       0.2297912       56.78546
2018    14      4       0.2214516       55.03385
2018    14      5       0.2153238       53.86557
2018    14      6       0.2174864       54.36529
2018    14      7       0.2092259       52.6554
2018    15      0       0.1970299       50.19886
2018    15      1       0.1750365       45.6183
2018    15      2       0.1779042       46.28629
2018    15      3       0.1604727       42.43503
2018    15      4       0.1659763       43.58859
2018    15      5       0.1515881       40.40497
2018    15      6       0.1364647       37.01279
2018    15      7       0.1356328       36.82082
2018    16      0       0.1512058       40.20254
2018    16      1       0.1586912       41.78014
2018    16      2       0.1632217       42.76467
2018    16      3       0.1333769       36.19854
2018    16      4       0.1224819       33.76486
2018    16      5       0.1190332       32.98397
2018    16      6       0.1193776       33.08527
2018    16      7       0.1233438       33.9439
2018    17      0       0.1272662       34.80086
2018    17      1       0.128282        35.02667
2018    17      2       0.1328851       36.02422
2018    17      3       0.1363653       36.76158
2018    17      4       0.1335474       36.11612
2018    17      5       0.1259926       34.44672
2018    17      6       0.1240197       34.04746
2018    17      7       0.1187196       32.90605
2018    18      0       0.1248828       34.23442
2018    18      1       0.136065        36.60746
2018    18      2       0.1397966       37.40722
2018    18      3       0.1422397       37.9315
2018    18      4       0.1461029       38.8177
2018    18      5       0.1424319       38.05364
2018    18      6       0.1409978       37.67022
2018    18      7       0.1519843       40.07947
2018    19      0       0.146881        38.92632
2018    19      1       0.1299622       35.16606
2018    19      2       0.1274639       34.63019
2018    19      3       0.1297634       35.17712
2018    19      4       0.1349875       36.3414
2018    19      5       0.1366262       36.67976
2018    19      6       0.1572905       41.09052
2018    19      7       0.1539536       40.30153
2018    20      0       0.1496918       39.34994
2018    20      1       0.1378933       36.78124
2018    20      2       0.1209531       33.05049
2018    20      3       0.1090595       30.36585
2018    20      4       0.10426         29.29521
2018    20      5       0.1043611       29.34235
2018    20      6       0.1045549       29.3333
2018    20      7       0.1081005       30.07747
2018    21      0       0.1024528       28.80021
2018    21      1       0.1023274       28.74628
2018    21      2       0.100681        28.37093
2018    21      3       0.09716151      27.60378
2018    21      4       0.09647062      27.45093
2018    21      5       0.09618933      27.39718
2018    21      6       0.09641811      27.42738
2018    21      7       0.1073352       29.82264
2018    22      0       0.1179318       32.17069
2018    22      1       0.1148797       31.52162
2018    22      2       0.1182844       32.25716
2018    22      3       0.1290809       34.65086
2018    22      4       0.1479702       38.80802
2018    22      5       0.138185        36.6913
2018    22      6       0.133541        35.64935
2018    22      7       0.1347992       35.84737
2018    23      0       0.1267491       34.0841
2018    23      1       0.115513        31.60795
2018    23      2       0.117657        32.08045
2018    23      3       0.1159042       31.68228
2018    23      4       0.1079181       29.89435
2018    23      5       0.1071109       29.71187
2018    23      6       0.1092593       30.18841
2018    23      7       0.1085825       30.04243
2018    24      0       0.1082998       30.00067
2018    24      1       0.1067795       29.61545
2018    24      2       0.111592        30.58444
2018    24      3       0.1012505       28.31076
2018    24      4       0.09194925      26.31854
2018    24      5       0.08846582      25.52857
2018    24      6       0.08262794      24.21832
2018    24      7       0.07641106      22.85015
2018    25      0       0.07448995      22.4465
2018    25      1       0.07341989      22.24794
2018    25      2       0.07548752      22.82961
2018    25      3       0.1163768       32.35554
2018    25      4       0.1096386       30.92658
2018    25      5       0.1190405       32.96171
2018    25      6       0.1139847       31.80767
2018    25      7       0.1119459       31.31723
2018    26      0       0.1295294       35.12693
2018    26      1       0.1411162       37.44372
2018    26      2       0.1327794       35.43791
2018    26      3       0.1233028       33.24154
2018    26      4       0.10512         29.27724
2018    26      5       0.08845743      25.56792
2018    26      6       0.08443091      24.7673
2018    26      7       0.07559867      22.79797
2018    27      0       0.06471937      20.23219
2018    27      1       0.06360139      19.94956
2018    27      2       0.07098426      21.66597
2018    27      3       0.07797515      23.27993
2018    27      4       0.08279885      24.32294
2018    27      5       0.08919344      25.69631
2018    27      6       0.09021563      25.88305
2018    27      7       0.09202645      26.24116
2018    28      0       0.1076861       29.69305
2018    28      1       0.1042145       28.97062
2018    28      2       0.102572        28.61953
2018    28      3       0.109474        30.14274
2018    28      4       0.1107275       30.39974
2018    28      5       0.1020905       28.49288
2018    28      6       0.1059674       29.38736
2018    28      7       0.1039615       28.93037
2018    29      0       0.08842211      25.4356
2018    29      1       0.08380991      24.37351
2018    29      2       0.08176187      23.8891
2018    29      3       0.08305826      24.1947
2018    29      4       0.08958969      25.69777
2018    29      5       0.1068866       29.61303
2018    29      6       0.1112255       30.67813
2018    29      7       0.1221086       33.13907
2018    30      0       0.1443355       37.98199
2018    30      1       0.1635561       42.0825
2018    30      2       0.1675849       42.98308
2018    30      3       0.1445194       38.28198
2018    30      4       0.1894925       47.75591
2018    30      5       0.195185        48.92589
2018    30      6       0.1942305       48.64539
2018    30      7       0.2430708       58.47699
2018    31      0       0.2107099       52.1713
2018    31      1       0.2010774       50.19709
2018    31      2       0.2005672       49.94479
2018    31      3       0.1745359       44.48246
2018    31      4       0.1695769       43.30752
2018    31      5       0.164864        42.2751
2018    31      6       0.1645728       42.26574
2018    31      7       0.1761662       44.63659
