####################################################################################################
# Month: 06Jun                                                                                     #
# Station: CAT                                                                                     #
# Frequency: 230 GHz                                                                               #
# Columns are: year    day     tau     Tb (K)                                                      #
####################################################################################################
2009    1       0.12839912      35.4965225
2009    2       0.37483909      82.8439575
2009    3       0.58475065      119.33544375
2009    4       0.42706479      92.0495575
2009    5       0.2652056       66.40839125
2009    6       0.16486308      44.4587575
2009    7       0.12056585      34.70748
2009    8       0.23298392      59.65524
2009    9       0.23837246      58.4673475
2009    10      0.1391934       38.8625975
2009    11      0.0903962       27.62197875
2009    12      0.13042555      36.97224875
2009    13      0.35319575      73.99825625
2009    14      0.25273143      58.62713625
2009    15      0.31037928      73.08502125
2009    16      0.56202895      116.59064
2009    17      0.45485862      99.17652
2009    18      0.47324095      102.1035975
2009    19      0.36624652      79.7743675
2009    20      0.17156491      44.59909125
2009    21      0.33920038      77.92748875
2009    22      0.17300969      45.400235
2009    23      0.2440671       60.85335625
2009    24      0.20658116      53.42472
2009    25      0.07320604      23.14885625
2009    26      0.32503612      75.56445625
2009    27      0.86585269      156.21605
2009    28      0.75631434      142.395175
2009    29      0.54133356      112.47938125
2009    30      0.54541064      111.76702875
2010    1       0.23850302      58.7884975
2010    2       0.34297524      78.52125875
2010    3       0.32148122      72.898565
2010    4       0.33925142      79.3359525
2010    5       0.2652575       66.30168625
2010    6       0.30436115      71.68772875
2010    7       0.06226782      19.75662625
2010    8       0.16455354      42.82733375
2010    9       0.30223809      72.96347
2010    10      0.24499349      60.6271225
2010    11      0.47648886      101.9793825
2010    12      0.55579972      115.7201
2010    13      0.3120039       73.52093
2010    14      0.49317723      104.062555
2010    15      0.40552286      90.08103875
2010    16      0.25682865      62.979535
2010    17      0.43971702      93.50747
2010    18      0.43870455      95.82921625
2010    19      0.26341196      63.17326625
2010    20      0.3156899       73.323525
2010    21      0.34781161      79.1701975
2010    22      0.51882528      108.60382625
2010    23      0.54737056      112.34089875
2010    24      0.37278994      83.34499875
2010    25      0.22202971      55.60020625
2010    26      0.20459538      51.99543625
2010    27      0.29131379      68.3712975
2010    28      0.39077208      86.27376875
2010    29      0.25826818      63.96366875
2010    30      0.44777424      93.0521275
2011    1       0.51305379      110.5996875
2011    2       0.66604391      131.3569125
2011    3       0.33729585      79.70230625
2011    4       0.27988991      65.8990775
2011    5       0.40470545      90.868865
2011    6       0.32237329      75.40861375
2011    7       0.55101191      113.5792375
2011    8       0.53726481      111.28135375
2011    9       0.582093        118.82815
2011    10      0.69798556      136.4847875
2011    11      0.27830062      64.87775625
2011    12      0.29383032      67.67443125
2011    13      0.19290715      50.033375
2011    14      0.27168715      65.19859625
2011    15      0.39636068      88.6502225
2011    16      0.40414491      90.49651
2011    17      0.46340165      99.94209125
2011    18      0.52483602      109.22961625
2011    19      0.52931753      110.2611
2011    20      0.32466994      76.87233125
2011    21      0.20702521      53.13278875
2011    22      0.28753662      70.89796375
2011    23      0.31253338      73.41726
2011    24      0.12269775      33.20738375
2011    25      0.10651643      30.04046
2011    26      0.29834668      71.92844
2011    27      0.32638241      76.67302375
2011    28      0.363834        83.33708125
2011    29      0.31745502      73.6960575
2011    30      0.31383561      72.27889125
2012    1       0.98171923      168.4609625
2012    2       0.28825767      67.927215
2012    3       0.28041503      66.99345875
2012    4       0.13102841      36.0647175
2012    5       0.18986398      48.00844875
2012    6       0.12121338      33.81283875
2012    7       0.19197441      49.62557875
2012    8       0.12711477      34.51239375
2012    9       0.26750887      65.57689875
2012    10      0.26032921      64.237035
2012    11      0.46174032      98.296805
2012    12      0.84888899      154.0664375
2012    13      0.58260248      111.5895975
2012    14      0.10690924      30.270835
2012    15      0.06917198      21.72632625
2012    16      0.40417935      89.66090375
2012    17      0.64324469      127.99665375
2012    18      0.18332068      45.77884625
2012    19      0.28971308      68.2008275
2012    20      0.41837468      92.7510675
2012    21      0.29068534      67.69604125
2012    22      0.4325073       94.658605
2012    23      0.46351035      100.93232
2012    24      0.16503819      40.7604525
2012    25      0.19376898      50.95392875
2012    26      0.18957304      50.05429625
2012    27      0.45552766      99.6160575
2012    28      0.41341782      92.62790875
2012    29      0.52073976      110.45824625
2012    30      0.53733749      112.686525
2013    1       0.45433429      99.26754
2013    2       0.46234909      100.63352375
2013    3       0.65784545      131.4642375
2013    4       0.75741604      145.1979875
2013    5       0.2761353       63.78446375
2013    6       0.55260134      115.46071875
2013    7       0.14184217      36.43822625
2013    8       0.17671125      47.10463
2013    9       0.38828659      86.23145625
2013    10      0.36260249      83.75587625
2013    11      0.25160147      62.42508125
2013    12      0.5744617       118.5214675
2013    13      0.67762066      129.33953375
2013    14      0.61700706      121.6321
2013    15      0.46280261      97.78113875
2013    16      0.2163147       53.6039
2013    17      0.34540644      79.0398975
2013    18      0.42356526      91.16431375
2013    19      0.31075222      73.65198125
2013    20      0.29962339      71.84204875
2013    21      0.50221655      106.15627875
2013    22      0.28317105      66.6196
2013    23      0.27827593      67.99419625
2013    24      0.38055992      85.67734
2013    25      0.32176916      74.72989
2013    26      0.50223516      106.381745
2013    27      0.63780567      126.2822125
2013    28      0.44531559      96.50524875
2013    29      0.39754764      87.66359625
2013    30      0.2213563       53.47517875
2014    1       0.508555        109.23684625
2014    2       0.58775989      121.2826
2014    3       0.46443599      99.45991875
2014    4       0.39433009      86.55491375
2014    5       0.31597578      72.970545
2014    6       0.40905522      90.16768125
2014    7       0.40347718      88.69741875
2014    8       0.41486355      91.82727
2014    9       0.36771359      84.7397475
2014    10      0.46794889      101.27567625
2014    11      0.3817519       84.55494
2014    12      0.21707532      54.11047125
2014    13      0.17908851      45.67578125
2014    14      0.51437928      108.746325
2014    15      0.44327848      95.28247375
2014    16      0.17763506      46.42099125
2014    17      0.22555942      56.54981625
2014    18      0.27757864      68.254855
2014    19      0.24845275      63.24893
2014    20      0.23835196      60.341675
2014    21      0.53398589      109.58401625
2014    22      0.53246281      111.4123025
2014    23      0.19993616      50.93022875
2014    24      0.14340557      38.81431625
2014    25      0.0691704       21.7722
2014    26      0.25748695      62.49812125
2014    27      0.26607414      65.32636
2014    28      0.17048504      46.32757
2014    29      0.15699991      43.17273
2014    30      0.22387497      56.591915
2015    1       0.56603452      116.70458875
2015    2       0.69758001      136.4830375
2015    3       0.4216549       93.58179875
2015    4       0.56662574      112.1717475
2015    5       0.74857059      141.0762125
2015    6       0.50251039      104.84491
2015    7       0.40993201      90.728485
2015    8       0.45028156      97.41555625
2015    9       0.3413797       78.42636125
2015    10      0.34029521      78.43435
2015    11      0.13895077      37.43239
2015    12      0.09418426      27.94875625
2015    13      0.28054782      66.79086
2015    14      0.37864044      85.25571625
2015    15      0.48212048      105.5092575
2015    16      0.41618561      92.90865125
2015    17      0.10600213      30.204705
2015    18      0.13844525      36.6992475
2015    19      0.44738989      97.916895
2015    20      0.25008533      62.14027
2015    21      0.12790739      35.39019125
2015    22      0.06830177      21.6159175
2015    23      0.08011755      24.4493875
2015    24      0.44523228      96.16192875
2015    25      0.60598725      123.4557125
2015    26      0.36261721      83.319665
2015    27      0.13707786      36.533935
2015    28      0.3894443       85.78029625
2015    29      0.3583041       83.19786375
2015    30      0.2091759       51.91505375
2016    1       0.45561802      98.00965
2016    2       0.3449006       79.395295
2016    3       0.34299195      78.965985
2016    4       0.31830302      74.09226375
2016    5       0.25124338      60.88241
2016    6       0.29210415      68.91341125
2016    7       0.22985245      57.25663125
2016    8       0.30204075      71.9616275
2016    9       0.23385208      57.869905
2016    10      0.16005683      42.52321
2016    11      0.20621208      53.7017375
2016    12      0.2682056       65.68502875
2016    13      0.25951114      62.951
2016    14      0.24345035      59.7617
2016    15      0.29560221      70.36556375
2016    16      0.15131894      40.62920375
2016    17      0.20676331      52.86402125
2016    18      0.08431008      25.57597875
2016    19      0.0863965       26.111575
2016    20      0.13584398      37.2969225
2016    21      0.20407174      53.143655
2016    22      0.27437396      64.69007125
2016    23      0.2488176       60.99770375
2016    24      0.13675687      36.73749625
2016    25      0.32674446      77.30960625
2016    26      0.26775791      67.00367625
2016    27      0.13164112      37.42997875
2016    28      0.33405578      80.634265
2016    29      0.3286819       74.940545
2016    30      0.04165009      14.87287875
2017    1       0.18387103      48.067045
2017    2       0.25490078      61.77801625
2017    3       0.38808979      86.5382325
2017    4       0.28833646      67.8458475
2017    5       0.20882795      52.1345
2017    6       0.43981751      97.37049125
2017    7       0.46277632      100.00671625
2017    8       0.41711769      91.02075375
2017    9       0.68376481      136.92495
2017    10      0.37510719      85.48078375
2017    11      0.15071422      40.84518125
2017    12      0.30811084      72.720485
2017    13      0.41685688      91.1986
2017    14      0.35191176      80.75872
2017    15      0.63439218      125.78862125
2017    16      0.67963691      132.3295625
2017    17      0.36192845      79.2493925
2017    18      0.16006882      41.72744
2017    19      0.27836024      66.19148875
2017    20      0.42105249      90.8591675
2017    21      0.74364758      141.1884
2017    22      0.48822012      103.8952225
2017    23      0.34494456      79.7963775
2017    24      0.52955398      107.45107625
2017    25      0.49370761      104.42197375
2017    26      0.54996226      114.4987675
2017    27      0.18747622      49.19966
2017    28      0.19485871      50.0771375
2017    29      0.40090951      88.55154875
2017    30      0.44121696      92.881205
2018    1       0.1300312       36.28185125
2018    2       0.09185634      27.49344125
2018    3       0.11828752      33.64432625
2018    4       0.14029891      38.47670875
2018    5       0.3779203       82.73008375
2018    6       0.16685911      43.4429075
2018    7       0.32403261      70.860935
2018    8       0.36699016      82.69226125
2018    9       0.3323748       73.570805
2018    10      0.32941424      75.04819375
2018    11      0.24623335      58.96539375
2018    12      0.16685241      43.14300375
2018    13      0.20392362      51.2288525
2018    14      0.08189557      24.6108375
2018    15      0.70552905      136.8305375
2018    16      0.61634488      126.42853375
2018    17      0.51780169      112.2072925
2018    18      0.57334661      120.7982
2018    19      0.44002742      94.66748
2018    20      0.17529375      44.69485875
2018    21      0.39659426      89.1199425
2018    22      0.45978984      100.480265
2018    23      0.17283287      42.8637025
2018    24      0.25216768      60.365685
2018    25      0.41257819      91.57312625
2018    26      0.419539        90.72814
2018    27      0.44068491      96.63211125
2018    28      0.15570825      41.64928625
2018    29      0.33620609      75.68114375
2018    30      0.56583934      117.6584
