####################################################################################################
# Month: 10Oct                                                                                     #
# Station: GAM                                                                                     #
# Frequency: 230 GHz                                                                               #
# Columns are: year    day     segment         tau     Tb (K)                                      #
####################################################################################################
2009    1       0       0.449589        103.3459
2009    1       1       0.4468594       102.7299
2009    1       2       0.4300465       99.18564
2009    1       3       0.461565        104.6998
2009    1       4       0.5743978       122.9305
2009    1       5       0.7459478       146.1674
2009    1       6       0.802139        152.8282
2009    1       7       0.7346847       144.3617
2009    2       0       0.6700333       135.6178
2009    2       1       0.7338839       143.5502
2009    2       2       0.7438612       144.2775
2009    2       3       0.8328731       154.4515
2009    2       4       0.8213144       154.2397
2009    2       5       0.8353093       156.1781
2009    2       6       0.6904404       137.7453
2009    2       7       0.4688926       104.6443
2009    3       0       0.441436        99.14184
2009    3       1       0.4064489       93.30506
2009    3       2       0.3595709       85.17137
2009    3       3       0.3494147       83.66321
2009    3       4       0.3632139       86.25418
2009    3       5       0.3725724       87.97081
2009    3       6       0.3179009       77.87717
2009    3       7       0.2708306       68.57443
2009    4       0       0.2184358       57.45782
2009    4       1       0.1681102       46.34696
2009    4       2       0.1436637       40.81085
2009    4       3       0.1537109       43.32665
2009    4       4       0.1679573       46.64168
2009    4       5       0.1709078       47.38067
2009    4       6       0.1551306       43.82416
2009    4       7       0.1481873       42.25288
2009    5       0       0.1736036       48.09611
2009    5       1       0.1682222       46.86018
2009    5       2       0.1586418       44.70773
2009    5       3       0.1667589       46.54768
2009    5       4       0.1905269       51.89278
2009    5       5       0.1770915       48.86912
2009    5       6       0.1351943       38.91092
2009    5       7       0.117494        34.46949
2009    6       0       0.1065599       31.7341
2009    6       1       0.1040143       31.11853
2009    6       2       0.1259026       36.72621
2009    6       3       0.1531822       43.35939
2009    6       4       0.1499695       42.67123
2009    6       5       0.1380117       39.89979
2009    6       6       0.1053925       31.97927
2009    6       7       0.09206778      28.66634
2009    7       0       0.09259567      28.80378
2009    7       1       0.09994989      30.62321
2009    7       2       0.1145442       34.2302
2009    7       3       0.1543104       43.77577
2009    7       4       0.2344656       62.09345
2009    7       5       0.1631265       45.98772
2009    7       6       0.1709894       47.84475
2009    7       7       0.1958145       53.43135
2009    8       0       0.1891386       51.67502
2009    8       1       0.1966889       53.30814
2009    8       2       0.2263722       60.01092
2009    8       3       0.2740133       69.87239
2009    8       4       0.2984293       74.65031
2009    8       5       0.3014825       75.45176
2009    8       6       0.3648611       87.98713
2009    8       7       0.4404246       101.6572
2009    9       0       0.5046013       112.55
2009    9       1       0.5056439       112.0322
2009    9       2       0.5367664       116.1583
2009    9       3       0.639436        130.8561
2009    9       4       0.6806803       136.7059
2009    9       5       0.5908226       124.5181
2009    9       6       0.5628698       120.4118
2009    9       7       0.5772651       123.0977
2009    10      0       0.6088881       127.4005
2009    10      1       0.6369085       130.9845
2009    10      2       0.6386974       131.5332
2009    10      3       0.6610624       135.5328
2009    10      4       0.794833        152.5412
2009    10      5       0.7365063       145.7053
2009    10      6       0.8278094       156.616
2009    10      7       0.8052311       154.5033
2009    11      0       0.7053806       141.6997
2009    11      1       0.7469849       147.1654
2009    11      2       0.6675602       136.8643
2009    11      3       0.6268573       130.558
2009    11      4       0.5742706       122.7619
2009    11      5       0.4921104       109.9924
2009    11      6       0.444275        102.0177
2009    11      7       0.3515197       84.7541
2009    12      0       0.2745205       69.1201
2009    12      1       0.2515071       64.19541
2009    12      2       0.2251107       58.76684
2009    12      3       0.2165687       57.02268
2009    12      4       0.2007007       53.5366
2009    12      5       0.1802196       49.05089
2009    12      6       0.1791042       48.9685
2009    12      7       0.167729        46.23643
2009    13      0       0.1461894       41.43791
2009    13      1       0.1443754       41.2679
2009    13      2       0.1767214       48.9261
2009    13      3       0.2183774       58.3343
2009    13      4       0.2194492       58.59338
2009    13      5       0.192926        52.79238
2009    13      6       0.1755012       48.96671
2009    13      7       0.1757817       49.07143
2009    14      0       0.1996808       54.44061
2009    14      1       0.2723941       70.07669
2009    14      2       0.3686983       88.98486
2009    14      3       0.43482         100.5985
2009    14      4       0.4320051       99.91761
2009    14      5       0.4243395       98.65832
2009    14      6       0.4594277       104.677
2009    14      7       0.5424353       117.4086
2009    15      0       0.5494881       118.1763
2009    15      1       0.575747        121.6786
2009    15      2       0.6333936       129.9134
2009    15      3       0.7667531       147.8525
2009    15      4       0.9212518       165.3353
2009    15      5       1.034765        176.6751
2009    15      6       1.014421        174.9594
2009    15      7       0.740409        145.3099
2009    16      0       0.590405        124.7769
2009    16      1       0.4832826       107.986
2009    16      2       0.3215216       78.774
2009    16      3       0.32117         79.49399
2009    16      4       0.3034472       76.2551
2009    16      5       0.3091138       77.37529
2009    16      6       0.2534103       65.96015
2009    16      7       0.2071948       56.05526
2009    17      0       0.1792439       49.6831
2009    17      1       0.1573444       44.48769
2009    17      2       0.1403752       40.48907
2009    17      3       0.1600057       45.08742
2009    17      4       0.2042959       55.04759
2009    17      5       0.234643        61.74708
2009    17      6       0.2509304       65.10622
2009    17      7       0.2866187       72.40563
2009    18      0       0.3468993       84.6232
2009    18      1       0.4047275       95.75747
2009    18      2       0.4221832       99.15584
2009    18      3       0.4298066       100.5012
2009    18      4       0.4602831       106.0247
2009    18      5       0.546663        119.7902
2009    18      6       0.6820942       139.0748
2009    18      7       0.7261393       144.9097
2009    19      0       0.7268574       145.058
2009    19      1       0.704937        142.9515
2009    19      2       0.5066261       113.5376
2009    19      3       0.4530046       104.5703
2009    19      4       0.5518755       120.4708
2009    19      5       0.7135345       143.0142
2009    19      6       0.8625025       161.1634
2009    19      7       0.7624424       149.8361
2009    20      0       0.7124573       143.6366
2009    20      1       0.7030279       142.0715
2009    20      2       0.6601182       136.0921
2009    20      3       0.7016201       141.7548
2009    20      4       0.8405019       158.8337
2009    20      5       1.051784        180.8564
2009    20      6       0.985783        174.4118
2009    20      7       0.8017406       154.4039
2009    21      0       0.8532898       160.9112
2009    21      1       0.8472456       159.4093
2009    21      2       0.8035036       154.4896
2009    21      3       0.9139798       166.2735
2009    21      4       1.062416        180.4597
2009    21      5       0.9077045       164.9435
2009    21      6       0.750264        146.8957
2009    21      7       0.7968774       152.5044
2009    22      0       0.8778483       161.6457
2009    22      1       0.8023395       153.347
2009    22      2       0.7745564       149.7833
2009    22      3       0.766419        148.6729
2009    22      4       0.9202849       166.2361
2009    22      5       1.172619        190.2925
2009    22      6       1.023978        177.1237
2009    22      7       0.8876091       163.0741
2009    23      0       0.7714789       149.5974
2009    23      1       0.7072843       141.2781
2009    23      2       0.6631116       135.104
2009    23      3       0.7369866       144.8398
2009    23      4       0.9039405       164.5017
2009    23      5       0.9995885       175.3133
2009    23      6       0.783729        151.3135
2009    23      7       0.7243506       143.8381
2009    24      0       0.8238856       155.6754
2009    24      1       0.9148495       165.7988
2009    24      2       0.853927        159.4818
2009    24      3       0.932468        167.9494
2009    24      4       0.9163254       166.4174
2009    24      5       1.004443        175.7587
2009    24      6       0.8831908       163.5361
2009    24      7       0.7610438       149.1889
2009    25      0       0.6873311       139.7471
2009    25      1       0.623391        130.7982
2009    25      2       0.5868189       125.4153
2009    25      3       0.6412451       133.3391
2009    25      4       0.7449726       147.2671
2009    25      5       0.6207507       130.4096
2009    25      6       0.5336216       117.3655
2009    25      7       0.5808279       124.4345
2009    26      0       0.5487384       119.4602
2009    26      1       0.5023678       112.0107
2009    26      2       0.5248912       115.4405
2009    26      3       0.5535049       119.533
2009    26      4       0.5780364       123.3742
2009    26      5       0.5198026       115.0875
2009    26      6       0.4676138       106.5194
2009    26      7       0.4741552       107.3867
2009    27      0       0.4981083       111.1674
2009    27      1       0.529943        116.1177
2009    27      2       0.5948168       125.5471
2009    27      3       0.599144        125.6472
2009    27      4       0.5974528       125.663
2009    27      5       0.5349059       116.5346
2009    27      6       0.4525738       103.3053
2009    27      7       0.4581129       104.2206
2009    28      0       0.5006186       111.1204
2009    28      1       0.5286541       115.7607
2009    28      2       0.5636708       121.0824
2009    28      3       0.5364713       116.3374
2009    28      4       0.4991464       110.6128
2009    28      5       0.4671297       105.5198
2009    28      6       0.4444219       102.0299
2009    28      7       0.4593916       103.5163
2009    29      0       0.4867375       108.4718
2009    29      1       0.487183        108.6349
2009    29      2       0.4144141       96.61444
2009    29      3       0.3567675       85.67337
2009    29      4       0.364142        87.2368
2009    29      5       0.3057744       76.00181
2009    29      6       0.3057673       76.0148
2009    29      7       0.3259867       79.75028
2009    30      0       0.3443477       83.52812
2009    30      1       0.3745114       89.51671
2009    30      2       0.4421032       102.1076
2009    30      3       0.4760705       107.9421
2009    30      4       0.6152935       129.5147
2009    30      5       0.5442659       118.4724
2009    30      6       0.4284994       99.59024
2009    30      7       0.4537735       103.4824
2009    31      0       0.4268101       98.79903
2009    31      1       0.329702        81.20796
2009    31      2       0.2917369       73.82485
2009    31      3       0.3198377       79.69288
2009    31      4       0.3421486       83.92097
2009    31      5       0.2705976       69.22821
2009    31      6       0.1827388       50.23723
2009    31      7       0.1798544       49.42505
2010    1       0       0.6124886       129.0294
2010    1       1       0.5265392       115.9487
2010    1       2       0.4938226       110.6211
2010    1       3       0.5196412       114.9235
2010    1       4       0.6407685       132.8546
2010    1       5       0.7755649       150.233
2010    1       6       0.7320134       145.0731
2010    1       7       0.6619194       136.0481
2010    2       0       0.6045229       127.7808
2010    2       1       0.564968        121.406
2010    2       2       0.5227444       114.6474
2010    2       3       0.5092595       112.5086
2010    2       4       0.5359362       116.7084
2010    2       5       0.5598894       120.2328
2010    2       6       0.5034269       111.0404
2010    2       7       0.466019        104.7512
2010    3       0       0.4624649       103.8223
2010    3       1       0.4455825       101.0258
2010    3       2       0.3854274       90.61631
2010    3       3       0.4543806       103.1778
2010    3       4       0.5443555       117.7433
2010    3       5       0.6445084       132.2242
2010    3       6       0.6807814       137.0182
2010    3       7       0.7944575       150.8756
2010    4       0       0.8855519       161.1393
2010    4       1       0.9251451       166.1973
2010    4       2       0.789509        151.3032
2010    4       3       0.7143608       141.7178
2010    4       4       0.6846915       138.1046
2010    4       5       0.7790284       150.3206
2010    4       6       0.7511829       146.9783
2010    4       7       0.6592574       134.8823
2010    5       0       0.6030872       127.2024
2010    5       1       0.6178295       129.1821
2010    5       2       0.633685        130.9068
2010    5       3       0.5945342       125.3308
2010    5       4       0.5882831       124.8428
2010    5       5       0.6207587       129.986
2010    5       6       0.6086519       128.591
2010    5       7       0.6020702       127.7068
2010    6       0       0.6504758       134.5159
2010    6       1       0.6640637       136.4185
2010    6       2       0.6223751       130.5304
2010    6       3       0.5991424       127.2661
2010    6       4       0.6487465       134.5826
2010    6       5       0.7518366       148.2206
2010    6       6       0.7715578       150.7213
2010    6       7       0.7657138       150.0588
2010    7       0       0.7416996       146.6486
2010    7       1       0.6803484       138.4739
2010    7       2       0.6186958       129.1867
2010    7       3       0.5866647       124.0231
2010    7       4       0.6289861       130.2445
2010    7       5       0.6146179       128.7014
2010    7       6       0.5715052       122.4989
2010    7       7       0.5383864       117.3046
2010    8       0       0.5506307       119.1534
2010    8       1       0.5114655       113.1519
2010    8       2       0.4834031       108.5161
2010    8       3       0.4686701       106.148
2010    8       4       0.4680703       106.3093
2010    8       5       0.4678052       106.3521
2010    8       6       0.4755998       107.5426
2010    8       7       0.4941665       110.4362
2010    9       0       0.4779306       107.6448
2010    9       1       0.4461537       102.415
2010    9       2       0.3943005       93.45062
2010    9       3       0.3548688       86.08576
2010    9       4       0.3359376       82.52279
2010    9       5       0.3119076       77.93884
2010    9       6       0.3388665       83.21303
2010    9       7       0.3933168       93.43142
2010    10      0       0.4583454       104.904
2010    10      1       0.5238205       115.5223
2010    10      2       0.4398957       101.5413
2010    10      3       0.3778233       90.38534
2010    10      4       0.3101716       77.32906
2010    10      5       0.2441576       63.83402
2010    10      6       0.2039071       55.0915
2010    10      7       0.1668932       46.65009
2010    11      0       0.1448769       41.32161
2010    11      1       0.1389303       39.64333
2010    11      2       0.1361013       38.83848
2010    11      3       0.1820653       49.31589
2010    11      4       0.238785        61.62024
2010    11      5       0.2690738       67.98914
2010    11      6       0.3634432       86.59813
2010    11      7       0.4144316       95.94634
2010    12      0       0.4335238       99.29213
2010    12      1       0.4650909       104.7331
2010    12      2       0.4778044       107.231
2010    12      3       0.4230905       97.64086
2010    12      4       0.4249327       98.03246
2010    12      5       0.427605        98.52791
2010    12      6       0.4277374       99.08109
2010    12      7       0.4072646       95.55549
2010    13      0       0.3728783       89.03119
2010    13      1       0.3487532       84.07595
2010    13      2       0.3110146       77.02341
2010    13      3       0.2378805       62.37752
2010    13      4       0.195004        53.21378
2010    13      5       0.1340562       39.10355
2010    13      6       0.07607133      24.6085
2010    13      7       0.05643253      19.41779
2010    14      0       0.04601282      16.57891
2010    14      1       0.04194021      15.51642
2010    14      2       0.04327904      15.8525
2010    14      3       0.04292272      15.79918
2010    14      4       0.06449907      21.60573
2010    14      5       0.05808566      19.96082
2010    14      6       0.05808068      19.89515
2010    14      7       0.05168933      18.20814
2010    15      0       0.04672271      16.89171
2010    15      1       0.0451448       16.36601
2010    15      2       0.04722669      16.86268
2010    15      3       0.06767786      22.20396
2010    15      4       0.1217983       35.90653
2010    15      5       0.1416753       40.5425
2010    15      6       0.1387757       39.81506
2010    15      7       0.1248286       36.50534
2010    16      0       0.1165885       34.47799
2010    16      1       0.1109838       33.08526
2010    16      2       0.1070432       32.15781
2010    16      3       0.1139141       33.87141
2010    16      4       0.1280572       37.31
2010    16      5       0.1339393       38.74885
2010    16      6       0.1335203       38.61372
2010    16      7       0.1272783       37.05883
2010    17      0       0.1111009       33.16796
2010    17      1       0.1049661       31.68621
2010    17      2       0.1176438       34.77318
2010    17      3       0.1304052       37.96502
2010    17      4       0.1419698       40.77752
2010    17      5       0.1645566       46.11923
2010    17      6       0.1550208       43.99467
2010    17      7       0.1654671       46.46689
2010    18      0       0.1953371       53.48089
2010    18      1       0.283096        72.32476
2010    18      2       0.427537        99.64608
2010    18      3       0.5441297       118.496
2010    18      4       0.5278829       115.7169
2010    18      5       0.4103618       96.23694
2010    18      6       0.4100792       95.81007
2010    18      7       0.4534119       103.0272
2010    19      0       0.4678555       105.4702
2010    19      1       0.4949629       109.1953
2010    19      2       0.4428811       100.4638
2010    19      3       0.3951517       91.94592
2010    19      4       0.4165439       95.58842
2010    19      5       0.4903042       107.5384
2010    19      6       0.4558147       102.0913
2010    19      7       0.4291277       97.58263
2010    20      0       0.5008006       110.024
2010    20      1       0.5611806       120.6248
2010    20      2       0.5606652       121.0458
2010    20      3       0.4934618       109.9839
2010    20      4       0.4835192       108.0146
2010    20      5       0.4866643       108.8162
2010    20      6       0.4695512       106.1773
2010    20      7       0.4582783       104.1394
2010    21      0       0.4914346       109.1792
2010    21      1       0.5242397       113.9215
2010    21      2       0.5419688       116.478
2010    21      3       0.5364917       115.3379
2010    21      4       0.5706766       120.4717
2010    21      5       0.5135797       112.3799
2010    21      6       0.6200165       127.7001
2010    21      7       0.6689171       135.0828
2010    22      0       0.7374928       143.6955
2010    22      1       0.8140932       153.2525
2010    22      2       0.8854605       161.7391
2010    22      3       0.9713744       170.8954
2010    22      4       0.9133904       165.2031
2010    22      5       1.022967        176.3339
2010    22      6       0.7135255       142.2786
2010    22      7       0.6466506       133.2861
2010    23      0       0.5636842       120.8501
2010    23      1       0.4853417       107.2281
2010    23      2       0.4305241       96.78695
2010    23      3       0.3252011       78.5227
2010    23      4       0.3433906       81.76433
2010    23      5       0.3696152       85.60239
2010    23      6       0.2756266       67.89024
2010    23      7       0.2132579       55.66667
2010    24      0       0.2311252       59.81393
2010    24      1       0.2522951       64.62079
2010    24      2       0.2430076       63.06182
2010    24      3       0.2007042       53.87349
2010    24      4       0.1951533       52.31904
2010    24      5       0.1852753       50.15379
2010    24      6       0.1817669       49.49594
2010    24      7       0.1742832       47.76343
2010    25      0       0.1708557       47.08513
2010    25      1       0.1634632       45.52481
2010    25      2       0.1507006       42.71563
2010    25      3       0.1302948       37.99627
2010    25      4       0.1194641       35.32208
2010    25      5       0.1159065       34.42977
2010    25      6       0.1113689       33.30724
2010    25      7       0.1127576       33.68942
2010    26      0       0.1166051       34.53052
2010    26      1       0.1311365       37.86276
2010    26      2       0.1995678       53.44143
2010    26      3       0.2617325       66.53285
2010    26      4       0.3748343       88.42869
2010    26      5       0.5145771       112.7011
2010    26      6       0.6473535       133.2505
2010    26      7       0.6676945       136.212
2010    27      0       0.662651        134.851
2010    27      1       0.6609975       134.1538
2010    27      2       0.645797        132.1513
2010    27      3       0.5584224       119.1238
2010    27      4       0.5450811       117.227
2010    27      5       0.5109757       112.4209
2010    27      6       0.4359588       100.441
2010    27      7       0.3211995       79.57646
2010    28      0       0.2137546       57.31859
2010    28      1       0.1624046       45.65236
2010    28      2       0.1513142       42.92579
2010    28      3       0.1601685       44.8608
2010    28      4       0.2059952       55.37658
2010    28      5       0.2306009       60.56643
2010    28      6       0.2593658       66.57535
2010    28      7       0.3166682       78.29946
2010    29      0       0.3518112       85.20184
2010    29      1       0.3489845       84.72524
2010    29      2       0.3362093       82.31982
2010    29      3       0.3432901       83.95146
2010    29      4       0.3181979       79.12488
2010    29      5       0.2697632       69.40823
2010    29      6       0.2452441       64.28993
2010    29      7       0.2532545       66.07369
2010    30      0       0.2763365       70.46504
2010    30      1       0.3398101       82.54038
2010    30      2       0.4051761       94.533
2010    30      3       0.4579148       103.684
2010    30      4       0.4834627       108.0013
2010    30      5       0.4534995       103.0327
2010    30      6       0.4404757       100.9486
2010    30      7       0.4080601       95.16147
2010    31      0       0.4131553       95.69151
2010    31      1       0.3944425       91.82949
2010    31      2       0.3341979       80.83888
2010    31      3       0.2985059       74.01454
2010    31      4       0.3009075       74.36365
2010    31      5       0.2934907       73.03322
2010    31      6       0.2901271       72.58051
2010    31      7       0.2947324       73.54067
2011    1       0       0.2360978       61.67979
2011    1       1       0.2933627       73.5774
2011    1       2       0.2988714       74.69859
2011    1       3       0.3192119       78.02251
2011    1       4       0.3145498       77.15082
2011    1       5       0.3245812       79.13962
2011    1       6       0.3466557       83.72695
2011    1       7       0.1953832       52.81075
2011    2       0       0.1459801       41.89705
2011    2       1       0.1340666       39.03775
2011    2       2       0.0745486       24.15815
2011    2       3       0.08041642      25.59522
2011    2       4       0.0933826       28.72077
2011    2       5       0.08738318      27.09904
2011    2       6       0.07909879      25.05644
2011    2       7       0.08468278      26.45457
2011    3       0       0.07983146      25.36008
2011    3       1       0.07259477      23.65644
2011    3       2       0.06632923      22.05295
2011    3       3       0.07598219      24.60586
2011    3       4       0.1048795       31.92953
2011    3       5       0.1226312       36.19348
2011    3       6       0.1282808       37.51614
2011    3       7       0.1242365       36.56737
2011    4       0       0.1189082       35.2878
2011    4       1       0.102096        31.18603
2011    4       2       0.0980812       30.14554
2011    4       3       0.1045263       31.77406
2011    4       4       0.1311193       38.17099
2011    4       5       0.149683        42.54857
2011    4       6       0.1494445       42.44103
2011    4       7       0.1501204       42.60242
2011    5       0       0.1461179       41.67336
2011    5       1       0.1429875       40.95611
2011    5       2       0.1477583       42.1003
2011    5       3       0.1618758       45.38652
2011    5       4       0.186427        51.00066
2011    5       5       0.2176147       57.92818
2011    5       6       0.2309232       60.86808
2011    5       7       0.2243187       59.56656
2011    6       0       0.2206527       58.78951
2011    6       1       0.2208365       58.84557
2011    6       2       0.2312426       61.06121
2011    6       3       0.2473496       64.4398
2011    6       4       0.2674891       68.60033
2011    6       5       0.3021272       75.43862
2011    6       6       0.3308655       80.82691
2011    6       7       0.3285247       80.40901
2011    7       0       0.3150757       77.95633
2011    7       1       0.3293709       80.76772
2011    7       2       0.3280005       80.46623
2011    7       3       0.3568472       86.25602
2011    7       4       0.3953851       93.34403
2011    7       5       0.4587589       103.906
2011    7       6       0.5733064       121.4099
2011    7       7       0.5600632       119.5748
2011    8       0       0.5188928       113.4594
2011    8       1       0.5008308       110.7768
2011    8       2       0.4764338       106.9155
2011    8       3       0.4730543       106.4444
2011    8       4       0.4963631       110.1872
2011    8       5       0.6246457       128.8301
2011    8       6       0.7715948       147.5119
2011    8       7       0.6839174       136.6872
2011    9       0       0.5385599       116.4025
2011    9       1       0.4918257       109.5262
2011    9       2       0.4654778       105.2052
2011    9       3       0.3912515       91.94096
2011    9       4       0.3728036       88.70325
2011    9       5       0.3881203       91.37557
2011    9       6       0.4255913       97.68523
2011    9       7       0.4118675       94.95344
2011    10      0       0.3404384       81.87778
2011    10      1       0.2900731       72.31353
2011    10      2       0.268319        68.00985
2011    10      3       0.2632829       66.96257
2011    10      4       0.2499905       64.38585
2011    10      5       0.2552608       65.54652
2011    10      6       0.2569001       65.86246
2011    10      7       0.2463804       63.64571
2011    11      0       0.2406251       62.44249
2011    11      1       0.2350866       61.301
2011    11      2       0.2244925       59.08852
2011    11      3       0.2176967       57.71269
2011    11      4       0.2395244       62.40797
2011    11      5       0.2731804       69.34171
2011    11      6       0.2916961       72.94035
2011    11      7       0.2971178       74.00162
2011    12      0       0.2960933       73.72395
2011    12      1       0.288004        72.09365
2011    12      2       0.2703147       68.46503
2011    12      3       0.2676642       67.9137
2011    12      4       0.3028909       75.04524
2011    12      5       0.3489018       83.78729
2011    12      6       0.3842476       90.21993
2011    12      7       0.377652        89.16795
2011    13      0       0.3447924       83.07969
2011    13      1       0.3222692       78.77854
2011    13      2       0.3124899       76.77979
2011    13      3       0.3040906       75.2141
2011    13      4       0.3184861       78.18341
2011    13      5       0.3476802       83.72661
2011    13      6       0.3571966       85.48369
2011    13      7       0.3585647       85.81864
2011    14      0       0.3625785       86.39917
2011    14      1       0.3854039       90.65959
2011    14      2       0.4767626       106.4008
2011    14      3       0.588134        123.9646
2011    14      4       0.5456371       118.1597
2011    14      5       0.5552427       120.3361
2011    14      6       0.4734505       107.3458
2011    14      7       0.4142185       97.0308
2011    15      0       0.3885515       92.16952
2011    15      1       0.3711168       88.87404
2011    15      2       0.3634552       87.41552
2011    15      3       0.3403309       82.89846
2011    15      4       0.3405708       83.07703
2011    15      5       0.3432835       83.6693
2011    15      6       0.4376345       101.7887
2011    15      7       0.3451329       84.48869
2011    16      0       0.3175899       78.98468
2011    16      1       0.3348348       82.14579
2011    16      2       0.3218063       79.58335
2011    16      3       0.2999945       75.02673
2011    16      4       0.3188871       78.84065
2011    16      5       0.3028197       75.94756
2011    16      6       0.3950214       94.2863
2011    16      7       0.369695        89.30128
2011    17      0       0.3568445       86.78807
2011    17      1       0.3655608       88.28515
2011    17      2       0.3609108       87.3604
2011    17      3       0.3533274       85.73999
2011    17      4       0.3641422       87.75072
2011    17      5       0.3508958       85.35817
2011    17      6       0.3667979       88.43591
2011    17      7       0.3669993       88.55226
2011    18      0       0.360559        87.22353
2011    18      1       0.3836737       91.72902
2011    18      2       0.4380649       101.5024
2011    18      3       0.5500524       119.152
2011    18      4       0.5733418       122.602
2011    18      5       0.5926371       125.1981
2011    18      6       0.5114859       112.2091
2011    18      7       0.4738319       105.5304
2011    19      0       0.3942584       91.81144
2011    19      1       0.3520647       83.65249
2011    19      2       0.2265344       58.81629
2011    19      3       0.09055077      28.12706
2011    19      4       0.0542358       18.87131
2011    19      5       0.05833255      19.95179
2011    19      6       0.05072501      18.04684
2011    19      7       0.04568733      16.6473
2011    20      0       0.05348947      18.49597
2011    20      1       0.06254105      20.64071
2011    20      2       0.06306349      20.59486
2011    20      3       0.06601784      21.51779
2011    20      4       0.1034898       31.1215
2011    20      5       0.120911        35.14414
2011    20      6       0.1292603       36.84487
2011    20      7       0.1280944       36.43594
2011    21      0       0.1342278       37.87425
2011    21      1       0.1808141       48.67489
2011    21      2       0.2230652       57.96158
2011    21      3       0.2647661       67.05303
2011    21      4       0.2854377       71.52779
2011    21      5       0.2711724       68.63475
2011    21      6       0.2340774       60.6415
2011    21      7       0.2291073       59.64255
2011    22      0       0.244406        63.08874
2011    22      1       0.2440904       63.20615
2011    22      2       0.2409292       62.67967
2011    22      3       0.2408656       62.77986
2011    22      4       0.2553699       65.98496
2011    22      5       0.2735628       69.86734
2011    22      6       0.2700449       68.96161
2011    22      7       0.3653187       88.23372
2011    23      0       0.4568151       104.6548
2011    23      1       0.4836908       109.1123
2011    23      2       0.4947179       111.0036
2011    23      3       0.4746581       107.5178
2011    23      4       0.451329        103.7632
2011    23      5       0.4694206       106.7679
2011    23      6       0.4925379       110.5369
2011    23      7       0.5236763       115.2445
2011    24      0       0.5220517       114.6225
2011    24      1       0.5140787       112.9979
2011    24      2       0.5576497       119.728
2011    24      3       0.6232083       129.0484
2011    24      4       0.6831963       137.0284
2011    24      5       0.6133834       127.8589
2011    24      6       0.5582915       120.598
2011    24      7       0.5632093       121.3021
2011    25      0       0.625469        129.9313
2011    25      1       0.5994655       126.254
2011    25      2       0.5991419       126.4584
2011    25      3       0.6127924       128.1919
2011    25      4       0.650908        134.0496
2011    25      5       0.6532198       135.0832
2011    25      6       0.7719775       150.3514
2011    25      7       0.7239366       144.2414
2011    26      0       0.644613        132.6046
2011    26      1       0.6029709       126.0969
2011    26      2       0.6001174       125.7523
2011    26      3       0.6249128       129.0487
2011    26      4       0.6628106       133.9698
2011    26      5       0.7108919       140.2662
2011    26      6       0.7360211       143.8735
2011    26      7       0.6514558       132.9179
2011    27      0       0.6386388       130.7614
2011    27      1       0.6385491       130.498
2011    27      2       0.5976502       124.5798
2011    27      3       0.611967        126.2767
2011    27      4       0.6416577       129.7157
2011    27      5       0.6860766       135.8566
2011    27      6       0.7371439       143.3461
2011    27      7       0.6269006       129.1238
2011    28      0       0.499728        110.2181
2011    28      1       0.5068008       111.9355
2011    28      2       0.5322308       116.2694
2011    28      3       0.5092134       112.3556
2011    28      4       0.4995748       110.1251
2011    28      5       0.5440969       117.3931
2011    28      6       0.6149012       128.3311
2011    28      7       0.6806856       137.9732
2011    29      0       0.6260288       130.594
2011    29      1       0.5732477       122.9316
2011    29      2       0.6083646       127.9976
2011    29      3       0.8929266       162.7647
2011    29      4       0.6410314       132.8707
2011    29      5       0.556089        120.4575
2011    29      6       0.5927521       126.2978
2011    29      7       0.6925865       140.406
2011    30      0       0.7369103       145.7844
2011    30      1       0.6346404       131.6077
2011    30      2       0.5372802       116.7434
2011    30      3       0.4509032       102.6585
2011    30      4       0.3856822       91.33298
2011    30      5       0.3126012       77.68204
2011    30      6       0.2679615       68.94574
2011    30      7       0.2171897       58.10725
2011    31      0       0.1957405       53.27696
2011    31      1       0.2014461       54.54759
2011    31      2       0.2122403       56.96069
2011    31      3       0.2168461       57.98374
2011    31      4       0.2253309       59.80109
2011    31      5       0.2300987       60.77295
2011    31      6       0.2300638       60.72294
2011    31      7       0.2206578       58.48047
2012    1       0       0.1201001       35.46542
2012    1       1       0.115536        34.34989
2012    1       2       0.1069341       32.26719
2012    1       3       0.09420138      29.08493
2012    1       4       0.1160018       34.35157
2012    1       5       0.1433973       40.72807
2012    1       6       0.151033        42.39996
2012    1       7       0.1642722       45.11412
2012    2       0       0.1774227       48.21058
2012    2       1       0.2042709       54.01899
2012    2       2       0.2238124       57.96272
2012    2       3       0.2598322       65.84124
2012    2       4       0.3014895       74.59157
2012    2       5       0.3214874       78.61445
2012    2       6       0.3341881       80.95215
2012    2       7       0.400851        93.4104
2012    3       0       0.4647081       104.4516
2012    3       1       0.4741783       105.8778
2012    3       2       0.4245364       97.16962
2012    3       3       0.3826276       89.94465
2012    3       4       0.3725615       88.23613
2012    3       5       0.3710028       87.91601
2012    3       6       0.3588499       85.80194
2012    3       7       0.3464755       83.5313
2012    4       0       0.3652868       86.82824
2012    4       1       0.4086975       94.49702
2012    4       2       0.4507737       101.9535
2012    4       3       0.4534982       102.7394
2012    4       4       0.4741475       106.6392
2012    4       5       0.5118992       113.0195
2012    4       6       0.5127234       113.0916
2012    4       7       0.5316154       116.059
2012    5       0       0.6008999       126.3912
2012    5       1       0.6921173       138.8032
2012    5       2       0.7526284       146.385
2012    5       3       0.7732181       149.1247
2012    5       4       0.7489971       146.4241
2012    5       5       0.7133915       142.2425
2012    5       6       0.7678312       149.4461
2012    5       7       0.6451952       133.1499
2012    6       0       0.6208728       129.5428
2012    6       1       0.6409109       131.9604
2012    6       2       0.4970851       110.151
2012    6       3       0.391841        92.05855
2012    6       4       0.3371053       81.83017
2012    6       5       0.3414807       82.96827
2012    6       6       0.3267261       80.25931
2012    6       7       0.3391132       82.45753
2012    7       0       0.3655982       87.15113
2012    7       1       0.3560669       85.29909
2012    7       2       0.3327165       80.92443
2012    7       3       0.3274673       80.00598
2012    7       4       0.3481057       84.10703
2012    7       5       0.3869975       91.32328
2012    7       6       0.4255149       97.97924
2012    7       7       0.5008996       110.2224
2012    8       0       0.5219002       113.6448
2012    8       1       0.5174235       113.1321
2012    8       2       0.4975784       110.1357
2012    8       3       0.4824196       107.9736
2012    8       4       0.5238395       114.6929
2012    8       5       0.611246        128.1384
2012    8       6       0.6566058       134.7431
2012    8       7       0.6480664       133.8974
2012    9       0       0.6686754       136.6163
2012    9       1       0.7201828       143.1148
2012    9       2       0.7748929       149.5266
2012    9       3       0.6551252       133.9934
2012    9       4       0.6351187       130.9449
2012    9       5       0.5563039       119.59
2012    9       6       0.5920695       125.4203
2012    9       7       0.5696527       122.161
2012    10      0       0.5940466       125.465
2012    10      1       0.6615581       134.9915
2012    10      2       0.7382509       145.1638
2012    10      3       0.7827967       150.5593
2012    10      4       0.7272496       143.4642
2012    10      5       0.6041296       126.8634
2012    10      6       0.687768        139.2285
2012    10      7       0.6283494       130.9651
2012    11      0       0.5405932       117.5952
2012    11      1       0.4730244       106.4012
2012    11      2       0.4412894       100.7656
2012    11      3       0.464733        104.6507
2012    11      4       0.4515781       102.3803
2012    11      5       0.3703341       88.13989
2012    11      6       0.3214117       79.28177
2012    11      7       0.2804209       71.1086
2012    12      0       0.3201093       78.84392
2012    12      1       0.3611593       86.64161
2012    12      2       0.3027435       75.42509
2012    12      3       0.2619885       67.03255
2012    12      4       0.3108038       77.1303
2012    12      5       0.2975102       74.78343
2012    12      6       0.2666122       68.61062
2012    12      7       0.2517011       65.39582
2012    13      0       0.2753601       70.30985
2012    13      1       0.2824607       71.83089
2012    13      2       0.271473        69.63881
2012    13      3       0.2842591       72.32878
2012    13      4       0.2780548       71.11456
2012    13      5       0.245654        64.25037
2012    13      6       0.2469482       64.27233
2012    13      7       0.2654919       68.05357
2012    14      0       0.2693188       68.86806
2012    14      1       0.2582397       66.3623
2012    14      2       0.2089461       55.80712
2012    14      3       0.1660244       46.34145
2012    14      4       0.1713187       47.0436
2012    14      5       0.2309799       59.90605
2012    14      6       0.2589          65.51196
2012    14      7       0.304707        74.63936
2012    15      0       0.4252305       97.31995
2012    15      1       0.5534122       118.6926
2012    15      2       0.6008803       126.1235
2012    15      3       0.5243757       114.3501
2012    15      4       0.5742612       122.3909
2012    15      5       0.5998462       126.6331
2012    15      6       0.7379021       145.7517
2012    15      7       0.8310326       156.3169
2012    16      0       0.6589679       133.8187
2012    16      1       0.493965        109.5148
2012    16      2       0.3907265       92.53673
2012    16      3       0.2587401       67.1253
2012    16      4       0.1810136       50.2463
2012    16      5       0.1352128       39.52858
2012    16      6       0.1103325       33.11821
2012    16      7       0.09749985      29.70509
2012    17      0       0.1019337       30.83797
2012    17      1       0.1025109       30.98484
2012    17      2       0.09369371      28.82028
2012    17      3       0.103212        31.1203
2012    17      4       0.1023298       30.94628
2012    17      5       0.09748836      29.95528
2012    17      6       0.07415428      23.9359
2012    17      7       0.06977598      22.74375
2012    18      0       0.0857755       26.89987
2012    18      1       0.1034667       31.39172
2012    18      2       0.1155016       34.37745
2012    18      3       0.1259782       36.93303
2012    18      4       0.1420089       40.8288
2012    18      5       0.1690105       47.32254
2012    18      6       0.1437968       41.32256
2012    18      7       0.1232706       36.26457
2012    19      0       0.1151994       34.25444
2012    19      1       0.1036108       31.33555
2012    19      2       0.09484716      29.13733
2012    19      3       0.09218836      28.4487
2012    19      4       0.145658        41.50223
2012    19      5       0.1379173       39.72658
2012    19      6       0.1155585       34.36098
2012    19      7       0.08336667      26.42853
2012    20      0       0.06205706      20.93507
2012    20      1       0.0506501       17.92191
2012    20      2       0.04787936      17.19609
2012    20      3       0.05990346      20.42786
2012    20      4       0.09126829      28.35146
2012    20      5       0.08598592      27.04785
2012    20      6       0.06398704      21.43119
2012    20      7       0.04792976      17.14155
2012    21      0       0.04522187      16.39745
2012    21      1       0.04208391      15.56358
2012    21      2       0.04264064      15.56572
2012    21      3       0.05681189      19.32543
2012    21      4       0.0614048       20.57861
2012    21      5       0.06291352      21.00103
2012    21      6       0.05762497      19.54941
2012    21      7       0.0552333       18.96814
2012    22      0       0.07620547      24.40552
2012    22      1       0.1108167       33.21698
2012    22      2       0.183383        50.39731
2012    22      3       0.2681716       68.4009
2012    22      4       0.2752814       69.96259
2012    22      5       0.2568989       66.2709
2012    22      6       0.2675075       68.58019
2012    22      7       0.2846588       72.35406
2012    23      0       0.3523545       85.98663
2012    23      1       0.3484496       85.01072
2012    23      2       0.3072382       76.83235
2012    23      3       0.3331522       81.79449
2012    23      4       0.3396558       83.10123
2012    23      5       0.316023        78.7564
2012    23      6       0.3349848       82.74534
2012    23      7       0.3357037       83.0031
2012    24      0       0.2874094       72.9474
2012    24      1       0.2627782       67.65717
2012    24      2       0.2405075       62.92752
2012    24      3       0.2746403       70.08785
2012    24      4       0.3141752       78.13854
2012    24      5       0.3423034       83.77517
2012    24      6       0.4118059       97.35713
2012    24      7       0.3794827       91.26297
2012    25      0       0.3731849       89.79657
2012    25      1       0.3914335       92.84323
2012    25      2       0.3824876       91.18952
2012    25      3       0.3339676       81.91283
2012    25      4       0.3189744       79.15407
2012    25      5       0.2962928       74.83165
2012    25      6       0.2839852       72.38722
2012    25      7       0.3074177       77.0225
2012    26      0       0.3376655       82.78084
2012    26      1       0.3518777       85.34551
2012    26      2       0.3440889       83.73609
2012    26      3       0.3450083       83.95756
2012    26      4       0.3556884       86.31028
2012    26      5       0.3851329       92.1861
2012    26      6       0.4074388       96.92821
2012    26      7       0.4019719       96.03624
2012    27      0       0.4205148       99.14425
2012    27      1       0.4179279       98.58823
2012    27      2       0.4137848       97.8527
2012    27      3       0.4009944       95.33398
2012    27      4       0.4582663       105.5266
2012    27      5       0.502314        112.9016
2012    27      6       0.4772281       108.6474
2012    27      7       0.5327795       117.5952
2012    28      0       0.5704888       123.5217
2012    28      1       0.5901349       126.336
2012    28      2       0.5803544       124.7095
2012    28      3       0.6101085       128.6629
2012    28      4       0.6216812       130.2439
2012    28      5       0.7424731       145.4742
2012    28      6       0.7446015       145.1257
2012    28      7       0.6419916       131.5831
2012    29      0       0.6059013       126.2854
2012    29      1       0.566314        120.6894
2012    29      2       0.5522201       119.1283
2012    29      3       0.5054088       111.5386
2012    29      4       0.5298251       115.8348
2012    29      5       0.6374011       131.9883
2012    29      6       0.5408131       117.5037
2012    29      7       0.5174233       112.9895
2012    30      0       0.5358644       115.3994
2012    30      1       0.5158108       112.4086
2012    30      2       0.4491367       101.7486
2012    30      3       0.4259707       98.14253
2012    30      4       0.3960034       93.23376
2012    30      5       0.3743545       89.52125
2012    30      6       0.3552875       86.00727
2012    30      7       0.3285111       80.84524
2012    31      0       0.3288496       80.87936
2012    31      1       0.3168205       78.7523
2012    31      2       0.3041557       76.3254
2012    31      3       0.3007614       75.63482
2012    31      4       0.3264256       80.80047
2012    31      5       0.3797918       90.93886
2012    31      6       0.4127062       96.86752
2012    31      7       0.3981239       94.24396
2013    1       0       0.2222909       59.4247
2013    1       1       0.307069        77.69866
2013    1       2       0.1794141       49.93521
2013    1       3       0.1840254       51.11946
2013    1       4       0.249428        65.49533
2013    1       5       0.3138409       78.4725
2013    1       6       0.3637983       87.87874
2013    1       7       0.3644593       88.04544
2013    2       0       0.328695        81.33374
2013    2       1       0.300916        75.90134
2013    2       2       0.2671159       69.02642
2013    2       3       0.2604487       67.64132
2013    2       4       0.3178439       79.27272
2013    2       5       0.3781645       90.71015
2013    2       6       0.3888034       92.58992
2013    2       7       0.3385737       83.26486
2013    3       0       0.2976841       75.21115
2013    3       1       0.2677309       69.01076
2013    3       2       0.2480961       64.89601
2013    3       3       0.2277858       60.47295
2013    3       4       0.2551718       66.25005
2013    3       5       0.3019365       75.70862
2013    3       6       0.3266875       80.54759
2013    3       7       0.3178427       78.84914
2013    4       0       0.2800606       71.29856
2013    4       1       0.2565245       66.44921
2013    4       2       0.2470498       64.50116
2013    4       3       0.2363391       62.17856
2013    4       4       0.2493166       64.97284
2013    4       5       0.2705412       69.33882
2013    4       6       0.282208        71.6667
2013    4       7       0.2753735       70.18967
2013    5       0       0.2596777       66.88729
2013    5       1       0.2493854       64.70528
2013    5       2       0.2466323       64.08691
2013    5       3       0.2472791       64.17525
2013    5       4       0.2643276       67.73894
2013    5       5       0.2795114       70.87493
2013    5       6       0.2782112       70.56424
2013    5       7       0.2830797       71.41303
2013    6       0       0.2936074       73.26234
2013    6       1       0.2997373       74.18784
2013    6       2       0.282745        70.89974
2013    6       3       0.2743344       69.40159
2013    6       4       0.3081279       76.39901
2013    6       5       0.337127        81.82466
2013    6       6       0.36109         85.99925
2013    6       7       0.3348109       81.35002
2013    7       0       0.3223848       78.9724
2013    7       1       0.3414955       82.41074
2013    7       2       0.357488        85.32975
2013    7       3       0.3910471       91.58622
2013    7       4       0.4299763       98.55041
2013    7       5       0.4976361       109.6846
2013    7       6       0.505657        111.0427
2013    7       7       0.4746505       106.3337
2013    8       0       0.4401772       100.6826
2013    8       1       0.4255078       98.00407
2013    8       2       0.47203         105.909
2013    8       3       0.5207128       113.8739
2013    8       4       0.5496325       118.5428
2013    8       5       0.634098        130.7314
2013    8       6       0.6437694       132.0946
2013    8       7       0.6127293       127.9796
2013    9       0       0.6274854       130.1829
2013    9       1       0.6532186       133.6889
2013    9       2       0.6584209       134.1771
2013    9       3       0.6721405       135.8421
2013    9       4       0.8039829       152.855
2013    9       5       0.9986423       174.4807
2013    9       6       0.8844393       162.8109
2013    9       7       0.795297        152.8794
2013    10      0       0.8059985       153.3853
2013    10      1       0.9154825       164.5117
2013    10      2       0.8891899       161.978
2013    10      3       0.7858689       151.1107
2013    10      4       0.8760157       161.9921
2013    10      5       1.10434         185.1588
2013    10      6       1.040015        178.9411
2013    10      7       0.8686882       161.3207
2013    11      0       0.7626774       148.9199
2013    11      1       0.7935498       152.6002
2013    11      2       0.8505005       159.4849
2013    11      3       0.7866977       152.1438
2013    11      4       0.8307761       157.7193
2013    11      5       0.8165368       156.2867
2013    11      6       0.6901083       140.3436
2013    11      7       0.5920429       126.2894
2013    12      0       0.5918652       125.883
2013    12      1       0.6164061       128.8937
2013    12      2       0.5358662       116.4825
2013    12      3       0.4348954       99.50458
2013    12      4       0.3938889       92.26071
2013    12      5       0.3561696       85.37229
2013    12      6       0.3301567       80.58428
2013    12      7       0.2961756       74.08989
2013    13      0       0.266794        68.17666
2013    13      1       0.2348794       61.37749
2013    13      2       0.2160881       57.15377
2013    13      3       0.2316929       60.36448
2013    13      4       0.2643188       67.35375
2013    13      5       0.2700671       68.77713
2013    13      6       0.2990473       74.738
2013    13      7       0.3362399       82.23228
2013    14      0       0.3690074       88.59568
2013    14      1       0.3965404       93.68234
2013    14      2       0.3756518       89.86156
2013    14      3       0.3439102       83.56338
2013    14      4       0.3757536       89.33663
2013    14      5       0.3845824       91.00177
2013    14      6       0.3631541       87.24871
2013    14      7       0.3874551       91.5047
2013    15      0       0.4284582       98.60971
2013    15      1       0.4549823       103.1473
2013    15      2       0.4373655       100.2244
2013    15      3       0.4144683       96.24442
2013    15      4       0.4267582       98.61768
2013    15      5       0.4538516       103.3261
2013    15      6       0.4988637       110.6558
2013    15      7       0.5587186       119.6337
2013    16      0       0.5456946       117.4068
2013    16      1       0.5125545       112.2196
2013    16      2       0.49811         110.0675
2013    16      3       0.5645296       120.4068
2013    16      4       0.6617651       134.675
2013    16      5       0.7104215       141.2619
2013    16      6       0.6399376       131.55
2013    16      7       0.5891804       124.2949
2013    17      0       0.5868424       123.7398
2013    17      1       0.5864037       123.7154
2013    17      2       0.5132973       112.7087
2013    17      3       0.4728105       105.9382
2013    17      4       0.466635        105.2041
2013    17      5       0.4117355       95.51656
2013    17      6       0.3318828       80.66611
2013    17      7       0.3049288       75.48449
2013    18      0       0.3049258       75.36936
2013    18      1       0.3396823       82.31094
2013    18      2       0.3458544       83.27958
2013    18      3       0.3455343       83.06269
2013    18      4       0.3904967       91.60968
2013    18      5       0.4397329       99.80502
2013    18      6       0.4194856       95.69953
2013    18      7       0.4270557       96.75364
2013    19      0       0.4835646       106.2472
2013    19      1       0.4828768       106.4288
2013    19      2       0.591437        122.3183
2013    19      3       0.6287232       127.8471
2013    19      4       0.5710379       119.5975
2013    19      5       0.606786        124.942
2013    19      6       0.6467059       131.3459
2013    19      7       0.648889        132.5967
2013    20      0       0.6337914       130.8309
2013    20      1       0.708355        140.5826
2013    20      2       0.6573428       133.6736
2013    20      3       0.6132761       127.332
2013    20      4       0.5439675       117.5336
2013    20      5       0.4045148       94.48083
2013    20      6       0.2836311       71.43783
2013    20      7       0.1630664       45.43592
2013    21      0       0.08762777      27.33484
2013    21      1       0.05045512      17.73164
2013    21      2       0.0353495       13.60401
2013    21      3       0.05712345      19.60354
2013    21      4       0.09014921      28.15621
2013    21      5       0.09729705      29.89391
2013    21      6       0.08796578      27.53163
2013    21      7       0.07585383      24.5543
2013    22      0       0.06826701      22.60448
2013    22      1       0.06418942      21.46269
2013    22      2       0.06147577      20.69908
2013    22      3       0.06883999      22.6313
2013    22      4       0.1250508       36.77722
2013    22      5       0.1432987       41.12701
2013    22      6       0.1477326       42.21477
2013    22      7       0.1345431       39.17366
2013    23      0       0.1194257       35.48907
2013    23      1       0.1094214       32.94383
2013    23      2       0.1031557       31.36222
2013    23      3       0.1112688       33.36039
2013    23      4       0.1362621       39.27725
2013    23      5       0.148584        42.21007
2013    23      6       0.1095605       32.9402
2013    23      7       0.1136004       33.95068
2013    24      0       0.1542945       43.69992
2013    24      1       0.1960645       53.24562
2013    24      2       0.2123541       56.90756
2013    24      3       0.195747        53.32768
2013    24      4       0.1912485       52.43327
2013    24      5       0.1710311       47.925
2013    24      6       0.08405636      26.8051
2013    24      7       0.07702895      24.91637
2013    25      0       0.08992794      28.10787
2013    25      1       0.1140255       33.93649
2013    25      2       0.1379697       39.68609
2013    25      3       0.1225101       35.98314
2013    25      4       0.118628        35.00324
2013    25      5       0.1066882       32.1775
2013    25      6       0.06752289      22.28276
2013    25      7       0.06112402      20.62139
2013    26      0       0.06401763      21.36936
2013    26      1       0.06755564      22.19503
2013    26      2       0.06733484      22.161
2013    26      3       0.08521246      26.91787
2013    26      4       0.09309245      28.89058
2013    26      5       0.09836707      30.223
2013    26      6       0.08685312      27.35527
2013    26      7       0.07845862      25.22921
2013    27      0       0.08930377      27.94295
2013    27      1       0.1046027       31.41193
2013    27      2       0.1224544       35.02081
2013    27      3       0.1774403       47.7181
2013    27      4       0.2195062       56.4064
2013    27      5       0.2463154       61.71152
2013    27      6       0.2099965       54.59311
2013    27      7       0.2113123       55.67647
2013    28      0       0.2671394       67.94347
2013    28      1       0.318557        78.75836
2013    28      2       0.3873758       92.16465
2013    28      3       0.3929768       93.07723
2013    28      4       0.3863132       91.99377
2013    28      5       0.3350302       82.46757
2013    28      6       0.3636965       88.43455
2013    28      7       0.4186492       98.47798
2013    29      0       0.491315        110.9104
2013    29      1       0.5305049       116.5597
2013    29      2       0.4812661       107.7741
2013    29      3       0.3584357       85.5956
2013    29      4       0.274693        69.51773
2013    29      5       0.2737789       69.77399
2013    29      6       0.3273057       80.68545
2013    29      7       0.3153195       78.73706
2013    30      0       0.2675843       69.16712
2013    30      1       0.1880809       51.64159
2013    30      2       0.1027365       31.04283
2013    30      3       0.09100167      27.98959
2013    30      4       0.08980892      27.76483
2013    30      5       0.09715186      29.79161
2013    30      6       0.09886369      30.10871
2013    30      7       0.1103583       32.8035
2013    31      0       0.1153503       34.02931
2013    31      1       0.105957        31.73269
2013    31      2       0.1143098       33.84324
2013    31      3       0.1486626       42.10344
2013    31      4       0.167133        46.45331
2013    31      5       0.1665212       46.52809
2013    31      6       0.1427967       41.15416
2013    31      7       0.1210355       35.94982
2014    1       0       0.1169397       34.81123
2014    1       1       0.1494431       42.63828
2014    1       2       0.1652929       46.32882
2014    1       3       0.1622415       45.64236
2014    1       4       0.1953875       53.09842
2014    1       5       0.1940948       52.89115
2014    1       6       0.1725033       47.89323
2014    1       7       0.1714427       47.57207
2014    2       0       0.2118428       56.85817
2014    2       1       0.2387264       62.65309
2014    2       2       0.2156758       57.6062
2014    2       3       0.1622529       45.42861
2014    2       4       0.1544883       43.52497
2014    2       5       0.1381337       39.56506
2014    2       6       0.1237427       36.03414
2014    2       7       0.1023797       30.74392
2014    3       0       0.08621329      26.72434
2014    3       1       0.07075723      22.78283
2014    3       2       0.06480911      21.12882
2014    3       3       0.06997829      22.6107
2014    3       4       0.10613         31.55002
2014    3       5       0.1327601       38.0217
2014    3       6       0.148111        41.56262
2014    3       7       0.1453294       41.03211
2014    4       0       0.1340498       38.43166
2014    4       1       0.1256167       36.24877
2014    4       2       0.1229876       35.50287
2014    4       3       0.142377        39.68881
2014    4       4       0.200132        52.62566
2014    4       5       0.2108864       55.67699
2014    4       6       0.2125082       56.44595
2014    4       7       0.2207808       58.30572
2014    5       0       0.250931        64.86861
2014    5       1       0.2760619       70.28702
2014    5       2       0.2682561       68.77579
2014    5       3       0.2773982       70.83563
2014    5       4       0.4065222       95.67963
2014    5       5       0.5786012       123.4476
2014    5       6       0.6941856       139.7012
2014    5       7       0.7649323       148.7319
2014    6       0       0.8115318       154.4731
2014    6       1       0.8598845       160.2421
2014    6       2       0.8547552       159.9364
2014    6       3       0.8143078       155.5945
2014    6       4       1.113236        186.636
2014    6       5       1.150061        190.4648
2014    6       6       0.9289942       169.4305
2014    6       7       0.7573431       149.7645
2014    7       0       0.6982446       141.7559
2014    7       1       0.5532437       120.7217
2014    7       2       0.4234667       99.17395
2014    7       3       0.4096573       96.70521
2014    7       4       0.3927772       93.58797
2014    7       5       0.2773181       70.95732
2014    7       6       0.1641283       46.12723
2014    7       7       0.1283358       37.60401
2014    8       0       0.1149326       34.27879
2014    8       1       0.09865069      30.27026
2014    8       2       0.07551894      24.36151
2014    8       3       0.0895797       27.95079
2014    8       4       0.1121055       33.57302
2014    8       5       0.1192711       35.38534
2014    8       6       0.08453587      26.644
2014    8       7       0.1161894       34.50802
2014    9       0       0.145334        41.61943
2014    9       1       0.1735513       48.226
2014    9       2       0.2197428       58.66524
2014    9       3       0.2291878       60.60688
2014    9       4       0.2177622       58.027
2014    9       5       0.188286        51.49338
2014    9       6       0.1754714       48.4915
2014    9       7       0.1825576       50.16706
2014    10      0       0.1772061       48.92335
2014    10      1       0.1691284       47.00499
2014    10      2       0.1523644       43.13867
2014    10      3       0.1427517       40.88313
2014    10      4       0.1442649       41.24054
2014    10      5       0.1451474       41.54775
2014    10      6       0.1384966       39.94489
2014    10      7       0.1793623       49.48316
2014    11      0       0.2333522       61.35182
2014    11      1       0.270109        69.09407
2014    11      2       0.2752225       70.23283
2014    11      3       0.270095        68.84166
2014    11      4       0.2758208       69.93726
2014    11      5       0.289389        73.02688
2014    11      6       0.3054747       76.70174
2014    11      7       0.3089257       77.6688
2014    12      0       0.3769042       90.62419
2014    12      1       0.4587484       104.9159
2014    12      2       0.4610085       105.0537
2014    12      3       0.4461786       102.1941
2014    12      4       0.4529668       103.6323
2014    12      5       0.469377        106.7669
2014    12      6       0.4952824       111.3326
2014    12      7       0.5411154       118.0259
2014    13      0       0.5959161       125.8775
2014    13      1       0.6311785       130.2119
2014    13      2       0.7266463       142.7942
2014    13      3       0.7118883       141.1159
2014    13      4       0.7280102       143.2696
2014    13      5       0.7836473       150.2421
2014    13      6       0.7373033       144.2808
2014    13      7       0.7539062       146.8776
2014    14      0       0.8261237       156.0381
2014    14      1       0.9681851       171.0408
2014    14      2       0.8947724       163.4089
2014    14      3       0.9097379       164.5125
2014    14      4       1.019623        175.7689
2014    14      5       0.8594569       160.4341
2014    14      6       0.866636        161.0467
2014    14      7       0.8805716       162.3536
2014    15      0       0.8036062       153.1147
2014    15      1       0.7112633       141.0822
2014    15      2       0.4810164       107.2104
2014    15      3       0.3663408       87.24919
2014    15      4       0.2766562       69.8839
2014    15      5       0.1683504       46.79203
2014    15      6       0.07950481      25.50637
2014    15      7       0.04367387      16.10057
2014    16      0       0.05260934      18.4404
2014    16      1       0.05250928      18.51047
2014    16      2       0.04801236      17.34861
2014    16      3       0.0709458       23.50497
2014    16      4       0.09389231      29.27053
2014    16      5       0.1063534       32.33223
2014    16      6       0.114026        34.24875
2014    16      7       0.1006607       31.01053
2014    17      0       0.08555125      27.0847
2014    17      1       0.08161563      26.02236
2014    17      2       0.08392657      26.5427
2014    17      3       0.09343215      28.92495
2014    17      4       0.1693633       47.43785
2014    17      5       0.2095262       56.41029
2014    17      6       0.2148428       57.60844
2014    17      7       0.1927816       52.82683
2014    18      0       0.1677601       47.11486
2014    18      1       0.1568494       44.51797
2014    18      2       0.1480507       42.45121
2014    18      3       0.1577533       44.73284
2014    18      4       0.2008425       54.43668
2014    18      5       0.2379422       62.33993
2014    18      6       0.2316915       61.01641
2014    18      7       0.2347943       61.68432
2014    19      0       0.2174498       57.88354
2014    19      1       0.1959641       53.20658
2014    19      2       0.1767484       48.8947
2014    19      3       0.1942682       52.93216
2014    19      4       0.2086461       56.07683
2014    19      5       0.2153949       57.51138
2014    19      6       0.2133459       57.01968
2014    19      7       0.2431124       63.40836
2014    20      0       0.2774966       70.82364
2014    20      1       0.3094981       77.46501
2014    20      2       0.3042643       76.28255
2014    20      3       0.2947693       74.30227
2014    20      4       0.3183115       79.09172
2014    20      5       0.3043364       76.44234
2014    20      6       0.271654        69.79255
2014    20      7       0.3032114       76.12458
2014    21      0       0.3398559       83.31748
2014    21      1       0.3384643       83.06731
2014    21      2       0.3411472       83.29801
2014    21      3       0.3560492       85.96705
2014    21      4       0.3712354       88.90596
2014    21      5       0.3598891       86.81687
2014    21      6       0.3924616       93.02135
2014    21      7       0.4659504       105.7017
2014    22      0       0.4475095       102.345
2014    22      1       0.4167988       96.79044
2014    22      2       0.425855        98.18524
2014    22      3       0.4300328       98.67746
2014    22      4       0.4370972       100.0406
2014    22      5       0.3979882       93.27504
2014    22      6       0.3824737       90.71972
2014    22      7       0.4440611       101.5643
2014    23      0       0.4856332       108.6863
2014    23      1       0.4970978       110.9305
2014    23      2       0.4257778       98.90083
2014    23      3       0.3246229       79.8996
2014    23      4       0.2597634       66.84358
2014    23      5       0.2062288       55.50509
2014    23      6       0.1941128       52.87601
2014    23      7       0.1510778       43.2067
2014    24      0       0.1090552       32.9936
2014    24      1       0.09391053      29.13453
2014    24      2       0.07688408      24.73779
2014    24      3       0.0837994       26.52038
2014    24      4       0.1031342       31.37065
2014    24      5       0.1074201       32.36967
2014    24      6       0.1274288       37.13074
2014    24      7       0.159026        44.53887
2014    25      0       0.1555602       43.86638
2014    25      1       0.1503408       42.68495
2014    25      2       0.1840459       50.40675
2014    25      3       0.2490809       64.76534
2014    25      4       0.318136        78.79493
2014    25      5       0.3507271       85.31038
2014    25      6       0.3697517       89.00737
2014    25      7       0.4327539       100.0808
2014    26      0       0.445015        101.9986
2014    26      1       0.4486749       102.5984
2014    26      2       0.4774549       107.4081
2014    26      3       0.5517365       119.5144
2014    26      4       0.6537038       134.5817
2014    26      5       0.6581787       135.2706
2014    26      6       0.538879        117.8475
2014    26      7       0.5165651       114.0149
2014    27      0       0.4900416       109.8753
2014    27      1       0.453807        103.9948
2014    27      2       0.4143207       97.06553
2014    27      3       0.3998406       94.26038
2014    27      4       0.4127589       96.63673
2014    27      5       0.3687939       88.65341
2014    27      6       0.3540116       86.30849
2014    27      7       0.3664136       88.52943
2014    28      0       0.4404586       101.4419
2014    28      1       0.4357085       100.6717
2014    28      2       0.3979614       93.94808
2014    28      3       0.4249549       98.89551
2014    28      4       0.5267491       116.019
2014    28      5       0.5568144       120.7029
2014    28      6       0.5847898       123.9973
2014    28      7       0.5075088       111.1591
2014    29      0       0.4083721       94.01972
2014    29      1       0.3892535       90.2057
2014    29      2       0.4072525       94.50689
2014    29      3       0.4914827       109.6928
2014    29      4       0.5056357       112.3936
2014    29      5       0.4965131       111.0297
2014    29      6       0.5153778       114.0288
2014    29      7       0.5597055       121.1118
2014    30      0       0.6079636       128.3741
2014    30      1       0.6043419       127.8309
2014    30      2       0.5494182       119.5064
2014    30      3       0.4733574       107.0401
2014    30      4       0.4895561       109.694
2014    30      5       0.4807628       108.0341
2014    30      6       0.448916        102.5784
2014    30      7       0.5035044       111.0435
2014    31      0       0.5904957       123.6924
2014    31      1       0.6676731       133.6006
2014    31      2       0.8208908       153.1457
2014    31      3       0.9512905       168.9395
2014    31      4       0.8423907       159.0002
2014    31      5       0.9559808       171.8077
2014    31      6       0.9603961       171.6762
2014    31      7       0.9162163       166.1521
2015    1       0       0.140774        39.60629
2015    1       1       0.1484884       41.42452
2015    1       2       0.1617388       44.43565
2015    1       3       0.1900481       50.72298
2015    1       4       0.229443        59.22802
2015    1       5       0.2457462       62.50252
2015    1       6       0.2703087       67.67521
2015    1       7       0.2873075       71.28231
2015    2       0       0.2898285       72.12673
2015    2       1       0.2606367       66.82889
2015    2       2       0.2342031       61.7313
2015    2       3       0.1957446       53.5156
2015    2       4       0.1971166       53.78215
2015    2       5       0.1974926       53.83072
2015    2       6       0.1825063       50.44673
2015    2       7       0.1757181       48.82036
2015    3       0       0.1755171       48.70367
2015    3       1       0.1764617       48.88332
2015    3       2       0.1839513       50.56718
2015    3       3       0.1973076       53.56017
2015    3       4       0.2016457       54.59507
2015    3       5       0.218978        58.4566
2015    3       6       0.2418447       63.38784
2015    3       7       0.3104936       77.31553
2015    4       0       0.3605116       86.80029
2015    4       1       0.4433418       101.6348
2015    4       2       0.5201967       114.4627
2015    4       3       0.6031763       126.9975
2015    4       4       0.5850278       124.8879
2015    4       5       0.5035537       112.6535
2015    4       6       0.515886        114.778
2015    4       7       0.5873361       125.5374
2015    5       0       0.6305459       131.3213
2015    5       1       0.6802816       138.1702
2015    5       2       0.7338101       145.6225
2015    5       3       0.7254283       144.5209
2015    5       4       0.8597191       161.0391
2015    5       5       0.9375993       169.5399
2015    5       6       0.876656        162.6478
2015    5       7       0.8557412       160.5419
2015    6       0       0.8092239       155.3444
2015    6       1       0.8438112       159.3729
2015    6       2       0.9245201       168.597
2015    6       3       0.8826244       164.1505
2015    6       4       1.037836        180.5506
2015    6       5       1.273673        200.6339
2015    6       6       1.199158        194.3251
2015    6       7       0.9621213       172.9225
2015    7       0       0.6314907       131.8011
2015    7       1       0.4415741       100.36
2015    7       2       0.401161        93.15042
2015    7       3       0.4106773       95.56203
2015    7       4       0.4308124       99.61308
2015    7       5       0.5362148       116.6078
2015    7       6       0.6338555       130.9533
2015    7       7       0.6389407       132.0899
2015    8       0       0.5962052       126.0496
2015    8       1       0.5675809       121.5049
2015    8       2       0.4998529       110.8965
2015    8       3       0.4706866       106.173
2015    8       4       0.5290532       115.8474
2015    8       5       0.6537309       134.0481
2015    8       6       0.7272942       143.7164
2015    8       7       0.6389808       132.2263
2015    9       0       0.5522015       119.3922
2015    9       1       0.4623526       104.6754
2015    9       2       0.4117704       95.60893
2015    9       3       0.3994471       93.13631
2015    9       4       0.4160054       95.97933
2015    9       5       0.460029        103.7701
2015    9       6       0.4898926       108.941
2015    9       7       0.4854007       108.2583
2015    10      0       0.4859925       108.2787
2015    10      1       0.4719333       106.0262
2015    10      2       0.453486        102.9706
2015    10      3       0.4572786       103.6525
2015    10      4       0.462582        104.6129
2015    10      5       0.4573826       104.2146
2015    10      6       0.4262991       99.03418
2015    10      7       0.3931339       93.08884
2015    11      0       0.3934236       92.8451
2015    11      1       0.3579419       85.51155
2015    11      2       0.3533072       85.22059
2015    11      3       0.3325777       81.56162
2015    11      4       0.3119544       77.70483
2015    11      5       0.3022826       75.83131
2015    11      6       0.3109694       77.61443
2015    11      7       0.3553584       85.95027
2015    12      0       0.393632        92.57522
2015    12      1       0.3870931       91.26625
2015    12      2       0.3604286       86.19303
2015    12      3       0.3426024       83.00535
2015    12      4       0.3235893       79.47783
2015    12      5       0.302756        75.5911
2015    12      6       0.2687844       68.74999
2015    12      7       0.2844503       71.66399
2015    13      0       0.3046455       75.72335
2015    13      1       0.3131913       77.55455
2015    13      2       0.3021344       75.35172
2015    13      3       0.311169        76.72671
2015    13      4       0.3173304       77.90089
2015    13      5       0.2969469       74.20814
2015    13      6       0.2969642       74.44183
2015    13      7       0.2820012       71.41191
2015    14      0       0.2960555       74.14425
2015    14      1       0.3515264       84.64932
2015    14      2       0.3659239       87.35662
2015    14      3       0.3373722       82.04993
2015    14      4       0.2143808       57.09754
2015    14      5       0.0909923       28.46209
2015    14      6       0.07082563      22.91913
2015    14      7       0.07112369      22.86256
2015    15      0       0.07580747      24.02619
2015    15      1       0.07460779      23.8873
2015    15      2       0.08210327      25.86369
2015    15      3       0.09692405      29.52247
2015    15      4       0.1137403       33.6063
2015    15      5       0.1127603       33.35607
2015    15      6       0.1104553       32.77871
2015    15      7       0.1115728       32.98029
2015    16      0       0.1337483       38.44274
2015    16      1       0.1560052       43.51185
2015    16      2       0.1720652       47.09956
2015    16      3       0.1656408       45.75128
2015    16      4       0.1537873       42.93365
2015    16      5       0.146951        41.28482
2015    16      6       0.1233356       35.77299
2015    16      7       0.1128733       33.4777
2015    17      0       0.127081        37.06263
2015    17      1       0.1883925       51.41518
2015    17      2       0.2622639       67.56991
2015    17      3       0.2636855       67.92324
2015    17      4       0.2862802       72.98081
2015    17      5       0.2814969       71.71311
2015    17      6       0.3755044       89.80527
2015    17      7       0.4483317       102.7636
2015    18      0       0.4646848       105.4552
2015    18      1       0.507208        111.6049
2015    18      2       0.488647        108.5041
2015    18      3       0.4638674       104.1713
2015    18      4       0.4640096       104.5618
2015    18      5       0.4409016       101.1674
2015    18      6       0.4284236       99.32633
2015    18      7       0.4725483       106.8178
2015    19      0       0.4950651       110.4386
2015    19      1       0.5158937       113.497
2015    19      2       0.5043384       111.8345
2015    19      3       0.4952535       110.9354
2015    19      4       0.5684851       122.9237
2015    19      5       0.7737753       150.9768
2015    19      6       0.9748107       173.3502
2015    19      7       0.8878742       163.7715
2015    20      0       0.7486284       147.3253
2015    20      1       0.7489571       147.6641
2015    20      2       0.7362684       145.8571
2015    20      3       0.7620852       149.3122
2015    20      4       0.8813781       163.8342
2015    20      5       0.9946855       176.0329
2015    20      6       0.9714142       173.7436
2015    20      7       1.03099         179.6181
2015    21      0       1.123443        187.5293
2015    21      1       1.133318        187.4292
2015    21      2       0.9140223       166.1325
2015    21      3       0.7453674       146.5339
2015    21      4       0.6638297       136.2418
2015    21      5       0.6351588       132.5538
2015    21      6       0.5740345       123.6246
2015    21      7       0.5127638       113.9868
2015    22      0       0.4596636       105.0213
2015    22      1       0.4221055       98.19185
2015    22      2       0.3779039       90.21112
2015    22      3       0.3548521       86.12108
2015    22      4       0.3932161       93.39698
2015    22      5       0.4457194       102.5669
2015    22      6       0.4669156       105.7748
2015    22      7       0.4703848       105.7688
2015    23      0       0.4415744       100.6848
2015    23      1       0.4295551       98.73618
2015    23      2       0.4261311       98.33208
2015    23      3       0.3957771       93.17054
2015    23      4       0.419406        97.81776
2015    23      5       0.5373672       117.0373
2015    23      6       0.5997634       126.2797
2015    23      7       0.6080297       127.6023
2015    24      0       0.5986667       126.3835
2015    24      1       0.6020639       126.7347
2015    24      2       0.5903389       124.9944
2015    24      3       0.589341        125.0955
2015    24      4       0.6671694       136.53
2015    24      5       0.702063        141.3686
2015    24      6       0.7126837       142.7322
2015    24      7       0.7399061       146.3159
2015    25      0       0.7490206       147.2224
2015    25      1       0.7179334       143.1325
2015    25      2       0.6883442       139.4276
2015    25      3       0.6964961       140.3887
2015    25      4       0.7459403       146.6331
2015    25      5       0.788922        152.0149
2015    25      6       0.8037767       153.9025
2015    25      7       0.729215        144.7896
2015    26      0       0.7197836       143.4741
2015    26      1       0.6965392       140.4159
2015    26      2       0.6432998       133.1176
2015    26      3       0.606915        128.013
2015    26      4       0.6166201       129.5524
2015    26      5       0.6760018       137.7456
2015    26      6       0.7552862       147.9458
2015    26      7       0.7929142       152.599
2015    27      0       0.7812577       150.8967
2015    27      1       0.7457052       146.2627
2015    27      2       0.66889         136.0429
2015    27      3       0.6336416       131.1087
2015    27      4       0.660618        135.02
2015    27      5       0.7301349       144.312
2015    27      6       0.7946754       152.4524
2015    27      7       0.7972906       153.2461
2015    28      0       0.8195208       155.8098
2015    28      1       0.8935613       163.718
2015    28      2       0.7775267       150.1466
2015    28      3       0.6818289       138.3342
2015    28      4       0.7504961       147.6466
2015    28      5       0.9192674       166.9826
2015    28      6       1.060883        180.9161
2015    28      7       0.8836769       162.6286
2015    29      0       0.8078518       153.9402
2015    29      1       0.7290926       144.8786
2015    29      2       0.6235337       130.831
2015    29      3       0.574333        123.56
2015    29      4       0.6181258       129.8608
2015    29      5       0.7505833       147.3582
2015    29      6       0.6719255       137.4034
2015    29      7       0.562866        122.0142
2015    30      0       0.5072147       112.9891
2015    30      1       0.5000201       111.335
2015    30      2       0.4485969       102.3982
2015    30      3       0.4417435       101.4492
2015    30      4       0.476035        107.169
2015    30      5       0.5477439       118.8069
2015    30      6       0.5942272       126.524
2015    30      7       0.6508739       135.4476
2015    31      0       0.5974586       126.7914
2015    31      1       0.5808954       124.1872
2015    31      2       0.4965651       110.4292
2015    31      3       0.4332839       99.9453
2015    31      4       0.4362745       100.6881
2015    31      5       0.4674443       106.1268
2015    31      6       0.4262282       99.14314
2015    31      7       0.4109017       96.29413
2016    1       0       0.1847302       50.01365
2016    1       1       0.1780132       48.55432
2016    1       2       0.2008099       53.08353
2016    1       3       0.2015803       53.21382
2016    1       4       0.2061042       54.26196
2016    1       5       0.2119527       55.49489
2016    1       6       0.2072099       54.65912
2016    1       7       0.1983348       52.92523
2016    2       0       0.1813539       49.56991
2016    2       1       0.1687031       46.85954
2016    2       2       0.1483315       42.31625
2016    2       3       0.1374729       39.89136
2016    2       4       0.1381679       40.106
2016    2       5       0.1523606       43.38954
2016    2       6       0.1464352       42.07619
2016    2       7       0.1197586       35.83907
2016    3       0       0.1063279       32.53684
2016    3       1       0.1007832       31.14091
2016    3       2       0.09439507      29.49948
2016    3       3       0.08665128      27.47264
2016    3       4       0.1017173       31.06329
2016    3       5       0.1239466       36.29482
2016    3       6       0.1291917       37.55898
2016    3       7       0.1230159       36.12793
2016    4       0       0.1145471       34.06787
2016    4       1       0.1073826       32.29352
2016    4       2       0.1010143       30.72166
2016    4       3       0.09797603      29.97148
2016    4       4       0.100835        30.67707
2016    4       5       0.1143635       33.98216
2016    4       6       0.1250811       36.65154
2016    4       7       0.13712         39.40437
2016    5       0       0.1404159       40.19844
2016    5       1       0.1450982       41.39691
2016    5       2       0.1509337       42.87386
2016    5       3       0.1579036       44.55398
2016    5       4       0.176672        49.03846
2016    5       5       0.205806        55.84764
2016    5       6       0.2024802       55.24287
2016    5       7       0.1924549       52.86926
2016    6       0       0.2157248       57.89704
2016    6       1       0.2933415       74.2026
2016    6       2       0.3517736       85.76087
2016    6       3       0.3673197       88.39259
2016    6       4       0.3649482       87.99194
2016    6       5       0.3607998       87.33304
2016    6       6       0.4702778       106.993
2016    6       7       0.5054898       112.8743
2016    7       0       0.514316        113.9947
2016    7       1       0.5445476       118.3987
2016    7       2       0.5778563       123.0753
2016    7       3       0.619776        128.6332
2016    7       4       0.6509642       132.0429
2016    7       5       0.7879427       149.8715
2016    7       6       0.5594285       119.7382
2016    7       7       0.5313326       114.252
2016    8       0       0.553807        117.7254
2016    8       1       0.6181798       127.9306
2016    8       2       0.6238021       128.6461
2016    8       3       0.672074        135.0161
2016    8       4       0.442326        100.5551
2016    8       5       0.2866616       72.64534
2016    8       6       0.2355431       62.28628
2016    8       7       0.09532234      29.08829
2016    9       0       0.08389144      26.08952
2016    9       1       0.103535        30.79631
2016    9       2       0.1187918       34.87136
2016    9       3       0.1355764       38.98599
2016    9       4       0.1529667       42.93552
2016    9       5       0.1447976       41.11377
2016    9       6       0.1400127       40.07209
2016    9       7       0.1281233       37.05956
2016    10      0       0.1540902       42.9971
2016    10      1       0.1729799       47.20312
2016    10      2       0.1887284       50.57027
2016    10      3       0.1914271       51.04752
2016    10      4       0.2021193       53.22847
2016    10      5       0.2306337       59.79606
2016    10      6       0.2583338       66.30947
2016    10      7       0.2746806       69.90653
2016    11      0       0.2888417       72.8788
2016    11      1       0.3046712       75.99148
2016    11      2       0.3339493       81.86647
2016    11      3       0.3258573       80.38827
2016    11      4       0.317472        78.90166
2016    11      5       0.319539        79.47895
2016    11      6       0.3639119       88.27788
2016    11      7       0.3633823       88.24895
2016    12      0       0.3697424       89.3378
2016    12      1       0.3784627       90.87996
2016    12      2       0.3604145       87.55642
2016    12      3       0.3385428       83.23433
2016    12      4       0.3512064       85.71318
2016    12      5       0.3500843       85.66342
2016    12      6       0.3363777       83.12781
2016    12      7       0.3345161       82.64392
2016    13      0       0.3166737       79.22361
2016    13      1       0.2985649       75.72616
2016    13      2       0.282378        72.42036
2016    13      3       0.2727686       70.41317
2016    13      4       0.3005355       76.01514
2016    13      5       0.3768491       90.18006
2016    13      6       0.4498348       102.4058
2016    13      7       0.4200338       97.22029
2016    14      0       0.4202211       97.02539
2016    14      1       0.4297966       98.62655
2016    14      2       0.5250247       114.7054
2016    14      3       0.5774358       123.2597
2016    14      4       0.5909213       125.5874
2016    14      5       0.6595803       135.1208
2016    14      6       0.6502731       133.5532
2016    14      7       0.6791688       137.2665
2016    15      0       0.7514832       146.3634
2016    15      1       0.8178883       154.0054
2016    15      2       0.7461897       146.0573
2016    15      3       0.7632436       148.4761
2016    15      4       0.7088598       141.7354
2016    15      5       0.6025984       127.2951
2016    15      6       0.4986677       111.2064
2016    15      7       0.4724258       106.4062
2016    16      0       0.4731496       106.4014
2016    16      1       0.4176273       97.25458
2016    16      2       0.437465        101.1276
2016    16      3       0.4342514       99.96754
2016    16      4       0.4942089       109.7709
2016    16      5       0.5228059       114.8991
2016    16      6       0.505261        112.6645
2016    16      7       0.5185743       114.574
2016    17      0       0.5570305       119.9827
2016    17      1       0.5835227       123.4629
2016    17      2       0.6102151       127.7622
2016    17      3       0.5576638       119.9906
2016    17      4       0.5959481       125.4403
2016    17      5       0.5739869       122.1618
2016    17      6       0.6509532       133.3632
2016    17      7       0.7627463       147.7236
2016    18      0       0.8062624       153.0854
2016    18      1       0.6737524       136.4131
2016    18      2       0.8252559       154.6027
2016    18      3       0.8769895       160.3704
2016    18      4       0.9089056       164.0458
2016    18      5       0.8128274       153.7261
2016    18      6       0.5585088       120.5858
2016    18      7       0.5000874       111.2677
2016    19      0       0.4948696       110.2423
2016    19      1       0.4872317       108.8801
2016    19      2       0.4606565       104.4703
2016    19      3       0.4585536       104.0957
2016    19      4       0.4678406       105.616
2016    19      5       0.4476366       102.489
2016    19      6       0.4966286       110.8892
2016    19      7       0.530932        116.3057
2016    20      0       0.5254253       115.3983
2016    20      1       0.5472967       118.7105
2016    20      2       0.5445332       117.9604
2016    20      3       0.56708         121.3335
2016    20      4       0.5597988       120.3933
2016    20      5       0.5330599       116.5489
2016    20      6       0.5732569       123.2275
2016    20      7       0.5996871       127.3308
2016    21      0       0.6198083       129.8277
2016    21      1       0.6061443       127.3042
2016    21      2       0.4783722       107.2452
2016    21      3       0.399017        93.12298
2016    21      4       0.3980075       92.86719
2016    21      5       0.4277249       98.55602
2016    21      6       0.4541259       103.6015
2016    21      7       0.4619765       104.8056
2016    22      0       0.48292         108.1123
2016    22      1       0.4915473       109.6681
2016    22      2       0.4833144       108.6548
2016    22      3       0.4152004       96.54917
2016    22      4       0.4300107       99.1427
2016    22      5       0.4726515       106.5469
2016    22      6       0.5551208       120.0122
2016    22      7       0.5805696       124.0616
2016    23      0       0.5109683       113.2955
2016    23      1       0.4586144       104.276
2016    23      2       0.4142633       96.30467
2016    23      3       0.3733306       88.68104
2016    23      4       0.37698         89.33334
2016    23      5       0.3768591       89.61271
2016    23      6       0.3655044       88.03085
2016    23      7       0.3147212       78.3805
2016    24      0       0.3251757       80.2601
2016    24      1       0.3434691       83.56833
2016    24      2       0.3133217       77.56544
2016    24      3       0.3021057       75.33694
2016    24      4       0.2888868       72.72212
2016    24      5       0.263369        67.29777
2016    24      6       0.272789        69.24996
2016    24      7       0.3022351       75.46326
2016    25      0       0.3027659       75.68555
2016    25      1       0.2887609       73.01905
2016    25      2       0.2863233       72.66216
2016    25      3       0.2875722       72.87521
2016    25      4       0.3129498       78.10431
2016    25      5       0.3330444       82.13188
2016    25      6       0.345361        84.56823
2016    25      7       0.3692605       89.07538
2016    26      0       0.3916914       93.12752
2016    26      1       0.4051798       95.54438
2016    26      2       0.4001019       94.70955
2016    26      3       0.3981968       94.24547
2016    26      4       0.4024432       95.15499
2016    26      5       0.4399896       101.6693
2016    26      6       0.5080188       112.7847
2016    26      7       0.5765783       123.596
2016    27      0       0.6394023       133.0376
2016    27      1       0.698092        141.1618
2016    27      2       0.6527267       135.3095
2016    27      3       0.6106464       129.3492
2016    27      4       0.6430835       133.951
2016    27      5       0.7399191       146.5365
2016    27      6       0.7775884       151.3413
2016    27      7       0.7261396       145.0227
2016    28      0       0.6610848       135.571
2016    28      1       0.5454357       118.277
2016    28      2       0.6422478       132.6316
2016    28      3       0.7758736       150.9285
2016    28      4       0.876936        163.4144
2016    28      5       0.9999985       176.2667
2016    28      6       0.9586489       172.3743
2016    28      7       0.9876507       175.1535
2016    29      0       0.8681698       162.1826
2016    29      1       0.7404803       146.6099
2016    29      2       0.6443696       133.3695
2016    29      3       0.5673565       121.8713
2016    29      4       0.5501095       119.4597
2016    29      5       0.5393762       117.8714
2016    29      6       0.5194926       115.0696
2016    29      7       0.4891365       110.0822
2016    30      0       0.4838141       109.0681
2016    30      1       0.4786666       108.2487
2016    30      2       0.4749795       107.7199
2016    30      3       0.5070428       112.9941
2016    30      4       0.5322485       117.154
2016    30      5       0.6067254       128.6394
2016    30      6       0.6519838       135.5298
2016    30      7       0.6928648       141.0861
2016    31      0       0.6732841       138.1511
2016    31      1       0.6728404       137.6602
2016    31      2       0.6753211       137.9448
2016    31      3       0.6121056       129.1214
2016    31      4       0.6032218       127.9305
2016    31      5       0.6351647       132.8199
2016    31      6       0.6382012       133.3731
2016    31      7       0.6546002       135.3949
2017    1       0       0.5296715       115.991
2017    1       1       0.4265087       98.94378
2017    1       2       0.3971113       93.48145
2017    1       3       0.4350951       100.1571
2017    1       4       0.5208441       114.7674
2017    1       5       0.5041533       112.1546
2017    1       6       0.3922369       92.66078
2017    1       7       0.3871974       91.73647
2017    2       0       0.4308122       99.67595
2017    2       1       0.4748751       107.1127
2017    2       2       0.4866488       108.9937
2017    2       3       0.4744364       106.8305
2017    2       4       0.5026789       111.4503
2017    2       5       0.517358        113.9364
2017    2       6       0.4805878       108.0544
2017    2       7       0.4600907       104.7132
2017    3       0       0.4615512       105.6844
2017    3       1       0.5556983       121.0697
2017    3       2       0.6803603       138.6526
2017    3       3       0.7231917       144.1046
2017    3       4       0.7274162       144.9679
2017    3       5       0.7549384       148.9528
2017    3       6       0.6812004       139.3564
2017    3       7       0.9005036       163.9084
2017    4       0       0.8031849       153.2097
2017    4       1       0.6999636       140.2047
2017    4       2       0.6284725       130.2236
2017    4       3       0.6693714       134.9662
2017    4       4       0.4035828       93.25854
2017    4       5       0.1586477       43.95848
2017    4       6       0.04340142      15.95681
2017    4       7       0.03416049      13.48766
2017    5       0       0.03671975      14.11702
2017    5       1       0.03958738      14.91728
2017    5       2       0.04148752      15.41851
2017    5       3       0.0492024       17.49496
2017    5       4       0.09413133      29.18154
2017    5       5       0.08039018      25.69833
2017    5       6       0.05984474      20.3259
2017    5       7       0.05675234      19.47674
2017    6       0       0.06204071      20.885
2017    6       1       0.06734535      22.26738
2017    6       2       0.07459283      24.05277
2017    6       3       0.1205498       35.41061
2017    6       4       0.1500476       42.09894
2017    6       5       0.1363672       38.53034
2017    6       6       0.1143598       33.17693
2017    6       7       0.1026971       30.5468
2017    7       0       0.08941863      27.47257
2017    7       1       0.0769071       24.60448
2017    7       2       0.07978019      25.51591
2017    7       3       0.09628547      29.75373
2017    7       4       0.1164497       34.66732
2017    7       5       0.1953749       52.69744
2017    7       6       0.3498009       84.11624
2017    7       7       0.3735215       89.05833
2017    8       0       0.2631991       67.88174
2017    8       1       0.2021684       54.80156
2017    8       2       0.1631409       45.66183
2017    8       3       0.1444802       40.9045
2017    8       4       0.192528        51.68586
2017    8       5       0.2118619       55.84855
2017    8       6       0.2016314       53.49556
2017    8       7       0.2186987       57.07294
2017    9       0       0.1929318       51.5611
2017    9       1       0.1220229       35.17524
2017    9       2       0.05939371      19.70322
2017    9       3       0.06092649      20.45078
2017    9       4       0.06378833      21.37706
2017    9       5       0.07032125      23.14504
2017    9       6       0.05806927      19.95074
2017    9       7       0.05611801      19.42004
2017    10      0       0.05462564      18.98671
2017    10      1       0.05314401      18.54592
2017    10      2       0.05531754      19.07659
2017    10      3       0.06765327      22.33125
2017    10      4       0.08031697      25.59446
2017    10      5       0.08374912      26.49544
2017    10      6       0.08164151      25.9784
2017    10      7       0.1006974       30.6907
2017    11      0       0.1175581       34.77965
2017    11      1       0.1259519       36.80033
2017    11      2       0.1262342       36.94634
2017    11      3       0.1191758       35.29904
2017    11      4       0.1091694       32.90361
2017    11      5       0.1048419       31.87747
2017    11      6       0.08284         26.24688
2017    11      7       0.07830875      25.10659
2017    12      0       0.08438419      26.67763
2017    12      1       0.09336179      28.89283
2017    12      2       0.09168158      28.54023
2017    12      3       0.09713572      29.94432
2017    12      4       0.1023876       31.30742
2017    12      5       0.09908217      30.51141
2017    12      6       0.08322161      26.47218
2017    12      7       0.07425647      24.1264
2017    13      0       0.06243978      21.03695
2017    13      1       0.05430661      18.90779
2017    13      2       0.06055481      20.60707
2017    13      3       0.09321238      29.13718
2017    13      4       0.1434951       41.46994
2017    13      5       0.1619948       45.86733
2017    13      6       0.1660526       46.7072
2017    13      7       0.1796728       49.80437
2017    14      0       0.1963673       53.49235
2017    14      1       0.2500512       65.06952
2017    14      2       0.2625439       67.65445
2017    14      3       0.2430722       63.37095
2017    14      4       0.2315997       60.7096
2017    14      5       0.2352014       61.44548
2017    14      6       0.275283        70.14868
2017    14      7       0.2552649       65.82974
2017    15      0       0.2255855       59.4099
2017    15      1       0.1868245       50.95741
2017    15      2       0.1151155       34.34634
2017    15      3       0.07496442      23.85652
2017    15      4       0.07859377      24.71753
2017    15      5       0.08028507      25.22795
2017    15      6       0.07973863      25.11594
2017    15      7       0.08837489      27.48694
2017    16      0       0.1047126       31.64874
2017    16      1       0.1423718       40.88472
2017    16      2       0.1708543       47.60629
2017    16      3       0.173787        48.26995
2017    16      4       0.1766286       48.79509
2017    16      5       0.1659656       46.1637
2017    16      6       0.1719566       47.52794
2017    16      7       0.1903699       51.83309
2017    17      0       0.1913761       51.98851
2017    17      1       0.2084094       55.859
2017    17      2       0.2258182       59.76614
2017    17      3       0.2532372       65.87025
2017    17      4       0.2746651       70.44984
2017    17      5       0.2925071       74.10136
2017    17      6       0.2772362       70.97318
2017    17      7       0.2268017       60.31401
2017    18      0       0.1875078       51.58856
2017    18      1       0.177056        49.27356
2017    18      2       0.1703821       47.82539
2017    18      3       0.1755869       49.05162
2017    18      4       0.1779682       49.6086
2017    18      5       0.1872949       51.89722
2017    18      6       0.1965663       53.92127
2017    18      7       0.198947        54.41531
2017    19      0       0.1998027       54.53733
2017    19      1       0.1953386       53.36438
2017    19      2       0.1919068       52.50102
2017    19      3       0.1844752       50.65818
2017    19      4       0.1806652       49.66579
2017    19      5       0.1881865       51.14105
2017    19      6       0.1890035       51.05816
2017    19      7       0.2291051       59.7869
2017    20      0       0.2695834       68.39877
2017    20      1       0.2863937       71.98408
2017    20      2       0.2766668       70.01042
2017    20      3       0.2554735       65.39384
2017    20      4       0.23056         60.1424
2017    20      5       0.1978787       53.12529
2017    20      6       0.1754397       48.06139
2017    20      7       0.1619111       45.0499
2017    21      0       0.1482057       41.93476
2017    21      1       0.1400983       40.00624
2017    21      2       0.1438478       40.89356
2017    21      3       0.1781921       48.96815
2017    21      4       0.2221842       58.75544
2017    21      5       0.2579417       66.31781
2017    21      6       0.3428067       83.36526
2017    21      7       0.5060039       112.7051
2017    22      0       0.6276613       131.7204
2017    22      1       0.6941752       140.9199
2017    22      2       0.6705605       137.2557
2017    22      3       0.6385497       131.9274
2017    22      4       0.5928752       125.4638
2017    22      5       0.5447998       118.3531
2017    22      6       0.571882        122.1522
2017    22      7       0.5235984       114.6914
2017    23      0       0.4405741       100.5697
2017    23      1       0.3057707       76.35912
2017    23      2       0.2669205       68.54329
2017    23      3       0.3127773       78.39086
2017    23      4       0.2703884       69.63963
2017    23      5       0.2227552       59.26333
2017    23      6       0.2081201       56.08744
2017    23      7       0.1770888       49.42269
2017    24      0       0.175861        49.41703
2017    24      1       0.1941915       53.41053
2017    24      2       0.1882727       51.99296
2017    24      3       0.2880394       73.69672
2017    24      4       0.3991732       95.22008
2017    24      5       0.4107593       97.21117
2017    24      6       0.6162433       130.7006
2017    24      7       0.8513643       160.8465
2017    25      0       0.9663743       173.1973
2017    25      1       0.8225809       157.2336
2017    25      2       0.6839044       139.6216
2017    25      3       0.5790328       124.7035
2017    25      4       0.6010555       127.7348
2017    25      5       0.4928837       110.8033
2017    25      6       0.422475        98.76592
2017    25      7       0.3470102       84.70878
2017    26      0       0.3380958       82.69808
2017    26      1       0.3570851       86.20958
2017    26      2       0.2685979       68.83096
2017    26      3       0.1914902       52.17351
2017    26      4       0.1661673       46.42884
2017    26      5       0.1563994       44.28299
2017    26      6       0.1532668       43.65524
2017    26      7       0.1118282       33.53611
2017    27      0       0.07112782      23.20981
2017    27      1       0.06085358      20.51715
2017    27      2       0.08417801      26.41086
2017    27      3       0.1016074       30.90468
2017    27      4       0.1114316       33.39369
2017    27      5       0.1083761       32.69724
2017    27      6       0.1147457       34.2298
2017    27      7       0.1315569       38.20661
2017    28      0       0.1181729       35.14822
2017    28      1       0.1196538       35.53499
2017    28      2       0.1650986       46.27638
2017    28      3       0.2128972       57.15613
2017    28      4       0.2856535       72.52808
2017    28      5       0.3316332       81.69324
2017    28      6       0.3629086       87.69697
2017    28      7       0.3772853       90.0063
2017    29      0       0.4009683       93.63509
2017    29      1       0.390756        91.75648
2017    29      2       0.4002887       93.94356
2017    29      3       0.5075538       112.8065
2017    29      4       0.659435        136.6806
2017    29      5       0.8007491       154.6814
2017    29      6       0.8450917       160.0263
2017    29      7       1.258845        198.492
2017    30      0       1.008984        176.059
2017    30      1       0.9690714       171.6136
2017    30      2       0.8744037       160.4392
2017    30      3       0.6453949       131.4922
2017    30      4       0.7729762       148.7744
2017    30      5       0.7187509       143.4481
2017    30      6       0.7540822       148.5379
2017    30      7       0.7036436       142.6639
2017    31      0       0.7798223       152.4887
2017    31      1       0.7853302       153.1581
2017    31      2       0.7697683       151.1997
2017    31      3       1.120787        187.3961
2017    31      4       1.391657        208.3295
2017    31      5       1.225271        196.6155
2017    31      6       1.113168        187.1749
2017    31      7       0.9752884       174.0502
2018    1       0       0.4990384       111.2579
2018    1       1       0.5033854       111.9526
2018    1       2       0.4207383       98.50098
2018    1       3       0.3303483       81.923
2018    1       4       0.4221483       99.06887
2018    1       5       0.5740855       123.3219
2018    1       6       0.736507        145.4796
2018    1       7       0.7702254       149.6264
2018    2       0       0.7673784       149.4924
2018    2       1       0.7036571       141.2861
2018    2       2       0.6429436       133.1915
2018    2       3       0.5848726       125.0909
2018    2       4       0.6410623       133.3668
2018    2       5       0.7564574       148.6309
2018    2       6       0.7367701       145.8694
2018    2       7       0.6656277       136.2489
2018    3       0       0.6078304       127.8823
2018    3       1       0.5636344       121.2967
2018    3       2       0.4972656       111.0741
2018    3       3       0.3988209       94.26217
2018    3       4       0.4241949       98.81406
2018    3       5       0.4763901       107.7097
2018    3       6       0.4949962       110.644
2018    3       7       0.4718676       106.9716
2018    4       0       0.4548909       104.0638
2018    4       1       0.4534347       103.6486
2018    4       2       0.4202093       97.60546
2018    4       3       0.3870148       91.40794
2018    4       4       0.3885932       91.58804
2018    4       5       0.4017388       94.02998
2018    4       6       0.3869046       91.47824
2018    4       7       0.3760107       89.52161
2018    5       0       0.3719125       88.76639
2018    5       1       0.3681105       88.01028
2018    5       2       0.351655        84.98458
2018    5       3       0.3410583       82.97657
2018    5       4       0.3621159       86.88755
2018    5       5       0.3878683       91.5809
2018    5       6       0.3769321       89.74461
2018    5       7       0.3943079       92.70762
2018    6       0       0.4155635       96.25974
2018    6       1       0.4302079       98.52265
2018    6       2       0.4074314       94.34636
2018    6       3       0.4362237       99.06925
2018    6       4       0.5262278       113.1284
2018    6       5       0.5622604       118.6605
2018    6       6       0.5894798       122.9681
2018    6       7       0.5943545       124.1875
2018    7       0       0.4666302       105.0193
2018    7       1       0.4396161       100.5114
2018    7       2       0.4557325       102.8502
2018    7       3       0.4799176       106.7497
2018    7       4       0.552648        118.3929
2018    7       5       0.7342253       143.4493
2018    7       6       0.8127298       153.0979
2018    7       7       0.7552976       146.7212
2018    8       0       0.6056721       127.0501
2018    8       1       0.5421366       117.4985
2018    8       2       0.5265666       115.0324
2018    8       3       0.5027024       111.2728
2018    8       4       0.5344717       116.5642
2018    8       5       0.6319037       130.762
2018    8       6       0.6938738       139.2433
2018    8       7       0.5460782       118.5175
2018    9       0       0.5230641       114.9136
2018    9       1       0.4885245       108.8971
2018    9       2       0.4581909       104.0068
2018    9       3       0.4346179       100.081
2018    9       4       0.4167036       96.97081
2018    9       5       0.4189698       97.56332
2018    9       6       0.3825797       91.44453
2018    9       7       0.3887881       92.56872
2018    10      0       0.3870088       91.71983
2018    10      1       0.3787787       89.90169
2018    10      2       0.3575272       85.9316
2018    10      3       0.3475431       84.21313
2018    10      4       0.3696065       88.5258
2018    10      5       0.4032755       94.48928
2018    10      6       0.4644701       104.8651
2018    10      7       0.531366        115.4732
2018    11      0       0.532107        115.2859
2018    11      1       0.5456076       117.3253
2018    11      2       0.5606454       119.7016
2018    11      3       0.5243856       114.5208
2018    11      4       0.5328862       115.8551
2018    11      5       0.5632898       120.5388
2018    11      6       0.5448246       117.965
2018    11      7       0.5160153       113.5749
2018    12      0       0.5479616       118.1794
2018    12      1       0.5985738       125.2958
2018    12      2       0.5694056       120.8237
2018    12      3       0.5205751       113.3877
2018    12      4       0.5472775       118.1984
2018    12      5       0.5643646       121.088
2018    12      6       0.5138614       112.9235
2018    12      7       0.5147566       112.6282
2018    13      0       0.5818797       122.3938
2018    13      1       0.6326182       129.6748
2018    13      2       0.5956322       124.6904
2018    13      3       0.5459274       117.5753
2018    13      4       0.5638035       120.2319
2018    13      5       0.5068256       111.2799
2018    13      6       0.4504996       102.022
2018    13      7       0.3704972       87.56212
2018    14      0       0.3396606       81.958
2018    14      1       0.3377412       82.10342
2018    14      2       0.3104262       77.16664
2018    14      3       0.3093976       77.2766
2018    14      4       0.2149769       57.35971
2018    14      5       0.208306        55.95757
2018    14      6       0.2087296       56.08996
2018    14      7       0.1903732       51.99372
2018    15      0       0.1564675       44.23935
2018    15      1       0.1016192       31.03375
2018    15      2       0.06695213      22.14882
2018    15      3       0.06160226      20.67092
2018    15      4       0.071335        23.24727
2018    15      5       0.07176498      23.36453
2018    15      6       0.07141192      23.21155
2018    15      7       0.07512535      24.0978
2018    16      0       0.06941448      22.65305
2018    16      1       0.06204066      20.82502
2018    16      2       0.05775788      19.71861
2018    16      3       0.06174319      20.77053
2018    16      4       0.0858437       27.13084
2018    16      5       0.09362289      29.25592
2018    16      6       0.08649637      27.44976
2018    16      7       0.08103283      26.01938
2018    17      0       0.08305889      26.4735
2018    17      1       0.08339951      26.53257
2018    17      2       0.07944232      25.43923
2018    17      3       0.09790493      30.01948
2018    17      4       0.1260366       36.96064
2018    17      5       0.1326491       38.5408
2018    17      6       0.1314931       38.12813
2018    17      7       0.1285744       37.66648
2018    18      0       0.1273399       37.37756
2018    18      1       0.117736        35.05584
2018    18      2       0.0978251       30.06182
2018    18      3       0.1035979       31.54933
2018    18      4       0.139689        40.47721
2018    18      5       0.1791208       49.80913
2018    18      6       0.2154869       57.86473
2018    18      7       0.2357362       62.02842
2018    19      0       0.2037587       54.83374
2018    19      1       0.1882481       51.25615
2018    19      2       0.1868932       50.96415
2018    19      3       0.2220879       59.00834
2018    19      4       0.2707721       69.4657
2018    19      5       0.3208471       79.70519
2018    19      6       0.3307911       81.74257
2018    19      7       0.3588933       86.97485
2018    20      0       0.3951739       93.19154
2018    20      1       0.4103252       95.61094
2018    20      2       0.40895         95.1479
2018    20      3       0.4241021       98.20127
2018    20      4       0.4545405       103.6886
2018    20      5       0.5284718       116.4776
2018    20      6       0.5907268       125.2742
2018    20      7       0.7280725       142.753
2018    21      0       0.6707277       135.7804
2018    21      1       0.5699014       121.5322
2018    21      2       0.5427156       116.7014
2018    21      3       0.5596616       119.4963
2018    21      4       0.653838        133.51
2018    21      5       0.7975296       151.5596
2018    21      6       0.812981        153.5738
2018    21      7       0.708525        141.5847
2018    22      0       0.831067        155.6922
2018    22      1       0.7380363       144.7124
2018    22      2       0.7449851       145.8455
2018    22      3       0.7852222       150.9642
2018    22      4       0.9566489       170.7552
2018    22      5       1.348845        204.812
2018    22      6       1.175094        191.8116
2018    22      7       0.8009816       153.9476
2018    23      0       0.6288974       131.421
2018    23      1       0.5455764       118.9468
2018    23      2       0.5085036       112.8739
2018    23      3       0.5513554       118.9698
2018    23      4       0.7546183       146.9471
2018    23      5       0.9974331       174.4178
2018    23      6       0.7613477       148.3829
2018    23      7       0.4914779       110.3724
2018    24      0       0.4187694       97.44853
2018    24      1       0.3646962       87.44185
2018    24      2       0.4542702       103.4674
2018    24      3       0.4753489       107.0931
2018    24      4       0.5634055       121.3237
2018    24      5       0.7899452       152.2297
2018    24      6       0.8981619       164.6301
2018    24      7       0.805787        154.2994
2018    25      0       0.7378717       145.8957
2018    25      1       0.6445155       133.3379
2018    25      2       0.5749146       123.3032
2018    25      3       0.5445471       118.6795
2018    25      4       0.5711862       122.7598
2018    25      5       0.6217286       130.0809
2018    25      6       0.6033781       127.1385
2018    25      7       0.5158531       113.8963
2018    26      0       0.4766453       107.5454
2018    26      1       0.4579501       104.2932
2018    26      2       0.4749243       107.4479
2018    26      3       0.3958954       93.40027
2018    26      4       0.4198802       97.71153
2018    26      5       0.4530793       103.2846
2018    26      6       0.4836307       107.8577
2018    26      7       0.4830081       107.6417
2018    27      0       0.5324355       115.6312
2018    27      1       0.5659822       120.7745
2018    27      2       0.5299079       115.0195
2018    27      3       0.4720871       105.8035
2018    27      4       0.5431114       117.7127
2018    27      5       0.6649586       135.7833
2018    27      6       0.75701         147.8865
2018    27      7       0.7418395       146.0596
2018    28      0       0.698491        140.298
2018    28      1       0.6933895       139.8301
2018    28      2       0.7242053       144.1889
2018    28      3       0.6884866       139.4602
2018    28      4       0.6980033       140.8528
2018    28      5       0.7801785       151.2514
2018    28      6       0.8492437       159.3738
2018    28      7       0.8929425       164.4027
2018    29      0       0.8265619       157.0482
2018    29      1       0.8224465       156.2536
2018    29      2       0.7300776       145.015
2018    29      3       0.6812775       138.5406
2018    29      4       0.704973        142.0263
2018    29      5       0.7435007       147.5011
2018    29      6       0.6406738       133.3101
2018    29      7       0.5707284       123.0398
2018    30      0       0.6152914       130.3852
2018    30      1       0.6524195       135.4838
2018    30      2       0.5171793       114.3559
2018    30      3       0.4711195       106.0616
2018    30      4       0.4745078       106.6051
2018    30      5       0.46469         105.0182
2018    30      6       0.4322981       99.61825
2018    30      7       0.447596        101.9967
2018    31      0       0.4771648       106.8359
2018    31      1       0.4671651       104.1295
2018    31      2       0.3716446       87.47882
2018    31      3       0.3266677       79.74371
2018    31      4       0.3291716       80.43459
2018    31      5       0.3307454       80.9509
2018    31      6       0.2505243       64.37273
2018    31      7       0.242711        62.6148
