####################################################################################################
# Month: 02Feb                                                                                     #
# Station: OVRO                                                                                    #
# Frequency: 230 GHz                                                                               #
# Columns are: year    day     tau     Tb (K)                                                      #
####################################################################################################
2009    1       0.15161388      41.88034875
2009    2       0.20543524      53.33982875
2009    3       0.29530846      73.1628275
2009    4       0.33252598      79.9920375
2009    5       0.35675876      82.653035
2009    6       0.61800196      124.2793
2009    7       0.74971075      140.746925
2009    8       0.63510674      125.1038
2009    9       0.39735078      88.6139225
2009    10      0.2230861       55.045345
2009    11      0.30474831      71.84703125
2009    12      0.32651786      75.37464625
2009    13      0.29038626      68.21498
2009    14      0.28953454      68.42035125
2009    15      0.34572179      79.9447875
2009    16      0.4455685       94.6224975
2009    17      0.45031865      97.2751975
2009    18      0.3723445       83.82489
2009    19      0.23261988      59.372015
2009    20      0.15666239      43.16805875
2009    21      0.19667822      51.38841375
2009    22      0.710197        133.90988625
2009    23      0.93164257      163.0299375
2009    24      0.24736079      62.20594125
2009    25      0.24009492      60.941965
2009    26      0.33303498      79.3352325
2009    27      0.197284        51.3300225
2009    28      0.39747715      91.32104375
2010    1       0.34687422      80.70018
2010    2       0.47599         102.34805875
2010    3       0.44036834      96.96262625
2010    4       0.4053012       90.45778625
2010    5       0.61762866      125.147975
2010    6       0.76066961      143.4294875
2010    7       0.68839305      132.2630125
2010    8       0.51228741      107.23289375
2010    9       0.51048289      106.80013
2010    10      0.48456078      102.15720875
2010    11      0.37799595      86.67863875
2010    12      0.44057729      94.40253625
2010    13      0.27421175      67.75212875
2010    14      0.2564961       64.5623625
2010    15      0.27620771      68.0601225
2010    16      0.30814798      74.97461
2010    17      0.47794616      104.75176125
2010    18      0.34978522      82.3496875
2010    19      0.3696337       85.8803725
2010    20      0.68316868      132.755225
2010    21      0.4907525       104.48076125
2010    22      0.41490596      87.89479625
2010    23      0.15729629      41.5134825
2010    24      0.69459384      135.1918375
2010    25      0.43287039      94.67561
2010    26      0.38903546      89.008675
2010    27      0.67747706      131.6659875
2010    28      0.53552208      110.7206875
2011    1       0.24333798      60.740895
2011    2       0.07753381      23.9402725
2011    3       0.18245764      47.89420375
2011    4       0.3826816       87.47196
2011    5       0.46169881      102.440805
2011    6       0.46599674      103.90471875
2011    7       0.44014896      97.7733875
2011    8       0.21995958      56.30163
2011    9       0.19145383      50.07498375
2011    10      0.1428097       39.58762625
2011    11      0.17848179      47.7981225
2011    12      0.24540826      62.292455
2011    13      0.12835566      36.7342525
2011    14      0.27631825      68.32837875
2011    15      0.20594348      53.58509625
2011    16      0.38771356      87.0816025
2011    17      0.3113656       73.03923875
2011    18      0.38335676      86.27919875
2011    19      0.56448202      113.878055
2011    20      0.30243105      70.3554675
2011    21      0.20658278      52.47627125
2011    22      0.3224378       75.64378625
2011    23      0.29680811      71.47003625
2011    24      0.3190043       74.79510625
2011    25      0.4716398       102.15667125
2011    26      0.34587409      77.4903675
2011    27      0.23982446      58.5538025
2011    28      0.14039892      39.64910875
2012    1       0.36964468      84.87577375
2012    2       0.19596002      50.63281625
2012    3       0.12056013      34.78767125
2012    4       0.2450505       61.68863875
2012    5       0.23816193      60.1765125
2012    6       0.22304235      57.39072875
2012    7       0.48678905      102.90192375
2012    8       0.56844838      117.48666125
2012    9       0.32618626      78.87818875
2012    10      0.27718052      69.30018625
2012    11      0.40534098      89.36763625
2012    12      0.49437056      104.79060125
2012    13      0.56029058      114.495175
2012    14      0.45350115      98.34595
2012    15      0.3561309       81.2194925
2012    16      0.34014865      78.103645
2012    17      0.19446102      50.48260125
2012    18      0.33851945      79.53122125
2012    19      0.39024449      84.6924025
2012    20      0.32435055      75.808245
2012    21      0.48907721      105.9639475
2012    22      0.37237739      85.17166125
2012    23      0.30633191      75.061045
2012    24      0.28522195      70.69934375
2012    25      0.20880786      53.43591625
2012    26      0.10501796      30.14115625
2012    27      0.38896734      85.70002875
2012    28      0.36311222      81.297285
2012    29      0.38452582      87.61646
2013    1       0.1636115       44.740365
2013    2       0.25360321      63.27197
2013    3       0.52314681      109.76918625
2013    4       0.26233295      65.38481
2013    5       0.32930119      78.7543675
2013    6       0.1623081       43.3039925
2013    7       0.15690808      42.755775
2013    8       0.34612951      78.47612
2013    9       0.3360656       77.16257375
2013    10      0.27466958      66.14685375
2013    11      0.22643845      56.1258825
2013    12      0.23521818      59.424245
2013    13      0.36035834      84.4711925
2013    14      0.33070819      79.5085675
2013    15      0.17305075      46.6140325
2013    16      0.10552927      31.0031925
2013    17      0.18358614      48.6897275
2013    18      0.21062449      54.7917925
2013    19      0.32054896      75.91807625
2013    20      0.40868021      88.88864125
2013    21      0.24599341      59.93359375
2013    22      0.3073944       73.06573875
2013    23      0.36726015      84.587855
2013    24      0.17928814      46.573815
2013    25      0.23708182      60.06759125
2013    26      0.17135029      46.0542
2013    27      0.20236451      52.1088325
2013    28      0.33869895      79.5841575
2014    1       0.25533991      61.39562
2014    2       0.26157916      62.33482375
2014    3       0.40920839      90.3417625
2014    4       0.27350465      66.0893575
2014    5       0.30238589      71.81294625
2014    6       0.5166358       107.76328875
2014    7       0.46630779      98.996485
2014    8       0.7382715       142.9360875
2014    9       0.74902418      145.3019125
2014    10      0.58109341      118.4586925
2014    11      0.26080019      64.2126425
2014    12      0.56251204      118.3377725
2014    13      0.45694485      101.86901125
2014    14      0.35066416      82.73036
2014    15      0.26235344      66.1085375
2014    16      0.34906776      81.871285
2014    17      0.22482911      58.21680625
2014    18      0.20650359      52.77563125
2014    19      0.38312386      86.264485
2014    20      0.2872896       70.14204125
2014    21      0.43239458      96.76682875
2014    22      0.39800441      91.39488375
2014    23      0.32380821      77.9103825
2014    24      0.24970769      63.635595
2014    25      0.2651092       66.82751125
2014    26      0.57820428      117.9275325
2014    27      0.67157932      131.613975
2014    28      0.63040171      119.15688
2015    1       0.22264581      56.30472
2015    2       0.46842391      103.5046425
2015    3       0.40029991      90.9552925
2015    4       0.28807312      71.45066125
2015    5       0.27165378      68.0922675
2015    6       0.23466205      60.0836825
2015    7       0.69091372      133.29141
2015    8       0.71278352      139.4416625
2015    9       0.72164328      131.42344625
2015    10      0.2291262       59.70642
2015    11      0.31346174      76.1960825
2015    12      0.48006502      106.82892125
2015    13      0.36269339      86.61476
2015    14      0.34500808      83.20605375
2015    15      0.33873466      82.06018625
2015    16      0.28097121      70.38525625
2015    17      0.33651975      81.20725
2015    18      0.39604374      92.70536
2015    19      0.34904319      83.95837125
2015    20      0.32071789      78.2833675
2015    21      0.35480101      84.12738625
2015    22      0.64971169      128.7199125
2015    23      0.41007616      89.31545125
2015    24      0.20822089      52.5626875
2015    25      0.25487511      64.51740875
2015    26      0.38129102      88.1524925
2015    27      0.4463942       99.12766
2015    28      0.51725995      108.06003
2016    1       0.34146112      75.77205
2016    2       0.21417431      51.76983125
2016    3       0.3429295       79.40129625
2016    4       0.35066268      79.85338125
2016    5       0.25317915      63.141285
2016    6       0.28451136      70.0628975
2016    7       0.36506018      86.7111025
2016    8       0.33793879      81.19576625
2016    9       0.20079794      54.22132375
2016    10      0.21127725      56.309885
2016    11      0.23474796      60.59707625
2016    12      0.16579674      45.442345
2016    13      0.24422252      61.83597
2016    14      0.33614998      79.33134375
2016    15      0.43251119      96.564815
2016    16      0.22574112      59.12514375
2016    17      0.37768221      85.8119975
2016    18      0.62566216      124.17931375
2016    19      0.26103075      65.17715625
2016    20      0.22108448      56.763075
2016    21      0.25651212      64.09402125
2016    22      0.24673676      62.7930175
2016    23      0.26354433      66.88073375
2016    24      0.27113921      67.61681
2016    25      0.35509166      84.58699625
2016    26      0.4071278       94.2563625
2016    27      0.25385395      63.14850625
2016    28      0.58749452      122.821575
2016    29      0.4438995       98.90437625
2017    1       0.18640784      49.24601625
2017    2       0.45247499      100.8309875
2017    3       0.70366294      139.0001375
2017    4       0.5334937       114.3909125
2017    5       0.52285578      111.76523875
2017    6       0.6356752       129.1713875
2017    7       0.77209676      148.438525
2017    8       0.8968931       161.32415
2017    9       0.83668545      156.7729875
2017    10      0.86919821      158.9660625
2017    11      0.62950499      126.33421875
2017    12      0.524688        109.30195375
2017    13      0.28316733      70.00576625
2017    14      0.27724128      67.979475
2017    15      0.18607405      50.46084875
2017    16      0.57734434      120.74174875
2017    17      0.71658555      134.0057775
2017    18      0.9305772       161.86685
2017    19      0.53877175      114.7076
2017    20      0.91329434      163.1867875
2017    21      0.66720874      133.5288
2017    22      0.45468334      100.4485775
2017    23      0.27405581      65.71225375
2017    24      0.26207364      63.56284625
2017    25      0.29145367      69.62514375
2017    26      0.31488349      74.59131
2017    27      0.32506431      76.96058875
2017    28      0.2821038       68.41826625
2018    1       0.42809545      97.01034875
2018    2       0.57526489      122.9499
2018    3       0.50103394      111.57644875
2018    4       0.456462        104.375815
2018    5       0.4142219       96.52756625
2018    6       0.37702774      89.30152625
2018    7       0.28316496      70.80019125
2018    8       0.31469232      77.45875375
2018    9       0.33045183      81.3475725
2018    10      0.44407015      100.4282825
2018    11      0.15537501      42.0745825
2018    12      0.3510034       81.5813075
2018    13      0.42945252      94.48480375
2018    14      0.33022744      78.71806125
2018    15      0.28166244      69.30369
2018    16      0.21162295      54.54619125
2018    17      0.28104501      70.542015
2018    18      0.29390026      73.4042025
2018    19      0.21221745      54.22317
2018    20      0.16361463      42.8660275
2018    21      0.25203131      60.77311625
2018    22      0.25612026      62.36545375
2018    23      0.28146995      66.446515
2018    24      0.1524999       40.9891625
2018    25      0.25247725      63.13362625
2018    26      0.30226756      72.51476875
2018    27      0.5827643       117.06664125
2018    28      0.32401406      75.3718225
