####################################################################################################
# Month: 01Jan                                                                                     #
# Station: ATCA                                                                                    #
# Frequency: 230 GHz                                                                               #
# Columns are: year    day     tau     Tb (K)                                                      #
####################################################################################################
2009    1       1.15204969      193.4927
2009    2       1.4202304       210.424875
2009    3       1.62038675      230.693025
2009    4       1.63068688      231.87435
2009    5       1.66472775      234.79475
2009    6       1.59340125      230.8453375
2009    7       2.35356075      258.8797875
2009    8       2.63727375      264.278775
2009    9       1.53048188      223.95975
2009    10      2.02710212      246.8864875
2009    11      2.34464638      258.0801875
2009    12      1.71539412      235.2054625
2009    13      1.519256        225.3598875
2009    14      1.44212663      220.7390375
2009    15      1.56622612      229.705275
2009    16      1.07069014      180.4789875
2009    17      1.2813948       204.64195
2009    18      1.63857962      231.921325
2009    19      2.14629738      251.754975
2009    20      2.35751912      258.740475
2009    21      3.00837975      271.7558625
2009    22      3.2244945       274.072775
2009    23      3.3618485       281.658725
2009    24      2.9398245       276.492125
2009    25      2.80969238      271.830275
2009    26      2.21855138      257.9475875
2009    27      1.9784805       248.254525
2009    28      1.52433075      223.468
2009    29      1.45146838      217.7889125
2009    30      1.65329648      225.768675
2009    31      1.96709712      245.1141625
2010    1       3.73058162      279.78765
2010    2       3.51155938      280.1665125
2010    3       2.43972175      261.984725
2010    4       2.24455725      258.2546625
2010    5       2.3027205       259.088025
2010    6       3.20356275      276.61435
2010    7       2.97200525      270.3239375
2010    8       1.97516075      247.90065
2010    9       1.70995662      237.379475
2010    10      1.87185675      245.619
2010    11      1.98272775      249.7141
2010    12      2.06935275      255.0312375
2010    13      2.137898        256.1905875
2010    14      3.02744588      274.5105
2010    15      2.56661338      265.8212125
2010    16      2.417569        262.3840375
2010    17      1.60931105      214.1270375
2010    18      0.75188976      151.0793625
2010    19      0.70611181      145.8149125
2010    20      1.04884695      176.8390875
2010    21      1.1924624       200.7717125
2010    22      1.51599612      225.802225
2010    23      1.45389125      222.607675
2010    24      1.55269575      227.506625
2010    25      1.471473        221.1885125
2010    26      1.39072938      215.66665
2010    27      1.96141388      245.9683125
2010    28      2.50241838      262.1525125
2010    29      2.06411375      250.8907875
2010    30      1.81018012      239.864675
2010    31      2.466502        261.4070125
2011    1       1.73890512      229.230575
2011    2       2.46652075      265.03175
2011    3       2.73057675      269.674775
2011    4       2.34907988      259.996775
2011    5       2.90420875      267.543275
2011    6       2.000027        245.343525
2011    7       2.31888088      257.0120875
2011    8       2.54489         261.9498875
2011    9       2.8810955       270.286875
2011    10      3.70977188      281.4018125
2011    11      3.61408737      280.3571875
2011    12      3.26040212      278.1974375
2011    13      2.5183475       264.63155
2011    14      2.39950712      260.4234375
2011    15      3.03754538      276.6018125
2011    16      2.69360725      271.10675
2011    17      1.86864962      240.885925
2011    18      0.90432922      171.2022125
2011    19      1.38478862      211.7559375
2011    20      2.02571475      248.7754375
2011    21      1.55502788      225.890875
2011    22      1.49296465      217.6303
2011    23      1.56654412      225.0273625
2011    24      2.05451187      252.0112125
2011    25      2.08804038      254.9809625
2011    26      2.39746487      265.494225
2011    27      2.19224075      257.8635
2011    28      1.64915038      231.5676125
2011    29      1.19352221      198.6151
2011    30      1.351152        211.589375
2011    31      1.79462245      225.321475
2012    1       1.10168439      187.9177125
2012    2       1.46549538      219.607225
2012    3       1.58645938      229.3914
2012    4       2.07662712      252.050675
2012    5       2.56396912      265.336925
2012    6       1.9218825       241.052725
2012    7       2.42365225      262.947975
2012    8       3.00516225      275.976025
2012    9       1.47420364      213.0947375
2012    10      1.26053588      202.912325
2012    11      0.90870725      168.2506
2012    12      0.7822631       151.569625
2012    13      1.53454462      220.7036875
2012    14      2.36634525      254.88485
2012    15      2.137466        247.367375
2012    16      1.94577025      241.03445
2012    17      1.94853062      243.719575
2012    18      1.60276725      228.632
2012    19      1.81630887      239.623125
2012    20      1.696935        233.0458
2012    21      1.786728        235.8058625
2012    22      1.852812        238.3043
2012    23      2.38699875      257.5816875
2012    24      2.69836675      264.4257375
2012    25      2.93637575      271.1254875
2012    26      2.79460638      270.5224
2012    27      2.94659188      270.82875
2012    28      2.99454562      270.9675375
2012    29      3.36515688      276.6192125
2012    30      3.564892        280.190375
2012    31      4.17176388      283.07805
2013    1       1.69526862      236.7297
2013    2       1.57295229      220.24345
2013    3       1.82198088      241.446275
2013    4       1.77203488      241.0674875
2013    5       1.706713        236.1882625
2013    6       1.49018504      219.59905
2013    7       1.38436525      214.1988
2013    8       1.34065191      211.0372625
2013    9       1.17100541      191.3926125
2013    10      1.56826792      210.9097
2013    11      2.28245987      262.632975
2013    12      2.37253962      266.724575
2013    13      2.37605725      263.6612625
2013    14      1.543601        225.261825
2013    15      1.97089712      249.103475
2013    16      1.76090112      241.036975
2013    17      2.00118825      250.70105
2013    18      2.830663        270.067275
2013    19      3.15385925      277.0590125
2013    20      3.302956        275.5624375
2013    21      2.47646525      265.006525
2013    22      2.73362188      268.2671375
2013    23      2.15000525      253.9128875
2013    24      2.038456        249.325
2013    25      2.38569038      261.410825
2013    26      3.281966        277.3104
2013    27      3.4650535       278.3238125
2013    28      3.83140225      282.32015
2013    29      1.55801075      225.0825
2013    30      1.32997576      207.0914
2013    31      2.00947238      244.657475
2014    1       1.89557538      241.9608375
2014    2       2.51229638      266.85
2014    3       1.562992        227.458725
2014    4       0.61422796      130.8730375
2014    5       0.44276894      105.50921
2014    6       0.61470584      128.981235
2014    7       1.18111981      189.9406875
2014    8       1.93296812      244.080775
2014    9       1.88675175      241.07175
2014    10      1.89264362      241.9009875
2014    11      1.7367045       236.7841125
2014    12      1.49111438      222.1038
2014    13      1.57420675      225.975225
2014    14      1.52997079      223.1550625
2014    15      1.54517638      224.3454125
2014    16      1.5318765       223.1624625
2014    17      1.56025862      227.3458125
2014    18      1.34183775      212.577625
2014    19      1.5188975       225.339225
2014    20      1.6891505       235.694875
2014    21      1.20235374      200.7895125
2014    22      1.898926        238.36195
2014    23      2.46750712      261.4176
2014    24      3.18521812      272.435675
2014    25      1.23895999      198.8541625
2014    26      1.3163155       210.2582125
2014    27      1.17653534      198.7354875
2014    28      1.15595819      196.326075
2014    29      1.16040739      195.147125
2014    30      1.03926325      183.3960875
2014    31      1.17661917      194.4636375
2015    1       2.316641        254.473175
2015    2       2.8660225       267.6174625
2015    3       2.26276738      257.2012
2015    4       2.62679338      266.9150875
2015    5       2.29693362      257.760125
2015    6       1.78688512      238.99525
2015    7       1.48484413      222.586075
2015    8       1.64652         229.4277
2015    9       2.06649775      249.6195125
2015    10      2.55464413      263.0086
2015    11      3.5183265       279.367725
2015    12      3.28059338      277.218975
2015    13      3.94820225      284.2444375
2015    14      2.05447962      246.40435
2015    15      1.11580787      195.14645
2015    16      0.77394066      156.2229125
2015    17      0.82935046      164.5599625
2015    18      0.72000114      147.6498625
2015    19      1.65679959      221.021275
2015    20      2.69440988      265.9715375
2015    21      2.76112638      265.8586
2015    22      2.69799938      264.07445
2015    23      2.60902012      259.7225125
2015    24      1.77533337      239.669675
2015    25      1.52830125      226.639975
2015    26      2.53751587      262.606475
2015    27      2.33072513      255.7516875
2015    28      1.70865325      232.188875
2015    29      1.09844604      190.70685
2015    30      1.02700567      183.73835
2015    31      0.76647532      154.2066875
2016    1       1.44141488      217.2667625
2016    5       2.70706788      263.142425
2016    6       1.74150738      233.9915
2016    7       1.27088438      205.6803625
2016    8       1.03749168      185.45395
2016    9       1.91784713      243.8693875
2016    10      1.72017275      235.5732625
2016    11      1.99360725      250.509575
2016    12      1.97679375      248.8717875
2016    13      2.14661438      256.3262625
2016    14      2.36866325      258.2526
2016    15      2.12582325      239.4060875
2016    16      1.3358095       209.9642
2016    17      1.33345963      210.167875
2016    18      1.36255462      213.1698125
2016    19      1.3224405       211.9940875
2016    20      1.43983475      218.89795
2016    21      2.69030438      267.3038375
2016    22      3.28152487      277.4539625
2016    23      2.11165988      247.41515
2016    24      2.08751275      250.2226625
2016    25      2.61083363      266.9659625
2016    26      2.37855112      259.1458125
2016    27      2.91467975      269.951275
2016    28      2.10454562      251.05305
2016    29      2.376013        245.5274875
2016    30      0.9617238       175.3939125
2016    31      0.96031359      177.812425
2017    1       3.25234675      280.08975
2017    2       2.4655645       258.0172
2017    3       1.36642821      213.988275
2017    4       1.52991388      224.1927
2017    5       1.8852195       244.4574
2017    6       2.13244725      252.7174125
2017    7       1.760801        238.2857625
2017    8       1.42441612      218.529575
2017    9       1.467186        222.50305
2017    10      1.9159825       247.703025
2017    11      2.64087638      270.5398375
2017    12      2.56713775      269.5661875
2017    13      2.85552438      274.57355
2017    14      3.01678862      268.165825
2017    15      2.33113112      262.7556625
2017    16      2.42120025      266.2187125
2017    17      2.03548975      255.2986
2017    18      2.82535362      273.8389375
2017    19      3.49504525      282.99635
2017    20      3.45540062      277.2629
2017    21      1.39649556      213.02975
2017    22      1.813791        244.1341875
2017    23      1.55961388      230.1182125
2017    24      2.613638        272.6562625
2017    25      3.5014375       282.2534375
2017    26      3.2032615       278.9033625
2017    27      3.11286588      277.7092
2017    28      2.46231875      263.968975
2017    29      1.97797375      250.219725
2017    30      1.63054675      234.0478625
2017    31      1.52882588      227.881925
2018    1       1.10081141      189.684425
2018    2       2.10048963      231.8353875
2018    3       1.52010934      218.4788
2018    4       1.74760675      235.5161375
2018    5       1.90305412      242.69595
2018    6       1.64506788      232.7141125
2018    7       1.63160563      234.4932875
2018    8       1.54466788      229.586425
2018    9       2.05907288      251.308425
2018    10      2.298794        259.8369125
2018    11      2.20168088      258.103
2018    12      2.11278175      255.9253625
2018    13      2.17166188      244.2983875
2018    14      0.91042405      166.81935
2018    15      0.93080258      171.186375
2018    16      0.73265498      147.9723125
2018    17      0.77401094      153.9629375
2018    18      0.65999709      139.321475
2018    19      0.72152974      148.0255
2018    20      0.76055566      153.220325
2018    21      1.30035998      204.6556
2018    22      1.62412225      231.5935625
2018    23      1.76320588      237.866225
2018    24      2.1748795       253.487825
2018    25      2.7773935       272.0480625
2018    26      2.35828338      262.1074875
2018    27      2.62669525      268.1568875
2018    28      2.54155187      264.8674375
2018    29      1.87987525      244.2922
2018    30      1.5743685       229.1517875
2018    31      2.447473        261.924475
2019    1       1.77671725      238.9616875
