####################################################################################################
# Month: 01Jan                                                                                     #
# Station: ATCA                                                                                    #
# Frequency: 345 GHz                                                                               #
# Columns are: year    day     segment         tau     Tb (K)                                      #
####################################################################################################
2009    1       0       2.984515        277.9591
2009    1       1       3.185905        282.008
2009    1       2       3.487532        284.579
2009    1       3       3.737919        283.8815
2009    1       4       3.947325        284.2418
2009    1       5       4.615169        286.0157
2009    1       6       4.862899        287.1615
2009    1       7       4.559419        286.5083
2009    2       0       5.382538        288.9638
2009    2       1       4.886305        290.7653
2009    2       2       4.347714        289.8707
2009    2       3       3.280537        280.5831
2009    2       4       2.150447        254.8044
2009    2       5       5.123617        288.504
2009    2       6       7.475762        288.9087
2009    2       7       6.497014        287.9462
2009    3       0       6.32061         290.503
2009    3       1       5.401431        291.8143
2009    3       2       5.004345        291.8593
2009    3       3       5.188464        291.409
2009    3       4       6.012513        290.3944
2009    3       5       5.820004        287.8269
2009    3       6       5.429821        286.7296
2009    3       7       5.478844        286.6705
2009    4       0       5.814998        290.1209
2009    4       1       5.564227        292.8241
2009    4       2       5.547597        294.0072
2009    4       3       5.692705        293.7583
2009    4       4       5.875905        292.6395
2009    4       5       5.71815         288.4751
2009    4       6       5.531445        288.2092
2009    4       7       5.100964        287.1314
2009    5       0       5.356904        289.5436
2009    5       1       5.414321        292.6072
2009    5       2       5.652564        294.7565
2009    5       3       5.657763        294.9988
2009    5       4       5.450098        294.1676
2009    5       5       5.588961        292.7961
2009    5       6       6.285388        290.8648
2009    5       7       6.59098         290.5088
2009    6       0       6.559392        292.4934
2009    6       1       5.249503        294.3582
2009    6       2       4.788425        294.4795
2009    6       3       4.85447         294.4851
2009    6       4       5.209601        294.8016
2009    6       5       5.675249        291.8746
2009    6       6       5.909649        291.0204
2009    6       7       5.981612        290.0616
2009    7       0       6.700118        291.6383
2009    7       1       6.352092        294.295
2009    7       2       6.598934        295.2004
2009    7       3       7.536978        294.9684
2009    7       4       8.190597        295.2581
2009    7       5       8.911907        294.7087
2009    7       6       9.670132        291.7104
2009    7       7       9.744647        290.5184
2009    8       0       9.558464        292.2013
2009    8       1       9.532451        293.6605
2009    8       2       9.048239        293.9033
2009    8       3       10.40466        292.5016
2009    8       4       9.034446        291.8182
2009    8       5       8.683353        291.3343
2009    8       6       7.070851        288.7681
2009    8       7       6.034214        287.2192
2009    9       0       6.172257        290.0565
2009    9       1       5.813504        291.8773
2009    9       2       5.016109        291.4312
2009    9       3       4.730376        289.8559
2009    9       4       5.67457         287.3216
2009    9       5       5.175587        283.9015
2009    9       6       4.637811        282.5746
2009    9       7       4.759898        283.0802
2009    10      0       5.522151        287.9101
2009    10      1       6.057831        291.4056
2009    10      2       6.434567        292.6615
2009    10      3       6.481612        292.3133
2009    10      4       7.153352        291.6609
2009    10      5       7.848375        287.3496
2009    10      6       7.283598        286.1857
2009    10      7       7.232148        285.621
2009    11      0       6.967022        287.7643
2009    11      1       6.734929        292.4366
2009    11      2       6.864059        293.5555
2009    11      3       7.56132         293.5205
2009    11      4       7.553385        293.0475
2009    11      5       8.209921        290.9418
2009    11      6       8.543899        289.2652
2009    11      7       8.75525         287.3533
2009    12      0       7.418405        289.3436
2009    12      1       5.959737        292.5525
2009    12      2       5.185231        292.8258
2009    12      3       4.654204        291.1684
2009    12      4       5.708903        292.0764
2009    12      5       6.632065        289.7633
2009    12      6       6.048376        289.1387
2009    12      7       5.374088        287.7928
2009    13      0       5.519577        290.2633
2009    13      1       5.040444        292.0342
2009    13      2       4.94024         292.3735
2009    13      3       4.788137        291.4275
2009    13      4       5.416947        290.7446
2009    13      5       5.696709        288.4071
2009    13      6       5.293186        287.0204
2009    13      7       4.995817        286.1272
2009    14      0       5.215538        288.9067
2009    14      1       4.751861        291.3306
2009    14      2       4.861648        292.8338
2009    14      3       5.047305        292.846
2009    14      4       4.872926        291.6648
2009    14      5       4.781716        289.2428
2009    14      6       4.687013        286.7213
2009    14      7       5.675163        286.927
2009    15      0       5.795517        289.6868
2009    15      1       5.302897        292.7947
2009    15      2       5.275117        294.2224
2009    15      3       5.484347        294.2696
2009    15      4       5.453872        293.878
2009    15      5       5.295157        293.1106
2009    15      6       5.280045        292.705
2009    15      7       5.609134        292.2828
2009    16      0       6.124411        293.6036
2009    16      1       5.832387        295.9212
2009    16      2       4.842468        295.0051
2009    16      3       3.27361         283.7852
2009    16      4       1.535762        228.2714
2009    16      5       1.843348        243.6257
2009    16      6       2.841989        272.2349
2009    16      7       3.785332        282.2947
2009    17      0       3.769071        283.1753
2009    17      1       3.399367        281.8031
2009    17      2       3.313786        282.0061
2009    17      3       3.893334        285.3579
2009    17      4       5.018747        286.8005
2009    17      5       5.816145        285.2052
2009    17      6       5.098313        283.2823
2009    17      7       5.293062        283.3986
2009    18      0       5.828262        287.3895
2009    18      1       5.731432        290.1683
2009    18      2       5.311157        291.4369
2009    18      3       5.140283        291.2898
2009    18      4       5.03382         290.996
2009    18      5       5.663596        290.3116
2009    18      6       6.240548        287.4514
2009    18      7       6.27735         286.1855
2009    19      0       6.509701        286.8719
2009    19      1       6.907133        288.7915
2009    19      2       7.492885        290.1196
2009    19      3       8.001992        290.7708
2009    19      4       7.909929        291.3353
2009    19      5       7.795856        291.2534
2009    19      6       6.891295        288.1051
2009    19      7       6.725604        287.8161
2009    20      0       7.118426        289.8721
2009    20      1       7.300236        292.8189
2009    20      2       7.394571        294.1392
2009    20      3       7.225943        293.9186
2009    20      4       7.432055        293.4617
2009    20      5       8.388725        292.5055
2009    20      6       8.86762         291.84
2009    20      7       9.234185        290.4565
2009    21      0       9.540126        291.7396
2009    21      1       8.682813        293.3559
2009    21      2       8.534609        293.5741
2009    21      3       8.792998        292.876
2009    21      4       8.841053        292.5
2009    21      5       9.369366        291.5765
2009    21      6       12.11907        290.84
2009    21      7       12.28792        290.2507
2009    22      0       13.09383        290.3224
2009    22      1       12.88155        290.9301
2009    22      2       11.9856         290.6583
2009    22      3       10.29637        290.9683
2009    22      4       9.017769        290.8105
2009    22      5       8.641523        290.8794
2009    22      6       8.859692        291.4379
2009    22      7       9.313589        291.5247
2009    23      0       10.19756        292.9982
2009    23      1       10.05171        295.7665
2009    23      2       10.85205        297.5032
2009    23      3       11.89229        297.0943
2009    23      4       11.78064        296.571
2009    23      5       11.47327        295.9334
2009    23      6       10.96815        294.9692
2009    23      7       10.80909        294.4812
2009    24      0       10.62927        296.1544
2009    24      1       10.69648        297.6008
2009    24      2       10.45091        298.9851
2009    24      3       9.917618        299.1349
2009    24      4       9.159787        298.4369
2009    24      5       8.147772        296.6968
2009    24      6       8.463142        296.0191
2009    24      7       10.5294         295.861
2009    25      0       11.82465        295.3181
2009    25      1       10.59878        296.2207
2009    25      2       8.659849        297.1507
2009    25      3       7.727976        296.7754
2009    25      4       7.93068         295.289
2009    25      5       9.235794        293.6579
2009    25      6       9.067751        292.4849
2009    25      7       9.294977        291.5775
2009    26      0       8.828035        293.4446
2009    26      1       7.837844        295.5821
2009    26      2       7.10312         296.6761
2009    26      3       6.33366         295.9875
2009    26      4       7.548689        294.2904
2009    26      5       8.017922        291.452
2009    26      6       7.418136        290.0444
2009    26      7       6.904868        289.1512
2009    27      0       6.19241         291.3824
2009    27      1       5.567455        293.2357
2009    27      2       5.991489        294.6815
2009    27      3       6.785223        294.7703
2009    27      4       7.45978         292.7585
2009    27      5       7.521421        290.6352
2009    27      6       7.128305        290.0372
2009    27      7       7.266852        289.6959
2009    28      0       6.22056         291.5776
2009    28      1       4.592967        291.1931
2009    28      2       3.705645        287.4516
2009    28      3       3.817835        287.8303
2009    28      4       6.08238         291.5525
2009    28      5       6.266211        289.3836
2009    28      6       5.380118        287.6019
2009    28      7       6.007297        287.7022
2009    29      0       5.809462        290.0831
2009    29      1       4.278243        289.7842
2009    29      2       3.370428        284.6769
2009    29      3       3.436902        284.5715
2009    29      4       5.89176         291.669
2009    29      5       6.575458        289.387
2009    29      6       5.726784        287.9106
2009    29      7       4.986206        285.8739
2009    30      0       4.686437        287.6327
2009    30      1       3.594353        285.4059
2009    30      2       3.49246         286.055
2009    30      3       4.227634        290.2653
2009    30      4       6.218467        292.1534
2009    30      5       7.212602        290.1366
2009    30      6       7.612298        289.5854
2009    30      7       8.472958        288.9146
2009    31      0       7.544981        291.4169
2009    31      1       6.160618        293.6596
2009    31      2       5.115555        293.79
2009    31      3       4.695911        292.7632
2009    31      4       6.070918        293.8457
2009    31      5       8.330081        291.3707
2009    31      6       8.161348        290.6551
2009    31      7       8.044071        290.0499
2010    1       0       11.9131         288.9265
2010    1       1       11.85713        290.0514
2010    1       2       11.58269        290.5316
2010    1       3       11.54722        290.3672
2010    1       4       11.5682         290.3345
2010    1       5       11.81962        290.2715
2010    1       6       12.28329        290.3206
2010    1       7       13.2376         290.4692
2010    2       0       13.77935        291.252
2010    2       1       12.2249         294.4722
2010    2       2       12.56461        295.2262
2010    2       3       11.86474        294.5631
2010    2       4       10.96113        294.0781
2010    2       5       10.32029        293.4197
2010    2       6       10.03328        292.7624
2010    2       7       10.12196        291.7868
2010    3       0       10.17153        292.9217
2010    3       1       9.66763         294.0613
2010    3       2       8.506852        293.9857
2010    3       3       7.604661        293.3271
2010    3       4       7.608464        292.6039
2010    3       5       7.839864        290.8451
2010    3       6       7.030418        289.5203
2010    3       7       6.697609        289.4786
2010    4       0       7.379302        291.8899
2010    4       1       7.539558        293.7927
2010    4       2       7.374543        294.5097
2010    4       3       7.340391        294.1034
2010    4       4       8.103315        292.9119
2010    4       5       8.244145        290.1041
2010    4       6       7.493887        289.7701
2010    4       7       7.149727        290.1515
2010    5       0       7.505657        290.8913
2010    5       1       7.770131        292.8087
2010    5       2       7.460745        293.4956
2010    5       3       7.528388        293.2543
2010    5       4       7.741314        293.1639
2010    5       5       7.594206        291.7674
2010    5       6       8.150328        290.137
2010    5       7       8.955755        289.4068
2010    6       0       10.06278        291.3275
2010    6       1       10.76284        292.918
2010    6       2       10.66159        293.9463
2010    6       3       10.70573        293.7898
2010    6       4       10.2105         293.5887
2010    6       5       9.865461        293.4401
2010    6       6       10.18142        292.9165
2010    6       7       11.0964         291.8455
2010    7       0       11.45156        292.0883
2010    7       1       10.29188        291.9083
2010    7       2       9.223698        292.1691
2010    7       3       8.721772        291.8908
2010    7       4       9.920677        291.0783
2010    7       5       10.9404         289.4949
2010    7       6       8.787605        289.5799
2010    7       7       7.481202        289.4629
2010    8       0       7.01876         291.1537
2010    8       1       6.725806        292.929
2010    8       2       6.599831        293.8417
2010    8       3       6.40867         293.6223
2010    8       4       7.593053        292.6952
2010    8       5       7.172789        290.2617
2010    8       6       6.393818        288.9697
2010    8       7       6.062709        288.3224
2010    9       0       5.936436        290.4386
2010    9       1       5.248657        291.8177
2010    9       2       5.453407        293.1893
2010    9       3       5.763937        293.4913
2010    9       4       5.987117        293.6768
2010    9       5       6.051778        293.2718
2010    9       6       6.336478        292.3164
2010    9       7       6.511478        291.6532
2010    10      0       6.754184        293.4049
2010    10      1       6.925231        295.9162
2010    10      2       7.118902        296.9087
2010    10      3       6.745211        296.7615
2010    10      4       6.607426        296.0834
2010    10      5       6.037441        293.3911
2010    10      6       5.741714        292.0182
2010    10      7       5.712226        290.2266
2010    11      0       6.265144        291.7227
2010    11      1       5.882636        294.5418
2010    11      2       5.916251        295.7922
2010    11      3       6.565246        296.1434
2010    11      4       6.843362        296.3458
2010    11      5       7.302955        294.5225
2010    11      6       7.652239        292.1
2010    11      7       8.131998        291.296
2010    12      0       7.971009        293.2583
2010    12      1       7.247912        296.1701
2010    12      2       6.833438        297.3599
2010    12      3       6.865785        297.0608
2010    12      4       6.765076        296.6393
2010    12      5       6.919429        295.9051
2010    12      6       7.001599        294.0613
2010    12      7       7.059109        292.9975
2010    13      0       7.545118        294.75
2010    13      1       6.485771        296.8814
2010    13      2       6.532406        297.5143
2010    13      3       6.622208        297.0961
2010    13      4       6.809057        296.8646
2010    13      5       7.19048         296.5477
2010    13      6       8.001103        295.1162
2010    13      7       9.366982        292.8723
2010    14      0       10.06415        293.6073
2010    14      1       9.419284        295.4648
2010    14      2       9.260939        296.7445
2010    14      3       10.0033         295.9489
2010    14      4       11.32529        294.0696
2010    14      5       11.27636        290.9198
2010    14      6       9.623367        289.7049
2010    14      7       9.189977        289.3656
2010    15      0       9.158402        290.3391
2010    15      1       9.006694        292.6697
2010    15      2       9.043353        293.816
2010    15      3       8.79302         293.3957
2010    15      4       8.265804        293.3722
2010    15      5       8.299119        292.6842
2010    15      6       8.201469        289.5582
2010    15      7       8.398115        288.2162
2010    16      0       7.926669        290.7621
2010    16      1       7.915793        293.4884
2010    16      2       8.107132        294.5439
2010    16      3       8.545586        294.2466
2010    16      4       8.646371        293.5481
2010    16      5       8.219895        292.8067
2010    16      6       7.591236        292.0942
2010    16      7       7.818802        291.3799
2010    17      0       8.836813        292.7838
2010    17      1       7.986961        294.4999
2010    17      2       7.258023        295.5001
2010    17      3       6.679974        294.0176
2010    17      4       4.320936        286.4151
2010    17      5       3.016739        272.0392
2010    17      6       2.742837        266.437
2010    17      7       2.63271         263.925
2010    18      0       2.830524        269.1566
2010    18      1       2.879632        271.7201
2010    18      2       3.140464        275.1361
2010    18      3       2.796211        267.7745
2010    18      4       2.280306        254.3337
2010    18      5       2.235452        252.9529
2010    18      6       2.410222        258.2784
2010    18      7       2.726981        264.9809
2010    19      0       2.713217        265.9962
2010    19      1       2.792437        269.5747
2010    19      2       2.858135        271.5019
2010    19      3       2.763357        269.1154
2010    19      4       2.445867        261.9764
2010    19      5       2.100435        251.7054
2010    19      6       2.05222         249.7538
2010    19      7       2.309886        257.941
2010    20      0       2.683327        267.8432
2010    20      1       2.703351        270.4312
2010    20      2       2.891264        275.05
2010    20      3       3.281056        279.9883
2010    20      4       8.672159        294.5786
2010    20      5       3.197796        278.3897
2010    20      6       3.052621        276.196
2010    20      7       2.965003        274.7092
2010    21      0       3.472865        282.1597
2010    21      1       3.894578        287.8236
2010    21      2       3.909852        288.894
2010    21      3       3.876619        288.9144
2010    21      4       3.962609        288.7878
2010    21      5       4.180793        289.1426
2010    21      6       4.751485        290.2203
2010    21      7       5.538809        290.6541
2010    22      0       6.075169        292.7978
2010    22      1       5.648986        295.3066
2010    22      2       5.163934        295.1634
2010    22      3       5.029071        294.1378
2010    22      4       4.687226        292.1091
2010    22      5       4.248208        289.4226
2010    22      6       5.411372        292.135
2010    22      7       6.069304        291.9626
2010    23      0       6.120456        293.5017
2010    23      1       5.116344        294.6782
2010    23      2       4.548905        294.2049
2010    23      3       4.524306        293.5756
2010    23      4       4.539706        293.2256
2010    23      5       4.426813        292.2521
2010    23      6       5.100513        292.1578
2010    23      7       6.136068        292.1259
2010    24      0       6.34913         293.2253
2010    24      1       5.396379        294.954
2010    24      2       4.801488        294.4165
2010    24      3       4.528211        292.999
2010    24      4       4.270789        291.4109
2010    24      5       5.613109        293.0761
2010    24      6       6.471713        292.5145
2010    24      7       5.793471        290.5805
2010    25      0       5.676857        291.5347
2010    25      1       4.557307        292.166
2010    25      2       4.373518        292.4605
2010    25      3       4.349113        291.8629
2010    25      4       4.211502        290.9405
2010    25      5       4.854573        292.4169
2010    25      6       6.329288        293.3354
2010    25      7       6.718939        292.3507
2010    26      0       6.521426        293.6162
2010    26      1       4.858974        293.7121
2010    26      2       4.182708        291.9153
2010    26      3       4.068169        290.7158
2010    26      4       4.085464        290.1395
2010    26      5       4.288157        290.4285
2010    26      6       4.778217        291.1381
2010    26      7       6.198329        291.002
2010    27      0       6.495538        293.2524
2010    27      1       6.461276        295.626
2010    27      2       6.261074        296.2656
2010    27      3       5.946023        295.6827
2010    27      4       5.587835        294.7992
2010    27      5       5.639201        293.4961
2010    27      6       8.762329        292.7913
2010    27      7       8.880402        292.3266
2010    28      0       7.529663        294.4225
2010    28      1       6.310194        296.1464
2010    28      2       6.501992        297.2871
2010    28      3       7.26648         297.6049
2010    28      4       8.767469        296.1096
2010    28      5       10.7498         290.4622
2010    28      6       10.1078         290.7772
2010    28      7       8.77443         291.7359
2010    29      0       7.903427        293.1999
2010    29      1       7.808378        294.4065
2010    29      2       7.294131        294.8501
2010    29      3       6.859735        294.0833
2010    29      4       6.536007        293.1761
2010    29      5       6.767486        292.4736
2010    29      6       7.425367        290.9106
2010    29      7       6.070805        288.9214
2010    30      0       5.89336         290.7113
2010    30      1       5.311061        292.37
2010    30      2       5.193919        293.2289
2010    30      3       6.516801        293.5793
2010    30      4       6.997282        290.7651
2010    30      5       6.158284        288.5084
2010    30      6       6.559718        288.6828
2010    30      7       6.934858        289.2449
2010    31      0       6.993632        292.1769
2010    31      1       8.130432        294.723
2010    31      2       9.777432        294.3881
2010    31      3       9.536777        292.9588
2010    31      4       8.360326        290.1035
2010    31      5       7.413888        288.895
2010    31      6       7.306559        288.3855
2010    31      7       7.643857        288.0549
2011    1       0       4.765579        288.7206
2011    1       1       3.835213        287.854
2011    1       2       3.772878        288.8253
2011    1       3       4.282992        291.4292
2011    1       4       5.061325        293.2157
2011    1       5       7.371735        293.0306
2011    1       6       9.183994        291.767
2011    1       7       9.347476        291.1572
2011    2       0       8.622507        293.2277
2011    2       1       8.155638        294.9918
2011    2       2       8.378146        295.3479
2011    2       3       8.183363        294.9447
2011    2       4       7.992454        294.5857
2011    2       5       8.074531        293.8502
2011    2       6       8.375135        293.1579
2011    2       7       8.743971        292.464
2011    3       0       8.913184        293.9799
2011    3       1       8.846138        295.6758
2011    3       2       8.243497        296.1913
2011    3       3       7.657822        295.8206
2011    3       4       8.775877        294.0712
2011    3       5       9.917421        292.3605
2011    3       6       10.42353        291.1852
2011    3       7       9.830549        290.0936
2011    4       0       8.631741        291.8755
2011    4       1       7.689833        293.3398
2011    4       2       7.217548        293.9327
2011    4       3       7.111793        292.9994
2011    4       4       6.864736        292.3914
2011    4       5       7.103173        292.4682
2011    4       6       7.930787        291.8541
2011    4       7       9.735503        290.3582
2011    5       0       10.97283        290.4822
2011    5       1       10.93525        291.3848
2011    5       2       11.40466        289.6907
2011    5       3       10.56252        289.0876
2011    5       4       8.810712        288.5578
2011    5       5       7.780817        287.6914
2011    5       6       7.521857        287.3469
2011    5       7       7.896845        286.6983
2011    6       0       7.320307        287.6799
2011    6       1       6.744964        288.849
2011    6       2       6.675338        289.4804
2011    6       3       6.249202        287.8097
2011    6       4       6.245724        285.079
2011    6       5       6.69459         284.7883
2011    6       6       7.141658        286.4265
2011    6       7       7.098123        288.361
2011    7       0       7.290135        290.6202
2011    7       1       7.562731        292.7396
2011    7       2       8.791673        293.167
2011    7       3       9.11602         292.0196
2011    7       4       8.182172        290.3811
2011    7       5       6.752105        288.0585
2011    7       6       6.829599        287.7859
2011    7       7       7.650347        288.0854
2011    8       0       7.038968        291.0189
2011    8       1       6.506741        293.5369
2011    8       2       7.156024        294.8774
2011    8       3       7.528569        294.562
2011    8       4       8.920161        292.1664
2011    8       5       10.39228        291.4617
2011    8       6       10.27513        290.3258
2011    8       7       10.25728        290.4772
2011    9       0       10.33632        293.3211
2011    9       1       8.956101        295.2774
2011    9       2       7.663101        296.1933
2011    9       3       8.366524        293.6367
2011    9       4       9.098454        291.3491
2011    9       5       9.904095        289.9655
2011    9       6       10.11056        289.9816
2011    9       7       11.45284        290.7918
2011    10      0       11.28321        292.9325
2011    10      1       11.3029         294.044
2011    10      2       12.74408        294.2905
2011    10      3       13.17495        291.7596
2011    10      4       12.58116        292.6029
2011    10      5       11.69658        292.371
2011    10      6       11.1231         292.384
2011    10      7       11.9178         292.1751
2011    11      0       12.9578         292.3461
2011    11      1       11.83001        294.985
2011    11      2       12.91638        294.8769
2011    11      3       13.16875        293.5391
2011    11      4       11.54154        292.0483
2011    11      5       11.02906        291.14
2011    11      6       10.45262        290.9124
2011    11      7       10.19221        290.7119
2011    12      0       10.39316        293.2719
2011    12      1       10.43753        295.7204
2011    12      2       10.81535        296.5084
2011    12      3       11.67489        295.5689
2011    12      4       11.80582        293.0097
2011    12      5       10.52082        291.1022
2011    12      6       10.30322        290.2048
2011    12      7       10.37562        289.9311
2011    13      0       9.830876        291.1209
2011    13      1       8.732372        293.6649
2011    13      2       8.388345        295.2345
2011    13      3       9.060962        294.3664
2011    13      4       8.744006        290.678
2011    13      5       8.085964        288.881
2011    13      6       7.934441        288.0413
2011    13      7       8.160406        287.8589
2011    14      0       7.427237        290.6462
2011    14      1       6.612623        293.6952
2011    14      2       6.566883        295.4883
2011    14      3       6.937364        295.3362
2011    14      4       8.225469        294.5576
2011    14      5       10.34638        291.1292
2011    14      6       9.774269        289.8225
2011    14      7       9.935           289.6047
2011    15      0       9.971374        292.5969
2011    15      1       9.813332        295.6212
2011    15      2       10.45735        296.1283
2011    15      3       10.73017        295.3784
2011    15      4       10.26244        294.9444
2011    15      5       10.22584        294.0592
2011    15      6       10.49948        291.7626
2011    15      7       10.21329        290.509
2011    16      0       9.187872        293.7297
2011    16      1       8.418133        296.8223
2011    16      2       8.416362        297.9777
2011    16      3       8.669961        297.2108
2011    16      4       8.69948         295.4447
2011    16      5       9.570484        293.3634
2011    16      6       10.01312        291.6519
2011    16      7       10.07417        291.2757
2011    17      0       8.541551        295.3382
2011    17      1       7.856612        297.5726
2011    17      2       7.874094        298.2962
2011    17      3       7.259932        297.7211
2011    17      4       6.063556        295.6184
2011    17      5       4.158808        288.64
2011    17      6       4.226573        288.3415
2011    17      7       4.870112        290.7772
2011    18      0       4.91437         292.9126
2011    18      1       4.069391        290.9297
2011    18      2       2.989444        280.0918
2011    18      3       2.638755        272.1919
2011    18      4       2.551323        269.2984
2011    18      5       2.550874        268.6027
2011    18      6       2.698175        271.0092
2011    18      7       3.017795        276.006
2011    19      0       3.880064        285.7786
2011    19      1       3.741236        286.2478
2011    19      2       3.743252        286.8449
2011    19      3       4.356611        289.7163
2011    19      4       4.43781         289.8109
2011    19      5       4.549231        289.6124
2011    19      6       5.469501        290.68
2011    19      7       8.127775        290.5966
2011    20      0       7.718806        292.2218
2011    20      1       6.877153        293.718
2011    20      2       6.481343        294.0389
2011    20      3       6.479506        293.3211
2011    20      4       7.688643        291.0616
2011    20      5       6.84574         288.4704
2011    20      6       6.19098         287.0471
2011    20      7       5.920161        286.283
2011    21      0       5.415315        288.8389
2011    21      1       4.868082        290.496
2011    21      2       4.643834        290.5934
2011    21      3       4.292108        288.8234
2011    21      4       5.173837        290.2302
2011    21      5       6.058801        289.394
2011    21      6       6.113133        288.122
2011    21      7       6.375294        286.6157
2011    22      0       5.448136        288.8673
2011    22      1       4.103277        286.9089
2011    22      2       3.350552        281.4528
2011    22      3       3.813096        285.0425
2011    22      4       5.45016         288.4003
2011    22      5       6.001231        287.0125
2011    22      6       6.501226        285.4511
2011    22      7       6.830752        284.9706
2011    23      0       6.087599        287.8572
2011    23      1       5.032437        289.5271
2011    23      2       4.86279         290.2703
2011    23      3       4.589411        289.3375
2011    23      4       4.247357        286.9315
2011    23      5       6.327319        287.0234
2011    23      6       6.068809        287.172
2011    23      7       6.298311        287.7486
2011    24      0       7.399919        289.8939
2011    24      1       6.560118        292.9268
2011    24      2       7.037819        295.6451
2011    24      3       7.272987        296.2042
2011    24      4       7.055625        295.2756
2011    24      5       6.915566        293.9555
2011    24      6       6.921944        293.2138
2011    24      7       7.158105        292.8263
2011    25      0       7.679976        294.594
2011    25      1       7.187915        297.8248
2011    25      2       6.528949        298.8085
2011    25      3       6.168759        298.6076
2011    25      4       6.30671         298.4223
2011    25      5       7.259605        297.6137
2011    25      6       8.091436        296.2433
2011    25      7       8.717824        295.1624
2011    26      0       8.841797        297.4277
2011    26      1       7.402881        300.7982
2011    26      2       7.027837        301.9822
2011    26      3       7.609399        302.0201
2011    26      4       8.806744        300.2461
2011    26      5       10.38661        296.4365
2011    26      6       8.775758        295.0846
2011    26      7       7.2519          293.3976
2011    27      0       8.036378        294.4746
2011    27      1       8.396882        299.0029
2011    27      2       8.430794        301.5711
2011    27      3       8.622821        302.0886
2011    27      4       5.350497        297.113
2011    27      5       5.782109        295.7287
2011    27      6       7.624128        296.3476
2011    27      7       8.379031        295.0863
2011    28      0       7.350839        296.3964
2011    28      1       5.262593        296.6151
2011    28      2       4.041181        291.8826
2011    28      3       4.670631        293.1196
2011    28      4       7.423913        291.9608
2011    28      5       6.202191        288.2101
2011    28      6       5.204415        285.7253
2011    28      7       5.303978        285.2079
2011    29      0       4.540227        286.5763
2011    29      1       3.425314        282.3751
2011    29      2       2.863785        276.246
2011    29      3       3.069233        279.4329
2011    29      4       5.187789        288.1913
2011    29      5       5.056099        286.0971
2011    29      6       4.339728        284.518
2011    29      7       4.846325        285.932
2011    30      0       4.560458        287.2419
2011    30      1       3.812267        287.096
2011    30      2       3.586471        287.1158
2011    30      3       3.695482        287.7739
2011    30      4       3.76833         287.64
2011    30      5       4.924382        291.0096
2011    30      6       6.576968        290.2294
2011    30      7       6.587146        289.3439
2011    31      0       5.660188        291.1232
2011    31      1       4.109224        290.5805
2011    31      2       3.442837        287.0792
2011    31      3       3.401244        286.0172
2011    31      4       3.65182         287.4998
2011    31      5       6.563343        294.2361
2011    31      6       10.26976        292.5329
2011    31      7       11.47816        291.6183
2012    1       0       4.79285         285.2082
2012    1       1       3.988678        284.2717
2012    1       2       3.290542        279.6451
2012    1       3       2.575328        267.9516
2012    1       4       2.556855        267.4234
2012    1       5       3.233909        278.1925
2012    1       6       4.751039        285.014
2012    1       7       5.556154        284.7747
2012    2       0       5.668326        287.0753
2012    2       1       4.779696        288.6724
2012    2       2       4.400868        288.8885
2012    2       3       4.254167        288.2061
2012    2       4       4.322049        288.1013
2012    2       5       5.125251        288.2938
2012    2       6       6.021473        286.9786
2012    2       7       6.212237        286.0468
2012    3       0       6.600713        287.9824
2012    3       1       5.893489        290.8851
2012    3       2       5.302626        291.831
2012    3       3       5.130584        291.5677
2012    3       4       5.097909        291.1415
2012    3       5       5.255652        290.9289
2012    3       6       5.353303        290.0731
2012    3       7       5.362481        289.0781
2012    4       0       6.20665         290.0517
2012    4       1       6.351453        293.0305
2012    4       2       6.907891        294.8734
2012    4       3       7.043402        295.2398
2012    4       4       6.893638        294.7301
2012    4       5       7.418872        293.7288
2012    4       6       7.885532        292.0544
2012    4       7       8.015372        291.5526
2012    5       0       8.64001         292.1388
2012    5       1       8.161995        294.0786
2012    5       2       8.339871        294.5773
2012    5       3       8.267778        294.5493
2012    5       4       8.085898        293.6661
2012    5       5       8.459864        292.4603
2012    5       6       9.027526        290.1087
2012    5       7       9.473099        288.5603
2012    6       0       9.707157        288.9158
2012    6       1       7.188179        291.9354
2012    6       2       5.417947        292.0467
2012    6       3       4.793868        290.3916
2012    6       4       4.959888        290.5403
2012    6       5       5.25071         290.9003
2012    6       6       7.076485        290.0213
2012    6       7       7.582174        288.684
2012    7       0       8.273221        289.839
2012    7       1       8.592062        292.6414
2012    7       2       8.563376        294.2438
2012    7       3       8.320928        294.5709
2012    7       4       7.985171        294.5935
2012    7       5       7.591555        294.7968
2012    7       6       7.84256         293.0634
2012    7       7       8.59619         291.1953
2012    8       0       9.653638        292.8039
2012    8       1       9.685957        296.6514
2012    8       2       9.981229        298.8292
2012    8       3       11.01682        299.3798
2012    8       4       10.69617        297.8625
2012    8       5       9.532855        294.4694
2012    8       6       10.44868        293.3438
2012    8       7       8.969985        292.5566
2012    9       0       8.620344        292.3213
2012    9       1       7.256533        294.2764
2012    9       2       5.536304        293.1761
2012    9       3       5.101569        290.4114
2012    9       4       3.820791        283.6695
2012    9       5       3.356929        277.7571
2012    9       6       3.484702        277.5742
2012    9       7       3.570948        277.699
2012    10      0       4.022566        281.9178
2012    10      1       3.973142        282.8986
2012    10      2       4.159045        284.4379
2012    10      3       4.355566        284.805
2012    10      4       4.306503        284.2652
2012    10      5       4.503367        283.8368
2012    10      6       4.8256          284.3513
2012    10      7       5.182105        284.9483
2012    11      0       4.771477        285.5737
2012    11      1       4.098603        285.2677
2012    11      2       3.422754        280.3477
2012    11      3       2.693945        268.0891
2012    11      4       3.007099        271.4598
2012    11      5       2.648388        263.2468
2012    11      6       2.498175        258.6684
2012    11      7       2.424682        256.9643
2012    12      0       2.32155         256.0823
2012    12      1       2.266159        256.2913
2012    12      2       2.334928        258.8434
2012    12      3       2.35198         258.9387
2012    12      4       2.279027        256.5767
2012    12      5       2.248847        255.623
2012    12      6       3.299073        275.2002
2012    12      7       4.984071        282.7007
2012    13      0       4.958659        284.6542
2012    13      1       4.442018        285.4908
2012    13      2       4.420109        286.4291
2012    13      3       4.587383        286.6712
2012    13      4       4.837111        287.0502
2012    13      5       4.89747         286.9037
2012    13      6       6.702433        286.5407
2012    13      7       7.40546         286.2462
2012    14      0       7.947908        287.4199
2012    14      1       7.794571        288.596
2012    14      2       7.180153        288.696
2012    14      3       6.815764        288.4017
2012    14      4       6.793137        287.671
2012    14      5       8.243639        285.9048
2012    14      6       8.337027        284.1714
2012    14      7       7.486827        283.1844
2012    15      0       7.235693        283.5528
2012    15      1       6.780686        285.4437
2012    15      2       7.293204        286.3219
2012    15      3       7.721062        285.8452
2012    15      4       6.619342        284.8762
2012    15      5       6.742999        284.8148
2012    15      6       6.781109        284.6419
2012    15      7       6.808161        284.729
2012    16      0       6.766794        286.3527
2012    16      1       6.719777        288.6394
2012    16      2       7.486818        289.4216
2012    16      3       7.348427        288.7289
2012    16      4       6.883591        286.0837
2012    16      5       6.50533         285.037
2012    16      6       5.218144        283.9185
2012    16      7       5.010869        284.0383
2012    17      0       5.758657        287.0147
2012    17      1       5.467667        289.3686
2012    17      2       6.028585        291.026
2012    17      3       7.073046        290.5037
2012    17      4       8.031394        288.6705
2012    17      5       6.93047         288.0207
2012    17      6       6.873219        287.2556
2012    17      7       6.76097         286.8884
2012    18      0       6.666198        288.9165
2012    18      1       6.030103        291.4845
2012    18      2       5.50251         292.6274
2012    18      3       5.446619        292.759
2012    18      4       6.070959        292.9062
2012    18      5       6.322925        291.8741
2012    18      6       4.46042         287.654
2012    18      7       3.874707        283.7316
2012    19      0       5.440214        289.915
2012    19      1       5.519269        291.9798
2012    19      2       5.731645        293.4118
2012    19      3       6.008129        293.4417
2012    19      4       7.207114        292.3094
2012    19      5       7.386545        290.5727
2012    19      6       6.4649          289.0058
2012    19      7       6.609673        287.9038
2012    20      0       6.296877        289.813
2012    20      1       5.114011        290.4531
2012    20      2       4.78757         290.6172
2012    20      3       5.023727        291.0521
2012    20      4       5.344091        290.7502
2012    20      5       6.576705        289.6627
2012    20      6       6.730024        289.0829
2012    20      7       6.929355        288.3128
2012    21      0       6.576834        289.1244
2012    21      1       6.035874        289.4417
2012    21      2       6.53889         289.8739
2012    21      3       6.134901        289.5038
2012    21      4       6.543672        288.8935
2012    21      5       6.644384        288.1018
2012    21      6       5.030016        283.8985
2012    21      7       5.301363        283.8912
2012    22      0       5.367451        286.2055
2012    22      1       4.854486        288.068
2012    22      2       5.343463        290.2365
2012    22      3       6.776454        290.7919
2012    22      4       7.172184        287.8801
2012    22      5       6.779871        286.9231
2012    22      6       7.031719        286.209
2012    22      7       6.998224        286.3672
2012    23      0       6.952059        288.383
2012    23      1       7.193499        290.5475
2012    23      2       7.713545        290.7501
2012    23      3       7.984179        289.5567
2012    23      4       8.069646        287.8679
2012    23      5       8.587712        287.8349
2012    23      6       8.182517        287.9241
2012    23      7       8.165614        287.9331
2012    24      0       8.309464        288.9869
2012    24      1       8.51609         289.4376
2012    24      2       8.790626        288.5549
2012    24      3       8.053951        288.0735
2012    24      4       8.301095        287.4856
2012    24      5       8.542022        287.6794
2012    24      6       9.088408        288.1737
2012    24      7       10.67982        288.8643
2012    25      0       10.63745        289.6536
2012    25      1       10.11214        292.1654
2012    25      2       9.140629        292.7455
2012    25      3       8.467924        291.3986
2012    25      4       8.428605        290.2858
2012    25      5       9.962549        290.329
2012    25      6       10.51711        290.2688
2012    25      7       10.4849         290.1186
2012    26      0       9.73535         291.6135
2012    26      1       9.003341        293.7723
2012    26      2       9.004056        294.756
2012    26      3       8.597772        292.6284
2012    26      4       9.076335        292.5005
2012    26      5       10.44121        291.9629
2012    26      6       9.571758        290.6795
2012    26      7       9.059223        289.8714
2012    27      0       9.677818        290.622
2012    27      1       10.1356         291.1209
2012    27      2       10.61683        291.2983
2012    27      3       9.911288        291.1605
2012    27      4       9.216193        289.5747
2012    27      5       9.420407        289.3118
2012    27      6       9.388254        288.7498
2012    27      7       9.290833        288.6993
2012    28      0       9.690726        289.0838
2012    28      1       10.34667        290.4884
2012    28      2       11.0667         290.0896
2012    28      3       10.96277        289.7041
2012    28      4       10.17278        289.1481
2012    28      5       9.391404        288.826
2012    28      6       9.200569        288.9606
2012    28      7       9.20347         288.7968
2012    29      0       10.29518        289.5829
2012    29      1       11.19928        289.7924
2012    29      2       12.34837        290.3441
2012    29      3       11.28006        290.3032
2012    29      4       11.03796        289.6471
2012    29      5       11.08273        289.5577
2012    29      6       10.68591        289.7695
2012    29      7       9.768093        290.0904
2012    30      0       11.13847        291.4629
2012    30      1       12.93449        293.7757
2012    30      2       12.79522        294.2324
2012    30      3       10.72928        293.6556
2012    30      4       9.455433        293.6689
2012    30      5       10.07744        293.6791
2012    30      6       11.43331        293.103
2012    30      7       13.72349        292.4376
2012    31      0       14.57231        292.1781
2012    31      1       13.72482        293.7842
2012    31      2       14.97526        292.9829
2012    31      3       14.40458        292.3516
2012    31      4       12.18986        291.421
2012    31      5       10.76482        290.157
2012    31      6       10.7756         290.0538
2012    31      7       12.27946        290.7964
2013    1       0       6.265035        290.698
2013    1       1       5.6604          293.7039
2013    1       2       5.549137        294.8574
2013    1       3       5.897345        295.0098
2013    1       4       5.714344        294.16
2013    1       5       5.983413        293.049
2013    1       6       6.064507        292.1894
2013    1       7       5.876298        291.7916
2013    2       0       5.77298         293.8235
2013    2       1       4.441049        293.2843
2013    2       2       3.595355        288.7026
2013    2       3       3.192243        283.4402
2013    2       4       3.490289        285.6577
2013    2       5       7.866265        292.4206
2013    2       6       7.752734        290.2289
2013    2       7       7.497381        289.3672
2013    3       0       6.914762        292.7482
2013    3       1       6.09732         295.2122
2013    3       2       5.318266        295.4835
2013    3       3       5.111664        294.8023
2013    3       4       5.191854        294.1697
2013    3       5       7.057651        292.4366
2013    3       6       7.458496        290.1696
2013    3       7       7.298919        288.829
2013    4       0       7.036041        291.8882
2013    4       1       6.175614        295.0767
2013    4       2       5.778297        296.3525
2013    4       3       5.816412        296.1031
2013    4       4       5.799695        295.7012
2013    4       5       5.87164         291.5889
2013    4       6       6.084583        289.5232
2013    4       7       6.544843        288.6435
2013    5       0       6.482034        291.7684
2013    5       1       5.790794        295.1885
2013    5       2       5.188657        296.0627
2013    5       3       4.880485        295.1707
2013    5       4       4.436656        293.4295
2013    5       5       5.867341        293.9475
2013    5       6       7.262399        290.5975
2013    5       7       7.344409        289.471
2013    6       0       6.060842        292.2109
2013    6       1       4.26192         291.5155
2013    6       2       3.438028        286.327
2013    6       3       3.239074        283.3729
2013    6       4       5.745962        293.1162
2013    6       5       6.621425        290.1125
2013    6       6       5.948031        287.3879
2013    6       7       6.056755        286.5787
2013    7       0       4.6741          287.7221
2013    7       1       3.751725        287.1222
2013    7       2       3.602686        287.5855
2013    7       3       3.927982        289.2792
2013    7       4       4.635474        291.0187
2013    7       5       5.403074        290.0561
2013    7       6       6.054978        288.8338
2013    7       7       6.477004        287.848
2013    8       0       5.793277        290.499
2013    8       1       4.44184         290.846
2013    8       2       3.602502        287.2202
2013    8       3       3.418117        285.079
2013    8       4       3.67068         286.776
2013    8       5       4.446705        290.1829
2013    8       6       5.662985        291.9839
2013    8       7       6.344777        291.8704
2013    9       0       5.813209        294.395
2013    9       1       4.746184        295.5221
2013    9       2       4.633086        295.0464
2013    9       3       3.140713        282.0529
2013    9       4       1.768983        241.3361
2013    9       5       2.004297        250.9365
2013    9       6       4.268386        288.9282
2013    9       7       6.484325        293.3243
2013    10      0       5.354096        294.4034
2013    10      1       3.970292        291.9243
2013    10      2       2.935654        281.2366
2013    10      3       2.358847        267.5293
2013    10      4       2.37846         267.672
2013    10      5       7.635218        294.9574
2013    10      6       9.151047        293.1328
2013    10      7       9.371568        292.3149
2013    11      0       8.483452        295.5993
2013    11      1       7.095066        298.9276
2013    11      2       6.365956        300.5694
2013    11      3       6.986721        300.6804
2013    11      4       8.064381        299.7023
2013    11      5       8.473078        298.6129
2013    11      6       7.981281        296.9786
2013    11      7       8.210883        295.1892
2013    12      0       8.189649        297.7983
2013    12      1       7.551869        301.3554
2013    12      2       7.277769        302.3296
2013    12      3       7.673319        301.7793
2013    12      4       8.495323        300.9242
2013    12      5       8.971733        299.2262
2013    12      6       8.715754        298.6005
2013    12      7       8.305005        297.7356
2013    13      0       8.057188        299.4308
2013    13      1       7.050372        302.1947
2013    13      2       6.901264        303.2735
2013    13      3       8.662096        302.852
2013    13      4       7.964123        299.076
2013    13      5       9.75709         289.7651
2013    13      6       8.77829         290.7012
2013    13      7       7.188176        290.4263
2013    14      0       5.618027        292.5285
2013    14      1       4.136574        291.4789
2013    14      2       3.807206        289.4907
2013    14      3       4.798171        291.1242
2013    14      4       6.294674        290.5295
2013    14      5       6.559516        287.1537
2013    14      6       5.60845         285.3167
2013    14      7       5.86768         285.7771
2013    15      0       6.489764        289.6019
2013    15      1       6.939784        293.0463
2013    15      2       6.969019        294.4088
2013    15      3       6.724904        294.252
2013    15      4       6.811268        294.089
2013    15      5       6.992261        291.134
2013    15      6       6.610652        288.5003
2013    15      7       6.489763        288.3839
2013    16      0       6.709037        291.6888
2013    16      1       6.034756        294.3015
2013    16      2       5.635722        295.1824
2013    16      3       5.767702        294.9384
2013    16      4       5.906581        294.857
2013    16      5       5.931313        294.6717
2013    16      6       6.12133         293.9182
2013    16      7       6.460525        292.7109
2013    17      0       6.329348        293.7359
2013    17      1       6.002619        295.987
2013    17      2       6.436383        297.5281
2013    17      3       6.655525        297.627
2013    17      4       6.45245         297.3895
2013    17      5       6.838212        296.6104
2013    17      6       7.890349        295.5433
2013    17      7       7.921693        293.5688
2013    18      0       7.29131         295.7003
2013    18      1       6.836158        299.1154
2013    18      2       7.118858        300.9256
2013    18      3       7.665449        301.2338
2013    18      4       9.756816        300.1648
2013    18      5       12.49775        296.7003
2013    18      6       12.43003        295.1636
2013    18      7       11.87748        294.4487
2013    19      0       11.32153        295.3596
2013    19      1       10.23333        296.9522
2013    19      2       9.821658        296.6351
2013    19      3       9.66483         295.2865
2013    19      4       11.25717        294.3801
2013    19      5       10.5682         291.5287
2013    19      6       10.34636        290.5592
2013    19      7       11.01917        290.0381
2013    20      0       11.86273        290.5081
2013    20      1       12.10562        292.1208
2013    20      2       12.20978        291.9993
2013    20      3       11.89025        291.2174
2013    20      4       10.85711        291.7597
2013    20      5       9.706727        292.3329
2013    20      6       8.933019        291.0265
2013    20      7       8.355885        290.289
2013    21      0       7.933229        292.6838
2013    21      1       7.752272        295.2095
2013    21      2       7.767357        296.1884
2013    21      3       7.846915        295.7996
2013    21      4       7.87018         295.3711
2013    21      5       9.18907         292.2825
2013    21      6       8.849199        291.0061
2013    21      7       9.547775        290.2569
2013    22      0       9.31581         293.2173
2013    22      1       9.819734        294.422
2013    22      2       11.46741        292.7486
2013    22      3       10.12931        293.0088
2013    22      4       7.799386        293.4115
2013    22      5       7.626808        292.9638
2013    22      6       8.103478        292.3728
2013    22      7       8.793108        291.0832
2013    23      0       7.494598        292.5337
2013    23      1       6.731067        294.3797
2013    23      2       6.72873         295.1731
2013    23      3       7.365804        294.1779
2013    23      4       8.432872        291.4485
2013    23      5       7.759605        289.7857
2013    23      6       6.963906        288.8049
2013    23      7       6.803234        288.06
2013    24      0       6.335056        290.3864
2013    24      1       5.881716        292.7188
2013    24      2       6.329896        294.6127
2013    24      3       8.028753        294.0379
2013    24      4       8.710515        291.3513
2013    24      5       7.326583        290.0801
2013    24      6       6.502862        290.279
2013    24      7       6.660872        290.3248
2013    25      0       6.82013         292.5593
2013    25      1       6.84728         294.8047
2013    25      2       7.102866        296.2215
2013    25      3       7.694333        295.6412
2013    25      4       8.475925        292.3125
2013    25      5       8.487864        291.2593
2013    25      6       8.62938         291.3567
2013    25      7       9.705282        291.6306
2013    26      0       9.281795        294.494
2013    26      1       9.09161         296.6429
2013    26      2       10.3118         296.2864
2013    26      3       11.19937        293.2361
2013    26      4       11.65636        292.3778
2013    26      5       11.62595        291.6415
2013    26      6       11.2861         291.1184
2013    26      7       11.39768        290.493
2013    27      0       11.28459        291.2559
2013    27      1       11.54782        292.074
2013    27      2       11.37476        291.7529
2013    27      3       10.87569        292.0412
2013    27      4       11.26692        291.5073
2013    27      5       10.90243        290.2517
2013    27      6       10.77965        290.3556
2013    27      7       11.61067        290.7467
2013    28      0       12.83134        291.5389
2013    28      1       14.32189        292.895
2013    28      2       14.80437        293.4954
2013    28      3       12.83201        292.5104
2013    28      4       12.05693        291.5527
2013    28      5       10.7946         290.377
2013    28      6       9.890803        289.9615
2013    28      7       9.118022        289.9467
2013    29      0       8.109292        290.8737
2013    29      1       6.852584        293.098
2013    29      2       5.695417        293.6469
2013    29      3       4.522071        290.5309
2013    29      4       4.193337        288.5495
2013    29      5       4.348895        288.5592
2013    29      6       4.534551        288.835
2013    29      7       4.621809        288.9449
2013    30      0       4.349068        288.2367
2013    30      1       3.794005        286.1865
2013    30      2       3.433723        283.9594
2013    30      3       3.278911        282.1606
2013    30      4       3.369646        283.0216
2013    30      5       4.349011        289.4961
2013    30      6       7.108883        291.8778
2013    30      7       7.154801        291.1453
2013    31      0       7.360076        291.8517
2013    31      1       6.160126        293.5071
2013    31      2       5.277631        293.7245
2013    31      3       5.039311        293.1651
2013    31      4       4.995898        292.2469
2013    31      5       5.901914        292.393
2013    31      6       9.079176        291.9574
2013    31      7       10.40728        291.3317
2014    1       0       7.894272        294.1011
2014    1       1       5.309988        295.2633
2014    1       2       5.165133        295.8828
2014    1       3       5.669315        296.4558
2014    1       4       5.786148        295.8823
2014    1       5       5.133139        291.017
2014    1       6       7.485633        292.7289
2014    1       7       9.76877         293.078
2014    2       0       10.19938        295.9982
2014    2       1       9.040129        299.4825
2014    2       2       8.789571        299.3986
2014    2       3       6.412133        297.9812
2014    2       4       7.834661        297.2812
2014    2       5       8.653851        296.7083
2014    2       6       8.554918        297.0946
2014    2       7       8.502074        296.8544
2014    3       0       7.670884        300.0772
2014    3       1       5.110724        301.1711
2014    3       2       3.336256        289.3156
2014    3       3       3.865137        294.1262
2014    3       4       5.023067        298.755
2014    3       5       5.561674        295.6449
2014    3       6       6.631538        293.4851
2014    3       7       6.173905        291.5857
2014    4       0       4.471744        290.7466
2014    4       1       2.447708        268.9914
2014    4       2       1.759487        243.2235
2014    4       3       1.700684        239.1985
2014    4       4       1.679167        237.0605
2014    4       5       1.716728        237.9676
2014    4       6       1.73762         238.9915
2014    4       7       1.88716         246.5982
2014    5       0       1.488193        226.1874
2014    5       1       1.266478        210.7965
2014    5       2       1.170133        202.9749
2014    5       3       1.240132        208.964
2014    5       4       1.507281        228.3075
2014    5       5       1.730913        240.8427
2014    5       6       1.897986        248.2552
2014    5       7       2.303729        261.4053
2014    6       0       2.332828        263.2667
2014    6       1       2.285021        262.8887
2014    6       2       2.094288        256.9608
2014    6       3       1.090789        193.6968
2014    6       4       1.295741        210.0903
2014    6       5       1.372495        215.1794
2014    6       6       2.553063        265.8827
2014    6       7       4.340873        285.0612
2014    7       0       3.792301        284.6361
2014    7       1       2.99796         278.5049
2014    7       2       2.315399        264.2984
2014    7       3       2.078462        255.8401
2014    7       4       3.246117        280.9047
2014    7       5       6.028085        287.3717
2014    7       6       6.128975        285.8193
2014    7       7       6.150503        285.8251
2014    8       0       5.973386        288.9422
2014    8       1       6.408597        290.8941
2014    8       2       6.387269        292.6641
2014    8       3       6.648187        292.7215
2014    8       4       7.282943        288.8297
2014    8       5       6.657698        285.5168
2014    8       6       6.423907        285.0589
2014    8       7       6.528095        285.109
2014    9       0       6.529521        287.0986
2014    9       1       6.335304        288.6889
2014    9       2       6.489477        289.4197
2014    9       3       6.763499        289.3405
2014    9       4       6.410526        289.3261
2014    9       5       6.233362        286.321
2014    9       6       6.403858        285.1641
2014    9       7       6.696621        284.809
2014    10      0       6.569897        286.9419
2014    10      1       6.627938        289.3535
2014    10      2       6.588217        290.5318
2014    10      3       6.383399        290.4592
2014    10      4       6.190725        290.0811
2014    10      5       6.078729        289.7358
2014    10      6       6.468437        288.8268
2014    10      7       6.911648        288.0643
2014    11      0       6.471111        290.3795
2014    11      1       6.038066        291.8314
2014    11      2       5.865883        292.8465
2014    11      3       5.724085        292.7817
2014    11      4       5.6503          292.2044
2014    11      5       5.62086         291.4038
2014    11      6       5.609898        290.9133
2014    11      7       6.31648         290.6169
2014    12      0       5.067086        290.7347
2014    12      1       4.509698        290.4843
2014    12      2       4.414499        291.4193
2014    12      3       4.526436        291.8389
2014    12      4       5.173885        291.8134
2014    12      5       5.768677        290.0375
2014    12      6       6.002151        288.4488
2014    12      7       6.064876        287.6719
2014    13      0       5.355314        290.536
2014    13      1       4.579436        291.694
2014    13      2       4.328037        291.4921
2014    13      3       4.124268        289.8544
2014    13      4       4.712741        291.3145
2014    13      5       6.495536        290.1154
2014    13      6       6.954002        288.6851
2014    13      7       7.089272        288.2749
2014    14      0       6.004458        291.2426
2014    14      1       4.598137        291.7145
2014    14      2       3.950761        289.9943
2014    14      3       3.501341        285.8325
2014    14      4       5.375821        291.8934
2014    14      5       6.63328         289.8386
2014    14      6       6.394082        288.2725
2014    14      7       6.016178        287.6439
2014    15      0       5.259797        290.3448
2014    15      1       4.244269        290.6727
2014    15      2       3.9978          290.3886
2014    15      3       4.257216        291.4503
2014    15      4       5.467804        292.4682
2014    15      5       6.44538         289.9404
2014    15      6       6.691287        288.271
2014    15      7       6.55061         287.6743
2014    16      0       5.767025        290.621
2014    16      1       4.383492        291.0741
2014    16      2       3.982336        289.9845
2014    16      3       4.101764        290.1594
2014    16      4       4.436204        290.6081
2014    16      5       6.197585        290.5041
2014    16      6       6.711866        289.7961
2014    16      7       6.925989        288.8055
2014    17      0       6.164888        292.0012
2014    17      1       5.040987        293.5572
2014    17      2       4.592285        293.2457
2014    17      3       4.630328        293.0643
2014    17      4       4.687616        291.6747
2014    17      5       5.435798        289.562
2014    17      6       6.2412          288.6809
2014    17      7       6.462665        288.0555
2014    18      0       5.62078         291.0181
2014    18      1       4.351105        291.0935
2014    18      2       3.839621        289.1931
2014    18      3       3.925719        289.5528
2014    18      4       4.049839        289.8119
2014    18      5       4.404324        289.4803
2014    18      6       5.23642         289.0849
2014    18      7       5.97272         288.8284
2014    19      0       5.853052        291.3039
2014    19      1       4.712773        292.9881
2014    19      2       4.439875        293.3385
2014    19      3       4.764684        294.0489
2014    19      4       5.285668        294.5045
2014    19      5       5.540629        293.893
2014    19      6       5.568067        292.9075
2014    19      7       5.965751        292.3696
2014    20      0       5.996753        294.5787
2014    20      1       4.827784        294.7578
2014    20      2       4.681749        295.9123
2014    20      3       5.174641        297.1205
2014    20      4       7.445366        300.3769
2014    20      5       6.110425        296.6269
2014    20      6       6.068325        295.684
2014    20      7       6.120821        293.9113
2014    21      0       5.215895        295.8851
2014    21      1       4.293518        295.3276
2014    21      2       3.221326        286.9724
2014    21      3       3.125779        284.5721
2014    21      4       3.056998        281.436
2014    21      5       3.269869        282.3943
2014    21      6       5.675512        293.6846
2014    21      7       5.844271        294.1024
2014    22      0       4.168707        290.5508
2014    22      1       4.25166         292.6197
2014    22      2       4.704566        294.3184
2014    22      3       5.672083        295.5437
2014    22      4       7.629972        294.2685
2014    22      5       8.389599        290.8044
2014    22      6       8.196535        289.4937
2014    22      7       8.711709        289.0735
2014    23      0       8.985871        290.778
2014    23      1       8.121951        293.0395
2014    23      2       8.423825        293.0546
2014    23      3       8.698917        291.4871
2014    23      4       8.612076        290.1659
2014    23      5       7.644486        288.7871
2014    23      6       6.925197        287.9592
2014    23      7       8.547864        288.4441
2014    24      0       9.871589        290.1599
2014    24      1       10.40876        291.61
2014    24      2       11.187          292.8354
2014    24      3       11.369          292.6299
2014    24      4       11.79603        292.0424
2014    24      5       12.07578        289.6862
2014    24      6       9.400526        287.42
2014    24      7       6.668787        286.9774
2014    25      0       5.221327        287.1259
2014    25      1       3.108535        279.2251
2014    25      2       2.659783        273.54
2014    25      3       2.825632        276.4656
2014    25      4       3.41622         283.3981
2014    25      5       5.281621        289.2299
2014    25      6       6.291859        286.8114
2014    25      7       5.617334        285.2462
2014    26      0       5.503977        288.6662
2014    26      1       4.60547         289.7025
2014    26      2       4.028203        288.4682
2014    26      3       3.785933        286.4309
2014    26      4       4.751068        286.9259
2014    26      5       4.856513        283.9133
2014    26      6       4.58169         282.396
2014    26      7       4.465992        282.0715
2014    27      0       4.049765        283.9134
2014    27      1       3.401318        282.4835
2014    27      2       3.153881        281.5896
2014    27      3       3.375931        284.2344
2014    27      4       4.96911         288.0856
2014    27      5       4.711863        284.8235
2014    27      6       4.525557        283.1762
2014    27      7       4.589666        283.2062
2014    28      0       4.197714        285.1855
2014    28      1       3.218974        281.1876
2014    28      2       2.848733        277.5224
2014    28      3       3.076129        280.8418
2014    28      4       4.27747         287.2572
2014    28      5       4.884208        285.8255
2014    28      6       4.791086        284.5219
2014    28      7       4.913041        284.5211
2014    29      0       4.46717         287.0009
2014    29      1       3.211848        282.0389
2014    29      2       2.656994        274.3916
2014    29      3       2.711915        274.3565
2014    29      4       4.832137        288.1115
2014    29      5       5.042457        285.8275
2014    29      6       4.519214        283.1298
2014    29      7       4.871823        283.6377
2014    30      0       3.725274        282.693
2014    30      1       2.333794        264.9465
2014    30      2       2.112436        258.8574
2014    30      3       3.01605         279.7688
2014    30      4       4.421308        286.8677
2014    30      5       4.364459        283.6255
2014    30      6       4.442605        283.1701
2014    30      7       4.600938        283.5784
2014    31      0       3.534054        281.6981
2014    31      1       2.603605        271.8139
2014    31      2       2.300705        265.3947
2014    31      3       3.225486        281.9431
2014    31      4       4.689815        288.5653
2014    31      5       5.337378        288.5345
2014    31      6       5.507219        286.9571
2014    31      7       5.574764        286.0331
2015    1       0       7.395219        293.976
2015    1       1       5.478604        294.6035
2015    1       2       5.47236         295.0447
2015    1       3       5.812904        295.5605
2015    1       4       6.381201        295.5648
2015    1       5       9.432354        293.5746
2015    1       6       10.10228        292.0792
2015    1       7       11.29037        290.2678
2015    2       0       11.7169         289.6992
2015    2       1       11.2071         289.5257
2015    2       2       9.80376         290.3131
2015    2       3       7.892356        290.9423
2015    2       4       8.699276        291.4327
2015    2       5       8.57355         290.1634
2015    2       6       8.54377         289.3827
2015    2       7       8.527275        288.794
2015    3       0       8.155645        290.8185
2015    3       1       7.199313        292.8057
2015    3       2       6.86436         293.8374
2015    3       3       6.812951        293.7289
2015    3       4       7.363794        292.7966
2015    3       5       7.839881        290.6554
2015    3       6       8.28975         289.8003
2015    3       7       8.751189        289.2563
2015    4       0       8.819973        291.2206
2015    4       1       8.715109        293.4552
2015    4       2       8.90362         294.4518
2015    4       3       8.875626        294.5566
2015    4       4       8.343527        294.055
2015    4       5       8.805824        291.9016
2015    4       6       8.855704        289.757
2015    4       7       8.685372        288.9457
2015    5       0       8.310749        290.8285
2015    5       1       7.572559        292.6546
2015    5       2       7.374293        292.9481
2015    5       3       7.241366        292.4221
2015    5       4       7.029487        291.8072
2015    5       5       8.951485        289.7731
2015    5       6       8.084515        288.9404
2015    5       7       7.556737        288.4757
2015    6       0       6.77464         290.5022
2015    6       1       6.076686        292.1594
2015    6       2       5.692904        292.6113
2015    6       3       5.716345        292.4593
2015    6       4       6.661148        291.5363
2015    6       5       6.325209        289.0039
2015    6       6       5.48912         287.1608
2015    6       7       5.962813        286.8458
2015    7       0       5.671233        289.5542
2015    7       1       5.12847         291.5305
2015    7       2       4.540966        291.4852
2015    7       3       4.38091         290.4751
2015    7       4       5.441564        290.0133
2015    7       5       5.944508        288.3497
2015    7       6       5.051384        286.3532
2015    7       7       5.035693        285.3311
2015    8       0       5.653886        288.8249
2015    8       1       5.211497        291.1048
2015    8       2       4.803412        291.4991
2015    8       3       4.568836        290.4662
2015    8       4       4.398386        289.5067
2015    8       5       5.128444        290.1466
2015    8       6       7.621056        289.7935
2015    8       7       8.032557        288.9447
2015    9       0       6.976029        291.2955
2015    9       1       5.958016        292.7101
2015    9       2       5.835275        293.6542
2015    9       3       5.840101        293.564
2015    9       4       6.254035        293.5166
2015    9       5       7.302416        291.6176
2015    9       6       8.433684        289.9571
2015    9       7       9.323165        288.8958
2015    10      0       9.495261        290.6251
2015    10      1       8.557276        293.5076
2015    10      2       7.195981        294.8887
2015    10      3       6.600979        294.33
2015    10      4       6.946338        293.7865
2015    10      5       9.049877        292.0096
2015    10      6       10.06644        291.0286
2015    10      7       10.79595        290.2411
2015    11      0       11.08669        291.1383
2015    11      1       10.83041        293.3153
2015    11      2       11.09568        293.2699
2015    11      3       11.64127        291.9182
2015    11      4       11.7852         291.1912
2015    11      5       11.22144        291.2363
2015    11      6       11.03074        291.0634
2015    11      7       11.76353        290.7486
2015    12      0       12.04045        291.0982
2015    12      1       11.6058         292.4118
2015    12      2       10.92186        293.5372
2015    12      3       10.35743        293.5904
2015    12      4       9.655947        293.4988
2015    12      5       10.06852        292.3246
2015    12      6       11.14652        290.8921
2015    12      7       10.11758        290.0958
2015    13      0       9.904654        293.0302
2015    13      1       10.6109         296.4651
2015    13      2       12.32849        297.4723
2015    13      3       14.03837        295.4739
2015    13      4       14.18528        294.7449
2015    13      5       12.45147        294.1169
2015    13      6       14.75529        292.4776
2015    13      7       13.96679        292.5771
2015    14      0       11.4048         294.8964
2015    14      1       9.595432        296.8708
2015    14      2       5.367516        295.762
2015    14      3       4.289985        290.994
2015    14      4       6.330214        293.3367
2015    14      5       6.333284        290.6649
2015    14      6       6.262043        289.0901
2015    14      7       6.109637        288.0985
2015    15      0       4.85481         288.4244
2015    15      1       3.988613        287.5027
2015    15      2       3.608098        285.759
2015    15      3       3.69316         285.5181
2015    15      4       3.662632        284.4032
2015    15      5       3.644476        283.4689
2015    15      6       3.801695        283.8319
2015    15      7       3.944456        284.1376
2015    16      0       3.904179        285.2768
2015    16      1       3.271273        281.6035
2015    16      2       2.592194        271.1214
2015    16      3       2.304589        262.8094
2015    16      4       2.325473        262.7182
2015    16      5       2.408049        264.3913
2015    16      6       2.502623        266.1845
2015    16      7       2.519509        266.4204
2015    17      0       2.77963         272.8966
2015    17      1       2.691678        272.9203
2015    17      2       2.69572         273.5315
2015    17      3       2.97517         278.28
2015    17      4       3.164665        280.5981
2015    17      5       3.198319        280.1545
2015    17      6       3.067728        277.498
2015    17      7       2.826442        272.9869
2015    18      0       2.941325        275.6001
2015    18      1       2.566409        269.364
2015    18      2       2.062628        254.7087
2015    18      3       1.856937        245.393
2015    18      4       2.117243        255.1977
2015    18      5       2.385237        262.7937
2015    18      6       2.760003        270.6828
2015    18      7       3.706085        282.1118
2015    19      0       3.891525        284.4211
2015    19      1       3.283209        280.994
2015    19      2       3.483142        283.4379
2015    19      3       3.840845        286.1763
2015    19      4       6.777577        291.5039
2015    19      5       7.826721        289.9462
2015    19      6       7.777351        289.3279
2015    19      7       8.427831        288.9633
2015    20      0       8.805425        290.4074
2015    20      1       8.677382        291.6324
2015    20      2       9.052809        291.8647
2015    20      3       8.3768          291.2165
2015    20      4       9.179288        289.7299
2015    20      5       9.489951        287.9931
2015    20      6       8.646864        287.214
2015    20      7       8.990514        287.1381
2015    21      0       8.493329        289.0392
2015    21      1       8.679015        290.9172
2015    21      2       9.096694        291.3007
2015    21      3       9.895847        290.4056
2015    21      4       10.91585        288.9108
2015    21      5       8.784876        288.4032
2015    21      6       7.979277        288.4175
2015    21      7       8.236191        288.6565
2015    22      0       7.85035         290.3816
2015    22      1       7.097078        292.7226
2015    22      2       7.025927        294.0929
2015    22      3       7.277797        293.8516
2015    22      4       10.06517        291.3618
2015    22      5       10.99031        289.4428
2015    22      6       10.92321        289.1295
2015    22      7       10.75949        289.1079
2015    23      0       10.7626         290.9682
2015    23      1       10.87366        291.8297
2015    23      2       10.30111        291.5927
2015    23      3       9.233745        290.7084
2015    23      4       7.19009         289.1827
2015    23      5       6.229577        287.9044
2015    23      6       6.750588        288.2
2015    23      7       6.751346        288.254
2015    24      0       6.693494        290.6507
2015    24      1       6.055475        292.9331
2015    24      2       5.816829        293.8368
2015    24      3       5.758723        293.5607
2015    24      4       5.981002        293.1136
2015    24      5       6.336869        292.8344
2015    24      6       6.389786        292.0882
2015    24      7       6.26943         291.7152
2015    25      0       6.865944        293.6492
2015    25      1       5.981195        295.6249
2015    25      2       5.28132         295.4867
2015    25      3       5.240158        294.5675
2015    25      4       4.809683        292.7534
2015    25      5       4.556557        290.9099
2015    25      6       4.677874        290.1814
2015    25      7       4.962315        290.8037
2015    26      0       5.967755        294.3043
2015    26      1       7.381573        296.8717
2015    26      2       7.069607        296.6034
2015    26      3       7.301844        295.566
2015    26      4       9.432004        293.2113
2015    26      5       10.5086         290.6216
2015    26      6       9.800033        289.3908
2015    26      7       9.692226        288.874
2015    27      0       9.8927          289.6118
2015    27      1       8.228685        291.425
2015    27      2       7.43985         291.0301
2015    27      3       7.694135        290.892
2015    27      4       8.184601        288.3231
2015    27      5       8.116654        287.0191
2015    27      6       6.564126        287.0385
2015    27      7       6.132516        285.9068
2015    28      0       5.934244        287.6867
2015    28      1       6.056218        289.6904
2015    28      2       6.243342        290.1996
2015    28      3       6.553937        289.0414
2015    28      4       6.101826        285.0006
2015    28      5       5.469508        283.1234
2015    28      6       5.069629        282.8101
2015    28      7       4.764062        282.3854
2015    29      0       4.441432        283.7807
2015    29      1       4.11077         284.0154
2015    29      2       3.941439        283.9509
2015    29      3       3.898242        283.4503
2015    29      4       3.739755        281.2621
2015    29      5       3.60613         278.946
2015    29      6       3.546537        277.7868
2015    29      7       3.505233        277.2625
2015    30      0       4.105992        283.0341
2015    30      1       4.117362        285.0526
2015    30      2       3.876833        284.764
2015    30      3       3.563346        281.6091
2015    30      4       3.326024        278.3809
2015    30      5       3.431505        278.2058
2015    30      6       3.288635        276.3456
2015    30      7       3.130271        274.3875
2015    31      0       3.031239        274.2802
2015    31      1       2.752755        270.7856
2015    31      2       2.532519        266.0704
2015    31      3       2.352356        260.9064
2015    31      4       2.353238        260.4641
2015    31      5       2.655633        267.4435
2015    31      6       2.903298        271.989
2015    31      7       3.104211        274.6793
2016    1       0       5.873007        288.7494
2016    1       1       4.81246         289.5621
2016    1       2       4.405972        289.3572
2016    1       3       4.198226        288.0191
2016    1       4       4.296824        287.948
2016    1       5       4.505934        288.4492
2016    1       6       5.365137        289.106
2016    1       7       6.582959        288.5283
2016    5       0       9.186138        288.4904
2016    5       1       8.67649         290.4312
2016    5       2       9.392139        290.3186
2016    5       3       9.846362        288.0833
2016    5       4       9.053544        288.4116
2016    5       5       8.373383        287.7806
2016    5       6       8.641237        287.3817
2016    5       7       5.475128        285.5692
2016    6       0       6.279986        287.2713
2016    6       1       6.321837        288.8938
2016    6       2       6.019387        289.4624
2016    6       3       6.017331        287.3326
2016    6       4       5.66118         284.7235
2016    6       5       5.507574        283.9346
2016    6       6       5.32116         283.0938
2016    6       7       5.21218         282.0825
2016    7       0       4.863918        283.3016
2016    7       1       4.323825        284.1883
2016    7       2       4.189023        285.0847
2016    7       3       4.287223        285.3158
2016    7       4       4.73224         285.5375
2016    7       5       4.426656        284.2541
2016    7       6       4.188211        282.8757
2016    7       7       4.187952        282.413
2016    8       0       3.7697          281.2564
2016    8       1       3.444103        280.305
2016    8       2       3.324667        280.1226
2016    8       3       3.350526        280.1063
2016    8       4       3.471638        280.799
2016    8       5       3.584744        281.2992
2016    8       6       3.756544        281.9064
2016    8       7       4.38371         284.438
2016    9       0       6.053338        288.2332
2016    9       1       6.397189        290.1981
2016    9       2       6.756744        291.3609
2016    9       3       6.869833        291.5338
2016    9       4       6.676169        291.2769
2016    9       5       6.571292        290.8941
2016    9       6       6.624601        290.4361
2016    9       7       6.393651        289.9524
2016    10      0       6.285657        291.5365
2016    10      1       5.501386        292.8403
2016    10      2       5.303379        293.1668
2016    10      3       5.193638        292.9607
2016    10      4       5.102734        292.6405
2016    10      5       5.370478        292.2883
2016    10      6       6.973422        291.3379
2016    10      7       7.431097        290.5353
2016    11      0       7.512896        292.8961
2016    11      1       7.104789        295.2949
2016    11      2       6.838525        296.31
2016    11      3       6.618729        296.1903
2016    11      4       6.593754        295.9235
2016    11      5       6.751207        295.7437
2016    11      6       6.940609        295.1996
2016    11      7       6.942471        294.2917
2016    12      0       7.695035        295.084
2016    12      1       7.564827        296.7434
2016    12      2       6.988409        297.448
2016    12      3       6.229667        296.3135
2016    12      4       5.842878        295.5522
2016    12      5       6.069055        295.4691
2016    12      6       6.740147        295.1087
2016    12      7       7.418626        294.5147
2016    13      0       8.347842        295.7579
2016    13      1       7.938269        298.0726
2016    13      2       7.591847        298.5497
2016    13      3       6.959008        298.0787
2016    13      4       6.734115        297.1187
2016    13      5       7.162507        295.6932
2016    13      6       7.499318        294.5493
2016    13      7       6.511008        292.2625
2016    14      0       6.953647        293.413
2016    14      1       6.679259        296.2765
2016    14      2       6.621104        297.3558
2016    14      3       6.565302        296.8804
2016    14      4       6.838823        295.3759
2016    14      5       10.42151        292.4153
2016    14      6       10.03979        289.3945
2016    14      7       10.24736        289.0862
2016    15      0       10.3133         289.5332
2016    15      1       10.34636        288.2969
2016    15      2       8.903435        285.9875
2016    15      3       7.235388        285.3503
2016    15      4       5.4934          283.2789
2016    15      5       5.398808        281.8261
2016    15      6       4.530234        279.6286
2016    15      7       4.016644        278.2085
2016    16      0       4.539992        282.0667
2016    16      1       4.969988        285.6771
2016    16      2       4.695987        286.3938
2016    16      3       4.349444        285.1364
2016    16      4       4.821171        284.5934
2016    16      5       5.092639        282.9487
2016    16      6       4.255911        280.2804
2016    16      7       4.145262        279.5056
2016    17      0       4.597942        283.007
2016    17      1       4.504114        285.7189
2016    17      2       4.332974        286.3553
2016    17      3       4.173104        285.3717
2016    17      4       4.427579        285.7685
2016    17      5       5.268939        284.6569
2016    17      6       4.933509        283.4345
2016    17      7       4.78523         282.9141
2016    18      0       5.039054        285.6329
2016    18      1       4.807778        286.9488
2016    18      2       4.621005        287.5075
2016    18      3       4.489901        287.1682
2016    18      4       4.280845        286.1141
2016    18      5       4.306092        285.8579
2016    18      6       4.896478        286.2451
2016    18      7       5.385306        285.7143
2016    19      0       5.292097        287.7397
2016    19      1       4.725916        288.9461
2016    19      2       4.286207        288.6705
2016    19      3       4.061329        287.7931
2016    19      4       4.168191        288.3038
2016    19      5       4.543233        289.4655
2016    19      6       4.816391        289.6769
2016    19      7       4.92385         289.5302
2016    20      0       4.683593        289.6669
2016    20      1       4.089255        288.6217
2016    20      2       4.152571        289.7769
2016    20      3       4.486408        290.9706
2016    20      4       4.999989        292.0935
2016    20      5       5.724641        292.8576
2016    20      6       6.039918        293.0345
2016    20      7       6.109185        292.778
2016    21      0       6.56735         292.5831
2016    21      1       7.289995        294.5473
2016    21      2       9.056437        294.0466
2016    21      3       10.05522        293.3708
2016    21      4       9.618281        294.6832
2016    21      5       9.177268        295.6809
2016    21      6       10.46908        294.3434
2016    21      7       10.65472        293.0316
2016    22      0       10.28789        294.6705
2016    22      1       10.85246        296.0961
2016    22      2       12.31749        295.7225
2016    22      3       12.18999        297.5745
2016    22      4       12.9225         294.0639
2016    22      5       8.281709        293.8178
2016    22      6       9.121529        293.0627
2016    22      7       9.833303        293.0972
2016    23      0       11.06936        291.1927
2016    23      1       9.452614        294.0023
2016    23      2       6.503487        294.0644
2016    23      3       5.17014         292.1786
2016    23      4       5.326251        291.431
2016    23      5       5.747955        290.9455
2016    23      6       6.240998        290.6132
2016    23      7       6.793914        290.4925
2016    24      0       6.579138        291.8004
2016    24      1       5.918452        293.6737
2016    24      2       5.693417        294.5316
2016    24      3       5.833584        294.2854
2016    24      4       6.365314        294.3269
2016    24      5       7.832571        293.1125
2016    24      6       9.429243        290.5809
2016    24      7       9.296753        290.0734
2016    25      0       9.71777         292.5724
2016    25      1       8.658665        294.8357
2016    25      2       7.951344        295.6709
2016    25      3       7.96092         295.137
2016    25      4       8.211817        293.9431
2016    25      5       8.520394        291.9513
2016    25      6       8.942852        290.4356
2016    25      7       9.098412        289.9145
2016    26      0       9.216177        291.4231
2016    26      1       8.586025        293.1726
2016    26      2       7.963052        294.02
2016    26      3       7.500847        293.6825
2016    26      4       8.437536        291.6629
2016    26      5       7.722544        289.7926
2016    26      6       6.723555        288.2437
2016    26      7       6.783646        287.5804
2016    27      0       7.951198        289.8406
2016    27      1       8.843861        291.8443
2016    27      2       9.915721        290.2257
2016    27      3       10.41494        289.4973
2016    27      4       10.3046         290.5687
2016    27      5       9.684789        289.1776
2016    27      6       9.96844         288.8717
2016    27      7       10.20676        289.3121
2016    28      0       9.926147        291.1385
2016    28      1       8.697612        294.3265
2016    28      2       6.811953        294.8006
2016    28      3       6.517564        293.3895
2016    28      4       6.531825        292.8646
2016    28      5       6.47388         292.3572
2016    28      6       6.319061        291.817
2016    28      7       6.315661        291.8341
2016    29      0       9.08052         293.9179
2016    29      1       11.14871        295.1927
2016    29      2       14.58446        294.555
2016    29      3       8.886534        295.5079
2016    29      4       6.251085        293.2573
2016    29      5       5.035724        290.0116
2016    29      6       3.965809        285.1552
2016    29      7       3.737797        283.4984
2016    30      0       5.164938        290.6178
2016    30      1       4.261664        289.5431
2016    30      2       3.780542        287.0672
2016    30      3       2.858133        275.1419
2016    30      4       2.200563        258.0876
2016    30      5       2.82562         271.0859
2016    30      6       3.022492        272.8216
2016    30      7       2.935644        271.3428
2016    31      0       3.088833        274.5129
2016    31      1       3.016783        275.3196
2016    31      2       3.174348        277.99
2016    31      3       3.420919        280.4204
2016    31      4       3.543703        281.8797
2016    31      5       3.654559        282.8254
2016    31      6       3.681795        282.2523
2016    31      7       3.427271        278.9124
2017    1       0       9.152117        298.9656
2017    1       1       8.638751        301.0737
2017    1       2       9.291181        301.4553
2017    1       3       10.34652        299.9948
2017    1       4       10.58325        297.773
2017    1       5       11.43437        295.0007
2017    1       6       12.63292        293.9273
2017    1       7       12.61341        293.1346
2017    2       0       12.88841        294.7862
2017    2       1       11.91388        294.4599
2017    2       2       8.661016        294.343
2017    2       3       6.985744        294.5739
2017    2       4       7.432097        292.8627
2017    2       5       6.91017         290.5037
2017    2       6       5.916559        288.9086
2017    2       7       5.368973        287.1543
2017    3       0       4.817452        288.7917
2017    3       1       4.082209        288.6393
2017    3       2       3.474452        285.445
2017    3       3       3.705607        287.1892
2017    3       4       5.669781        291.5072
2017    3       5       5.902818        287.8681
2017    3       6       5.288686        286.4473
2017    3       7       4.84722         286.0743
2017    4       0       4.856685        288.9318
2017    4       1       4.25945         289.335
2017    4       2       4.069319        289.6783
2017    4       3       4.319561        290.65
2017    4       4       5.748837        291.7547
2017    4       5       6.528769        288.4886
2017    4       6       6.390887        287.6416
2017    4       7       6.046593        287.1361
2017    5       0       6.086439        289.918
2017    5       1       6.074857        292.7686
2017    5       2       5.961891        294.0202
2017    5       3       6.273552        293.6291
2017    5       4       6.262035        292.5579
2017    5       5       6.673534        290.0998
2017    5       6       6.601793        288.9103
2017    5       7       7.538739        288.4745
2017    6       0       6.813917        290.8182
2017    6       1       6.521204        292.5587
2017    6       2       6.424136        293.512
2017    6       3       6.746042        293.1554
2017    6       4       8.641003        290.2864
2017    6       5       7.443471        288.7198
2017    6       6       7.336009        288.3629
2017    6       7       7.417391        287.9342
2017    7       0       6.709119        290.093
2017    7       1       6.302251        292.4261
2017    7       2       6.211353        293.6647
2017    7       3       5.783887        293.1216
2017    7       4       6.032765        291.4885
2017    7       5       5.944067        287.7131
2017    7       6       5.453811        286.4483
2017    7       7       5.538794        285.951
2017    8       0       5.501592        289.481
2017    8       1       4.723444        290.8982
2017    8       2       4.337356        290.739
2017    8       3       4.085454        289.76
2017    8       4       4.220467        289.8215
2017    8       5       4.67527         290.4734
2017    8       6       5.899542        288.9034
2017    8       7       6.066253        288.5177
2017    9       0       5.568718        291.3405
2017    9       1       4.977323        293.5827
2017    9       2       4.519324        293.6454
2017    9       3       4.431963        293.0648
2017    9       4       4.748928        292.9916
2017    9       5       4.889664        292.2855
2017    9       6       5.036919        291.1345
2017    9       7       6.65703         291.7208
2017    10      0       6.739639        294.7188
2017    10      1       6.557982        297.3526
2017    10      2       6.311561        298.0843
2017    10      3       6.098605        297.682
2017    10      4       6.405862        297.3704
2017    10      5       6.976515        296.9166
2017    10      6       7.093074        295.8104
2017    10      7       7.257479        295.0904
2017    11      0       7.686305        297.4678
2017    11      1       8.449928        299.6892
2017    11      2       8.622712        300.3106
2017    11      3       8.559574        300.4342
2017    11      4       8.424028        299.6845
2017    11      5       9.027           298.066
2017    11      6       9.891141        297.7794
2017    11      7       9.969089        297.335
2017    12      0       8.895394        299.411
2017    12      1       7.88316         300.7387
2017    12      2       7.401997        301.093
2017    12      3       7.458835        300.8585
2017    12      4       8.67587         299.7245
2017    12      5       9.772101        297.5573
2017    12      6       9.406949        295.7028
2017    12      7       9.8129          294.4438
2017    13      0       9.386805        298.0996
2017    13      1       8.446191        301.5888
2017    13      2       7.65408         302.6788
2017    13      3       7.322159        302.1096
2017    13      4       8.2397          302.2736
2017    13      5       11.28739        299.6512
2017    13      6       12.81193        296.838
2017    13      7       12.97848        296.8137
2017    14      0       12.60032        301.4958
2017    14      1       12.63043        304.7542
2017    14      2       12.79483        305.2089
2017    14      3       13.99348        298.5032
2017    14      4       8.931643        297.2817
2017    14      5       3.891982        287.5621
2017    14      6       5.520562        293.0449
2017    14      7       10.32208        295.9112
2017    15      0       8.949956        298.5432
2017    15      1       7.3991          300.2706
2017    15      2       6.670667        300.3709
2017    15      3       6.992927        299.4294
2017    15      4       10.01343        294.8793
2017    15      5       7.597646        290.9236
2017    15      6       7.703768        291.0063
2017    15      7       7.750234        291.3535
2017    16      0       7.881009        294.3268
2017    16      1       8.057017        297.1173
2017    16      2       7.927419        298.4063
2017    16      3       7.955758        297.7599
2017    16      4       8.158747        296.4477
2017    16      5       8.966605        294.6495
2017    16      6       8.886338        293.1801
2017    16      7       7.924529        291.5075
2017    17      0       7.674244        294.7936
2017    17      1       7.199023        297.7968
2017    17      2       6.801029        299.3206
2017    17      3       6.703976        299.0986
2017    17      4       6.947286        298.5557
2017    17      5       7.01879         297.8379
2017    17      6       6.651689        296.4683
2017    17      7       6.884334        294.8166
2017    18      0       7.51082         297.281
2017    18      1       8.25527         299.686
2017    18      2       9.247895        299.8377
2017    18      3       9.576548        298.9365
2017    18      4       11.85282        296.5825
2017    18      5       8.9662          297.7029
2017    18      6       9.79872         296.5997
2017    18      7       10.74974        295.1212
2017    19      0       10.22833        297.8852
2017    19      1       9.323449        300.5282
2017    19      2       9.331876        301.4247
2017    19      3       10.20073        299.7304
2017    19      4       12.35778        298.0364
2017    19      5       13.51068        294.8699
2017    19      6       13.27078        293.5478
2017    19      7       13.12357        293.5452
2017    20      0       13.62779        298.5657
2017    20      1       13.35683        300.0271
2017    20      2       10.98107        301.5293
2017    20      3       13.82454        301.1306
2017    20      4       14.566          298.578
2017    20      5       11.8106         294.7913
2017    20      6       6.56658         291.0133
2017    20      7       5.96166         290.1912
2017    21      0       4.507932        289.9924
2017    21      1       3.407105        285.5786
2017    21      2       3.218254        284.7869
2017    21      3       3.534799        287.7449
2017    21      4       4.043309        290.6749
2017    21      5       5.218945        292.526
2017    21      6       7.791204        290.5527
2017    21      7       6.866668        289.9499
2017    22      0       6.665577        292.3789
2017    22      1       5.807146        294.9046
2017    22      2       5.463899        296.1189
2017    22      3       5.554718        296.3024
2017    22      4       6.583987        296.3739
2017    22      5       6.614187        291.6554
2017    22      6       6.378211        289.8635
2017    22      7       6.739473        289.0668
2017    23      0       6.647468        292.6282
2017    23      1       5.66108         295.5246
2017    23      2       5.303019        296.6391
2017    23      3       5.248326        296.1072
2017    23      4       4.986658        294.503
2017    23      5       4.723111        292.5925
2017    23      6       4.473603        289.7256
2017    23      7       6.295394        290.9448
2017    24      0       7.484853        295.014
2017    24      1       8.238223        299.9243
2017    24      2       9.201386        301.4288
2017    24      3       9.04712         301.3494
2017    24      4       9.101967        300.6527
2017    24      5       9.66186         299.2949
2017    24      6       9.468604        298.2503
2017    24      7       8.857762        296.759
2017    25      0       9.407741        298.2663
2017    25      1       10.8271         300.2131
2017    25      2       12.68762        299.3231
2017    25      3       12.81663        297.768
2017    25      4       12.02594        296.4872
2017    25      5       12.50736        293.8876
2017    25      6       11.23254        291.5823
2017    25      7       10.53708        290.9608
2017    26      0       10.56278        293.5909
2017    26      1       10.77032        297.776
2017    26      2       11.05314        298.5558
2017    26      3       12.17657        296.0372
2017    26      4       11.48001        294.9263
2017    26      5       10.35653        294.5286
2017    26      6       9.751663        293.0889
2017    26      7       9.598695        290.8489
2017    27      0       10.23931        292.847
2017    27      1       10.02182        296.4387
2017    27      2       9.91341         297.6839
2017    27      3       10.3721         296.7306
2017    27      4       9.985593        295.9326
2017    27      5       10.36067        293.0615
2017    27      6       9.654808        291.6893
2017    27      7       11.03866        291.0565
2017    28      0       11.04343        293.479
2017    28      1       9.349399        295.9522
2017    28      2       7.936803        297.1047
2017    28      3       7.218772        296.6035
2017    28      4       7.071567        295.969
2017    28      5       7.148291        295.1318
2017    28      6       8.387963        292.7139
2017    28      7       8.304012        291.7457
2017    29      0       7.703434        293.8028
2017    29      1       6.800938        296.0463
2017    29      2       6.624433        296.9509
2017    29      3       6.440382        296.5572
2017    29      4       6.769117        296.1732
2017    29      5       7.14606         293.4976
2017    29      6       6.35256         292.2459
2017    29      7       6.150959        291.0929
2017    30      0       6.52042         292.9146
2017    30      1       6.094835        295.6998
2017    30      2       5.412794        296.3784
2017    30      3       5.139546        295.6407
2017    30      4       5.078282        294.8164
2017    30      5       5.022813        293.8456
2017    30      6       5.36691         292.8299
2017    30      7       6.585681        291.907
2017    31      0       6.323131        294.4886
2017    31      1       5.985655        297.6232
2017    31      2       5.527648        298.2544
2017    31      3       5.524648        297.847
2017    31      4       5.593455        297.336
2017    31      5       5.165927        295.3237
2017    31      6       4.365951        291.2633
2017    31      7       4.275521        290.0723
2018    1       0       5.762946        292.585
2018    1       1       4.652241        292.4492
2018    1       2       3.856831        289.1182
2018    1       3       2.975693        278.8943
2018    1       4       2.724616        273.2674
2018    1       5       2.861184        275.0581
2018    1       6       3.398003        280.7839
2018    1       7       4.507343        286.3318
2018    2       0       5.998809        290.7804
2018    2       1       5.851859        292.2796
2018    2       2       4.918875        291.6272
2018    2       3       5.123727        291.8143
2018    2       4       4.716395        289.6335
2018    2       5       19.81851        296.0364
2018    2       6       4.304337        286.3965
2018    2       7       4.969518        288.7111
2018    3       0       4.393634        288.8904
2018    3       1       3.624612        285.4887
2018    3       2       3.452967        284.0395
2018    3       3       3.935864        287.556
2018    3       4       5.247179        291.649
2018    3       5       6.202186        291.4344
2018    3       6       7.760239        289.4041
2018    3       7       7.423426        288.0899
2018    4       0       6.976585        290.3504
2018    4       1       5.897048        292.189
2018    4       2       5.296034        292.9306
2018    4       3       5.159074        292.6689
2018    4       4       4.813701        291.1517
2018    4       5       4.655906        290.048
2018    4       6       7.040682        290.0208
2018    4       7       8.136066        289.1122
2018    5       0       7.380573        292.1154
2018    5       1       6.013878        294.3486
2018    5       2       5.090853        294.5011
2018    5       3       4.75628         293.1053
2018    5       4       4.819923        292.6627
2018    5       5       7.441591        292.8943
2018    5       6       8.123645        291.9734
2018    5       7       8.546785        290.8682
2018    6       0       7.986665        293.6877
2018    6       1       6.445423        295.804
2018    6       2       5.763854        296.0374
2018    6       3       5.537448        295.4754
2018    6       4       5.197889        294.449
2018    6       5       4.803081        292.7516
2018    6       6       4.715534        291.1277
2018    6       7       4.89907         290.6269
2018    7       0       5.7114          293.2891
2018    7       1       5.452327        296.1201
2018    7       2       5.223161        297.1065
2018    7       3       5.257417        296.9555
2018    7       4       5.387824        296.23
2018    7       5       5.669563        295.0341
2018    7       6       5.911267        292.9997
2018    7       7       6.704606        292.5857
2018    8       0       6.221058        295.2743
2018    8       1       5.406432        297.8468
2018    8       2       5.208884        298.5347
2018    8       3       5.219992        297.9882
2018    8       4       5.30542         296.911
2018    8       5       5.362062        294.7632
2018    8       6       4.587779        291.0926
2018    8       7       5.716243        291.378
2018    9       0       5.80195         293.6399
2018    9       1       5.197423        295.5325
2018    9       2       5.840839        298.2465
2018    9       3       7.605093        299.1361
2018    9       4       7.111059        297.7799
2018    9       5       7.679199        296.2804
2018    9       6       8.60541         294.7924
2018    9       7       7.795536        293.2751
2018    10      0       7.161991        294.6378
2018    10      1       6.920995        297.1847
2018    10      2       7.275758        298.4435
2018    10      3       6.752992        297.863
2018    10      4       7.05253         297.2765
2018    10      5       9.869695        294.4062
2018    10      6       8.640446        291.8378
2018    10      7       8.292788        290.2809
2018    11      0       7.988776        292.4394
2018    11      1       7.689566        296.0726
2018    11      2       7.707815        297.3478
2018    11      3       7.407347        296.8336
2018    11      4       7.080243        296.2546
2018    11      5       7.507016        295.6729
2018    11      6       7.647405        294.2365
2018    11      7       7.741629        291.5147
2018    12      0       7.418           294.579
2018    12      1       6.907288        298.0291
2018    12      2       7.01462         299.322
2018    12      3       7.407413        299.231
2018    12      4       6.810374        298.8611
2018    12      5       7.149438        298.2733
2018    12      6       7.183903        296.7545
2018    12      7       6.852941        293.804
2018    13      0       8.259866        295.9628
2018    13      1       11.20841        296.1786
2018    13      2       10.53308        296.7624
2018    13      3       8.834791        296.9261
2018    13      4       6.270198        293.8159
2018    13      5       4.257077        285.426
2018    13      6       4.124561        283.4316
2018    13      7       4.735846        283.6759
2018    14      0       3.653695        279.2923
2018    14      1       1.664944        233.6987
2018    14      2       2.034482        250.914
2018    14      3       2.480151        263.3434
2018    14      4       3.194066        273.3966
2018    14      5       3.710835        276.8437
2018    14      6       4.203032        278.9851
2018    14      7       4.059149        278.0842
2018    15      0       3.287269        274.9672
2018    15      1       2.87964         271.7577
2018    15      2       2.459394        264.2811
2018    15      3       2.187892        256.0647
2018    15      4       2.817566        270.7323
2018    15      5       4.295252        282.6826
2018    15      6       3.66482         277.2385
2018    15      7       3.979969        277.7351
2018    16      0       3.124873        272.9515
2018    16      1       2.25046         257.8577
2018    16      2       1.966414        248.5044
2018    16      3       2.136469        253.9568
2018    16      4       2.370674        260.4105
2018    16      5       2.127403        252.5628
2018    16      6       2.912866        270.2365
2018    16      7       3.743732        278.4804
2018    17      0       3.303466        276.5478
2018    17      1       2.644337        268.1815
2018    17      2       2.222149        258.0343
2018    17      3       2.228627        257.5279
2018    17      4       2.346592        260.3638
2018    17      5       2.406213        261.7432
2018    17      6       2.979758        273.3421
2018    17      7       3.806761        281.1412
2018    18      0       3.645703        281.3836
2018    18      1       2.557979        268.7184
2018    18      2       2.021988        253.6403
2018    18      3       1.736967        240.8197
2018    18      4       1.670741        237.0345
2018    18      5       1.930583        249.1781
2018    18      6       2.529947        267.5384
2018    18      7       2.627036        269.9559
2018    19      0       2.573304        269.8203
2018    19      1       2.020693        255.1524
2018    19      2       1.888165        249.8261
2018    19      3       1.897085        249.664
2018    19      4       2.104322        257.5128
2018    19      5       2.672456        271.7729
2018    19      6       3.432763        281.8307
2018    19      7       3.866877        284.8599
2018    20      0       3.027652        277.6304
2018    20      1       1.946807        250.4847
2018    20      2       1.765401        242.0316
2018    20      3       2.259343        262.5457
2018    20      4       3.113198        279.8562
2018    20      5       2.963862        276.2723
2018    20      6       3.051002        276.1876
2018    20      7       3.446247        280.2752
2018    21      0       4.346534        287.7374
2018    21      1       3.52185         285.2613
2018    21      2       3.276897        283.4677
2018    21      3       3.26339         283.0589
2018    21      4       3.535909        285.5516
2018    21      5       4.56805         290.0785
2018    21      6       6.724276        291.4073
2018    21      7       7.086675        290.8702
2018    22      0       6.4997          293.1351
2018    22      1       5.293438        295.1015
2018    22      2       4.625776        294.8877
2018    22      3       4.509139        294.0205
2018    22      4       4.733334        294.0228
2018    22      5       5.969852        293.1351
2018    22      6       6.483038        292.2605
2018    22      7       7.013657        290.7917
2018    23      0       6.503637        292.7273
2018    23      1       5.634184        295.7315
2018    23      2       5.08085         296.2523
2018    23      3       4.845631        295.6241
2018    23      4       4.907792        295.1224
2018    23      5       6.317642        292.6782
2018    23      6       7.385415        291.4646
2018    23      7       8.20481         290.0826
2018    24      0       7.687315        292.978
2018    24      1       6.597026        296.1455
2018    24      2       5.865157        297.0592
2018    24      3       5.721445        296.4989
2018    24      4       6.118193        296.2063
2018    24      5       7.793929        293.9584
2018    24      6       9.503232        291.7362
2018    24      7       10.49815        290.6211
2018    25      0       10.21257        293.0799
2018    25      1       9.138036        296.6531
2018    25      2       9.327925        297.275
2018    25      3       9.757753        296.7594
2018    25      4       9.250058        295.8403
2018    25      5       8.960348        294.5717
2018    25      6       9.240423        293.0352
2018    25      7       9.299871        291.9605
2018    26      0       9.396448        293.9169
2018    26      1       8.372991        296.2917
2018    26      2       7.494399        297.3799
2018    26      3       7.137431        297.055
2018    26      4       7.094036        296.4293
2018    26      5       8.175353        294.6759
2018    26      6       8.574165        292.3763
2018    26      7       7.72125         291.2176
2018    27      0       7.911694        292.6732
2018    27      1       8.244391        294.817
2018    27      2       8.590258        296.2293
2018    27      3       8.816279        296.3714
2018    27      4       8.63328         296.0943
2018    27      5       9.416535        293.6707
2018    27      6       9.940196        291.805
2018    27      7       9.462213        291.2245
2018    28      0       9.342183        293.549
2018    28      1       9.269635        295.0017
2018    28      2       8.387899        295.365
2018    28      3       8.338562        295.497
2018    28      4       8.581887        293.628
2018    28      5       8.069612        290.7644
2018    28      6       7.909016        290.0221
2018    28      7       7.98824         289.8393
2018    29      0       6.287289        292.4755
2018    29      1       5.392925        293.6809
2018    29      2       5.618406        294.8208
2018    29      3       6.259333        295.0769
2018    29      4       6.914222        293.1147
2018    29      5       6.869872        290.492
2018    29      6       6.520582        289.6774
2018    29      7       6.872306        289.4453
2018    30      0       6.217225        292.2568
2018    30      1       5.441991        293.732
2018    30      2       4.864477        293.7186
2018    30      3       4.554526        292.3253
2018    30      4       5.038347        293.1188
2018    30      5       5.42079         293.2264
2018    30      6       5.413223        292.4637
2018    30      7       6.538466        292.4943
2018    31      0       7.292417        294.4223
2018    31      1       7.908697        294.924
2018    31      2       8.840492        294.6767
2018    31      3       8.805396        294.0101
2018    31      4       8.163448        292.9431
2018    31      5       8.879849        290.9441
2018    31      6       8.41778         287.7694
2018    31      7       7.428754        286.1284
2019    1       0       7.567135        290.9504
2019    1       1       6.171323        293.799
2019    1       2       5.676817        294.9107
2019    1       3       5.525319        294.6517
2019    1       4       5.619667        294.0471
2019    1       5       5.794717        293.4021
2019    1       6       6.06403         291.1231
2019    1       7       6.44025         289.1917
