####################################################################################################
# Month: 06Jun                                                                                     #
# Station: BGK                                                                                     #
# Frequency: 345 GHz                                                                               #
# Columns are: year    day     segment         tau     Tb (K)                                      #
####################################################################################################
2009    1       0       1.501352        208.818
2009    1       1       2.003533        231.6165
2009    1       2       2.336072        241.9441
2009    1       3       2.930396        253.6423
2009    1       4       3.411015        259.4506
2009    1       5       3.218954        257.9081
2009    1       6       3.035867        255.9028
2009    1       7       2.61664         249.6995
2009    2       0       3.420517        261.4353
2009    2       1       3.376076        261.148
2009    2       2       2.9412          256.2996
2009    2       3       2.459332        257.0469
2009    2       4       2.628432        260.4468
2009    2       5       2.3844          254.8745
2009    2       6       2.224172        250.3544
2009    2       7       2.054614        236.0544
2009    3       0       1.727607        223.6703
2009    3       1       1.681746        222.408
2009    3       2       1.791624        227.5179
2009    3       3       1.751101        225.7146
2009    3       4       1.595378        217.4114
2009    3       5       1.186763        187.0369
2009    3       6       1.752361        223.1561
2009    3       7       2.714312        255.4422
2009    4       0       2.949941        259.7637
2009    4       1       3.240089        263.3334
2009    4       2       3.452412        265.0518
2009    4       3       3.724668        267.0084
2009    4       4       3.45406         265.0245
2009    4       5       3.471017        265.514
2009    4       6       3.999452        269.7581
2009    4       7       4.481906        272.1003
2009    5       0       4.925111        273.2915
2009    5       1       5.517064        274.5177
2009    5       2       6.158415        274.585
2009    5       3       5.862824        272.9479
2009    5       4       4.864351        270.6738
2009    5       5       3.121315        260.1349
2009    5       6       2.815361        255.4386
2009    5       7       2.654059        253.3484
2009    6       0       2.605142        252.516
2009    6       1       2.393018        247.4689
2009    6       2       1.967051        233.9747
2009    6       3       2.019581        235.9501
2009    6       4       2.295077        245.1863
2009    6       5       2.566227        252.0551
2009    6       6       2.789372        255.4613
2009    6       7       2.735836        255.0248
2009    7       0       2.606524        253.1322
2009    7       1       2.528399        251.4276
2009    7       2       2.487575        250.1652
2009    7       3       2.365404        247.3576
2009    7       4       3.100923        259.8929
2009    7       5       4.290193        268.6037
2009    7       6       3.882141        266.5405
2009    7       7       3.797902        265.6225
2009    8       0       4.23806         267.4583
2009    8       1       3.833181        264.9967
2009    8       2       3.590873        262.9571
2009    8       3       3.540102        262.656
2009    8       4       3.276112        260.9421
2009    8       5       3.224898        261.1474
2009    8       6       3.435136        263.3525
2009    8       7       3.47536         263.7041
2009    9       0       4.00031         266.4544
2009    9       1       3.566426        263.1007
2009    9       2       3.313962        260.6861
2009    9       3       3.109311        257.9527
2009    9       4       3.357259        260.4512
2009    9       5       3.633193        263.2884
2009    9       6       4.231439        267.1488
2009    9       7       3.191266        259.8325
2009    10      0       2.558225        250.5377
2009    10      1       2.255557        243.2304
2009    10      2       2.233878        242.0679
2009    10      3       2.356467        244.9119
2009    10      4       2.760067        253.3529
2009    10      5       3.136788        259.2198
2009    10      6       2.356731        245.7203
2009    10      7       2.131865        239.2026
2009    11      0       2.598053        250.276
2009    11      1       3.292731        260.2389
2009    11      2       3.691893        263.141
2009    11      3       4.226452        265.9061
2009    11      4       3.983324        264.8629
2009    11      5       3.060638        256.9511
2009    11      6       2.552792        248.1206
2009    11      7       2.351965        243.1705
2009    12      0       2.073714        234.4428
2009    12      1       1.885652        227.0589
2009    12      2       1.802343        223.6896
2009    12      3       2.109076        235.1309
2009    12      4       2.228472        238.4209
2009    12      5       1.772289        222.2391
2009    12      6       1.766738        222.2985
2009    12      7       1.55309         212.0376
2009    13      0       1.620857        215.8805
2009    13      1       1.883354        227.8274
2009    13      2       2.074474        234.3695
2009    13      3       2.130827        235.5694
2009    13      4       2.224453        238.1718
2009    13      5       2.235393        238.9286
2009    13      6       2.241708        239.5303
2009    13      7       2.247032        239.684
2009    14      0       1.927394        229.0583
2009    14      1       1.814598        224.2916
2009    14      2       1.854229        225.3185
2009    14      3       1.79716         222.2519
2009    14      4       2.115113        234.3997
2009    14      5       2.743698        250.2826
2009    14      6       3.263019        258.3961
2009    14      7       3.817857        263.4788
2009    15      0       3.307304        259.0544
2009    15      1       3.087435        256.3305
2009    15      2       3.219625        258.0982
2009    15      3       3.064554        256.2011
2009    15      4       3.218434        257.9414
2009    15      5       3.48015         260.9636
2009    15      6       3.768977        263.7282
2009    15      7       3.841616        264.289
2009    16      0       3.48448         261.9496
2009    16      1       3.473513        261.9964
2009    16      2       3.479306        261.8865
2009    16      3       4.251618        267.1694
2009    16      4       4.27623         267.9748
2009    16      5       3.817929        265.874
2009    16      6       3.682803        264.6974
2009    16      7       3.369524        261.8453
2009    17      0       3.08161         259.1856
2009    17      1       2.90927         257.3468
2009    17      2       3.118698        260.1387
2009    17      3       3.483619        263.8557
2009    17      4       3.536136        264.2202
2009    17      5       3.821719        266.0435
2009    17      6       4.127672        267.4003
2009    17      7       4.024268        266.45
2009    18      0       3.677642        263.5579
2009    18      1       3.456707        261.0928
2009    18      2       2.840567        253.6355
2009    18      3       2.286113        242.216
2009    18      4       2.016679        233.6042
2009    18      5       1.975408        232.206
2009    18      6       1.901437        228.8277
2009    18      7       1.289575        194.8727
2009    19      0       1.191295        187.8363
2009    19      1       1.073036        177.562
2009    19      2       1.081327        177.866
2009    19      3       1.218359        188.936
2009    19      4       1.404089        202.0639
2009    19      5       1.522473        209.5171
2009    19      6       1.597312        214.1459
2009    19      7       1.650374        216.9963
2009    20      0       1.814626        224.3952
2009    20      1       2.204605        237.9055
2009    20      2       2.161522        237.8342
2009    20      3       1.749408        222.87
2009    20      4       1.953355        230.5323
2009    20      5       3.15003         258.7861
2009    20      6       4.16936         267.8459
2009    20      7       4.085328        268.2958
2009    21      0       4.616017        270.835
2009    21      1       5.647712        273.3795
2009    21      2       5.138931        271.2533
2009    21      3       4.271424        266.5121
2009    21      4       3.257575        258.5967
2009    21      5       2.806367        252.0053
2009    21      6       2.776653        251.3366
2009    21      7       3.328779        258.3823
2009    22      0       2.366822        242.0819
2009    22      1       2.236409        238.8309
2009    22      2       2.339135        241.3081
2009    22      3       2.93059         252.511
2009    22      4       3.119381        254.3859
2009    22      5       3.1842          255.3704
2009    22      6       3.243007        256.355
2009    22      7       3.286319        257.0058
2009    23      0       3.109667        255.0554
2009    23      1       3.486827        259.203
2009    23      2       3.705611        260.9275
2009    23      3       3.644938        260.3903
2009    23      4       3.712677        261.2745
2009    23      5       3.663787        261.2527
2009    23      6       3.899418        262.8958
2009    23      7       4.026838        263.2911
2009    24      0       3.650198        260.5075
2009    24      1       3.864757        261.6363
2009    24      2       3.410372        258.0335
2009    24      3       2.555191        245.3156
2009    24      4       2.61192         246.5725
2009    24      5       2.325427        240.2555
2009    24      6       2.228289        237.8431
2009    24      7       2.351241        241.6177
2009    25      0       2.385594        242.9104
2009    25      1       2.229817        239.2355
2009    25      2       2.096068        234.9549
2009    25      3       1.87876         226.9705
2009    25      4       2.129479        236.744
2009    25      5       2.153429        238.0281
2009    25      6       1.915727        230.4767
2009    25      7       2.043025        235.8459
2009    26      0       2.662496        252.8302
2009    26      1       2.77378         255.4339
2009    26      2       2.691785        253.9524
2009    26      3       2.60933         252.3713
2009    26      4       2.588233        251.8839
2009    26      5       2.612448        252.417
2009    26      6       2.501691        249.9902
2009    26      7       1.875567        230.0456
2009    27      0       1.408493        204.5125
2009    27      1       1.222958        190.9077
2009    27      2       1.190175        188.4756
2009    27      3       1.145698        184.9121
2009    27      4       1.782468        226.6108
2009    27      5       2.43485         249.7634
2009    27      6       2.965212        260.501
2009    27      7       3.350117        265.677
2009    28      0       3.846664        270.2566
2009    28      1       4.228714        272.6547
2009    28      2       4.578405        274.1937
2009    28      3       4.870453        274.592
2009    28      4       4.977878        275.4887
2009    28      5       4.683515        277.4297
2009    28      6       4.824752        278.1971
2009    28      7       4.962814        277.8805
2009    29      0       5.247947        278.4952
2009    29      1       5.498528        278.8676
2009    29      2       6.112222        279.2241
2009    29      3       6.693651        278.4657
2009    29      4       6.300078        278.2151
2009    29      5       6.350266        278.4258
2009    29      6       6.876216        278.7161
2009    29      7       6.488685        278.271
2009    30      0       6.187755        278.0682
2009    30      1       6.174432        278.0376
2009    30      2       6.212466        278.0524
2009    30      3       5.947794        277.8333
2009    30      4       6.468621        278.0044
2009    30      5       6.117579        277.6335
2009    30      6       6.019982        277.459
2009    30      7       5.009954        275.4482
2010    1       0       2.945025        255.7291
2010    1       1       3.099518        258.0583
2010    1       2       3.438929        261.0959
2010    1       3       2.875237        253.1803
2010    1       4       2.334866        241.8878
2010    1       5       2.29706         240.8431
2010    1       6       2.138715        236.5516
2010    1       7       1.752143        222.578
2010    2       0       1.535973        212.3285
2010    2       1       1.402385        204.5293
2010    2       2       1.151457        185.4211
2010    2       3       0.9310071       163.8464
2010    2       4       0.8122747       150.3766
2010    2       5       0.9608955       166.8737
2010    2       6       0.9750414       168.8001
2010    2       7       0.7703871       146.0855
2010    3       0       0.764512        145.6663
2010    3       1       1.219962        191.8877
2010    3       2       1.88003         230.5209
2010    3       3       2.413948        247.8428
2010    3       4       3.463064        263.6091
2010    3       5       3.294407        262.7819
2010    3       6       3.131145        261.6699
2010    3       7       3.465009        265.3317
2010    4       0       3.814011        268.0705
2010    4       1       3.707722        267.1665
2010    4       2       3.575674        265.9526
2010    4       3       3.514428        265.4052
2010    4       4       3.725634        267.1581
2010    4       5       3.772761        268.0346
2010    4       6       3.70251         268.069
2010    4       7       3.963321        270.4138
2010    5       0       4.004497        270.6367
2010    5       1       3.879204        269.8521
2010    5       2       3.542401        267.1799
2010    5       3       3.323177        265.2232
2010    5       4       3.093488        262.6801
2010    5       5       2.893945        259.5808
2010    5       6       3.101954        262.3787
2010    5       7       3.402444        265.7283
2010    6       0       3.268231        265.124
2010    6       1       3.236219        265.3502
2010    6       2       3.363732        266.3018
2010    6       3       3.553612        267.4991
2010    6       4       4.052429        270.3924
2010    6       5       3.672975        268.1201
2010    6       6       3.169341        262.998
2010    6       7       2.286692        245.3275
2010    7       0       1.796223        226.491
2010    7       1       1.793228        226.6697
2010    7       2       2.008479        236.0906
2010    7       3       2.070278        238.8342
2010    7       4       2.032524        237.2722
2010    7       5       2.187684        242.2551
2010    7       6       2.193565        242.7631
2010    7       7       1.916945        233.0344
2010    8       0       1.733641        224.7605
2010    8       1       1.797363        227.4605
2010    8       2       1.950754        233.7576
2010    8       3       2.130694        240.4252
2010    8       4       2.626102        253.0891
2010    8       5       2.944812        258.7135
2010    8       6       3.039269        260.0725
2010    8       7       2.885543        257.7039
2010    9       0       2.491707        250.3593
2010    9       1       2.179257        242.3207
2010    9       2       2.211006        243.2257
2010    9       3       2.785034        254.6448
2010    9       4       3.128559        258.269
2010    9       5       3.144754        258.1106
2010    9       6       3.095256        257.0824
2010    9       7       3.528856        261.4891
2010    10      0       4.079586        265.6783
2010    10      1       3.730989        263.6328
2010    10      2       4.292361        267.7494
2010    10      3       4.617116        269.5741
2010    10      4       3.409022        262.1082
2010    10      5       3.86805         265.833
2010    10      6       3.448052        262.6087
2010    10      7       3.938504        265.6606
2010    11      0       3.068438        258.0959
2010    11      1       2.202978        241.3552
2010    11      2       1.867006        230.4786
2010    11      3       1.781723        226.6825
2010    11      4       1.724494        223.9975
2010    11      5       1.864455        230.2166
2010    11      6       1.952662        233.6917
2010    11      7       1.731916        223.8051
2010    12      0       1.774633        225.5781
2010    12      1       2.525932        250.8891
2010    12      2       3.491349        264.9494
2010    12      3       3.495705        264.269
2010    12      4       3.144507        260.352
2010    12      5       3.731846        265.8475
2010    12      6       4.475499        269.8189
2010    12      7       4.106655        268.2094
2010    13      0       4.066498        268.3058
2010    13      1       4.519271        270.2744
2010    13      2       4.531924        270.0732
2010    13      3       3.976739        267.5258
2010    13      4       4.047837        267.6979
2010    13      5       4.510251        269.2381
2010    13      6       4.692475        269.0916
2010    13      7       4.120244        266.5959
2010    14      0       3.772086        264.6303
2010    14      1       4.143274        267.0231
2010    14      2       3.941804        267.0178
2010    14      3       3.068376        259.5063
2010    14      4       3.107642        261.9984
2010    14      5       3.262446        264.1277
2010    14      6       4.397488        271.2885
2010    14      7       6.012336        274.9675
2010    15      0       5.36176         272.8556
2010    15      1       3.875293        265.7303
2010    15      2       3.230946        259.7396
2010    15      3       1.720333        222.1434
2010    15      4       2.649324        251.4008
2010    15      5       3.343889        260.7245
2010    15      6       2.871487        254.1672
2010    15      7       2.114517        236.7711
2010    16      0       1.251145        194.0951
2010    16      1       1.402775        204.5505
2010    16      2       1.90294         229.9002
2010    16      3       2.479804        247.2146
2010    16      4       2.865858        254.23
2010    16      5       2.783294        252.8063
2010    16      6       1.601766        216.0956
2010    16      7       1.088261        180.5092
2010    17      0       1.256176        194.3112
2010    17      1       1.153527        186.0285
2010    17      2       1.385313        203.7782
2010    17      3       1.386057        204.7451
2010    17      4       1.75634         224.9002
2010    17      5       2.19567         240.9505
2010    17      6       2.57567         250.4665
2010    17      7       2.666688        252.0283
2010    18      0       2.326109        243.8725
2010    18      1       3.303106        263.4857
2010    18      2       4.414183        272.1432
2010    18      3       5.23381         276.7883
2010    18      4       6.200873        279.6735
2010    18      5       6.069192        279.8965
2010    18      6       5.438362        278.4114
2010    18      7       4.202031        273.5118
2010    19      0       4.818536        275.4729
2010    19      1       5.239591        276.8886
2010    19      2       6.155165        276.5912
2010    19      3       5.912157        276.3215
2010    19      4       3.226634        262.7007
2010    19      5       4.786593        270.1418
2010    19      6       4.678687        268.8317
2010    19      7       4.276354        266.949
2010    20      0       4.463111        267.9267
2010    20      1       3.908856        265.5739
2010    20      2       2.703592        252.827
2010    20      3       3.724419        264.2385
2010    20      4       4.092955        266.5702
2010    20      5       4.656735        268.6966
2010    20      6       5.174518        269.7415
2010    20      7       4.528899        267.7226
2010    21      0       4.713034        268.3834
2010    21      1       4.576153        268.4341
2010    21      2       4.785551        269.0783
2010    21      3       4.697878        269.0754
2010    21      4       5.237842        270.7019
2010    21      5       5.342559        271.6904
2010    21      6       4.958478        271.5798
2010    21      7       4.1882          269.1099
2010    22      0       4.059695        268.7754
2010    22      1       4.02237         268.8814
2010    22      2       4.406467        270.5552
2010    22      3       5.235466        272.7985
2010    22      4       5.115995        272.588
2010    22      5       4.059234        268.8979
2010    22      6       3.769968        267.265
2010    22      7       3.74796         266.9101
2010    23      0       3.696205        266.4337
2010    23      1       3.724279        266.9051
2010    23      2       4.80738         271.6649
2010    23      3       5.821665        273.1716
2010    23      4       3.615199        265.6078
2010    23      5       2.962734        258.7446
2010    23      6       2.714879        254.7788
2010    23      7       2.631684        253.3209
2010    24      0       2.494478        250.2718
2010    24      1       2.132452        240.0555
2010    24      2       2.035632        236.5186
2010    24      3       2.132584        239.4356
2010    24      4       2.330335        245.4037
2010    24      5       2.440397        248.2887
2010    24      6       2.454632        249.1847
2010    24      7       2.48019         250.2653
2010    25      0       2.522118        251.5038
2010    25      1       2.494957        251.2056
2010    25      2       2.386577        248.4205
2010    25      3       2.383043        248.153
2010    25      4       2.415894        248.7348
2010    25      5       2.843945        257.1453
2010    25      6       3.220781        262.4985
2010    25      7       3.433509        264.5551
2010    26      0       3.345459        263.451
2010    26      1       3.668494        265.6672
2010    26      2       3.694747        265.1365
2010    26      3       4.059116        267.0954
2010    26      4       3.895604        266.5616
2010    26      5       3.72667         266.0254
2010    26      6       4.076737        268.2748
2010    26      7       4.155627        268.4618
2010    27      0       3.944403        267.1332
2010    27      1       3.717067        265.6138
2010    27      2       3.182299        260.4285
2010    27      3       2.486876        248.0539
2010    27      4       2.43862         246.4521
2010    27      5       2.3403          243.8498
2010    27      6       2.27318         242.348
2010    27      7       2.538278        249.3002
2010    28      0       2.110418        237.3422
2010    28      1       2.070529        235.6165
2010    28      2       2.21943         240.0075
2010    28      3       2.392057        244.8227
2010    28      4       2.541352        248.9243
2010    28      5       2.743745        253.3597
2010    28      6       2.842757        255.5428
2010    28      7       2.920169        257.1457
2010    29      0       3.110551        259.6291
2010    29      1       3.236457        260.7346
2010    29      2       3.137913        259.5065
2010    29      3       3.017737        257.8827
2010    29      4       3.180187        259.6533
2010    29      5       3.783153        265.0449
2010    29      6       3.425863        261.8613
2010    29      7       3.001083        256.9438
2010    30      0       2.84339         254.7695
2010    30      1       2.848167        254.7836
2010    30      2       3.007291        257.0677
2010    30      3       3.260027        260.468
2010    30      4       4.138785        267.5457
2010    30      5       3.476493        263.0136
2010    30      6       3.357468        262.2308
2010    30      7       3.33967         262.2964
2011    1       0       2.733643        250.0583
2011    1       1       2.837798        252.414
2011    1       2       2.890122        253.7673
2011    1       3       2.954584        255.2204
2011    1       4       3.00037         255.6846
2011    1       5       3.091439        256.8311
2011    1       6       3.063268        256.3336
2011    1       7       2.95415         254.768
2011    2       0       2.982098        255.0472
2011    2       1       2.813062        252.6081
2011    2       2       2.768303        251.5313
2011    2       3       3.783597        262.6234
2011    2       4       3.826533        262.5938
2011    2       5       3.109154        255.1555
2011    2       6       2.914522        250.0885
2011    2       7       2.186781        233.1447
2011    3       0       2.84857         248.3393
2011    3       1       2.342801        238.2214
2011    3       2       2.105402        231.5671
2011    3       3       2.446081        241.0293
2011    3       4       2.277765        236.9865
2011    3       5       2.150972        234.0286
2011    3       6       2.142686        234.3174
2011    3       7       2.214263        236.6886
2011    4       0       1.99285         229.3396
2011    4       1       1.843983        223.6765
2011    4       2       2.078196        233.1072
2011    4       3       1.233129        190.6021
2011    4       4       0.8575822       155.8553
2011    4       5       0.9058586       161.1608
2011    4       6       0.6849225       135.6578
2011    4       7       0.9055634       162.0948
2011    5       0       1.429948        206.4788
2011    5       1       1.522119        212.2357
2011    5       2       3.191163        257.7668
2011    5       3       4.596242        265.6618
2011    5       4       2.73611         249.2528
2011    5       5       2.234838        237.3572
2011    5       6       1.111583        178.3427
2011    5       7       0.657715        128.6106
2011    6       0       0.8318651       149.6444
2011    6       1       0.9546982       162.5286
2011    6       2       0.9550795       162.2498
2011    6       3       0.9730898       163.9426
2011    6       4       0.9451235       161.3194
2011    6       5       0.8616862       152.9051
2011    6       6       0.9606267       163.2425
2011    6       7       1.509917        204.9699
2011    7       0       1.493165        204.2877
2011    7       1       1.463889        202.6075
2011    7       2       1.423433        199.9568
2011    7       3       1.652501        212.743
2011    7       4       1.767524        218.2162
2011    7       5       1.772295        218.4843
2011    7       6       1.720812        216.1313
2011    7       7       1.507249        204.5542
2011    8       0       1.279781        189.4193
2011    8       1       1.51458         204.267
2011    8       2       1.441432        199.5919
2011    8       3       1.406584        197.4629
2011    8       4       1.376603        195.7053
2011    8       5       1.27873         189.8518
2011    8       6       1.279076        190.2525
2011    8       7       1.33925         194.5584
2011    9       0       1.453277        202.3474
2011    9       1       1.595211        210.6149
2011    9       2       1.723896        216.3536
2011    9       3       2.405266        239.0181
2011    9       4       2.156056        232.6217
2011    9       5       2.145772        233.3609
2011    9       6       2.061734        230.7848
2011    9       7       2.071359        231.3879
2011    10      0       2.71015         246.8472
2011    10      1       3.635264        258.4354
2011    10      2       2.888484        251.3275
2011    10      3       3.182015        256.4996
2011    10      4       4.175304        266.4725
2011    10      5       4.053914        267.0076
2011    10      6       3.33884         260.8587
2011    10      7       2.816639        253.5854
2011    11      0       2.853761        254.7473
2011    11      1       2.324329        243.5193
2011    11      2       2.047465        235.1793
2011    11      3       1.872782        228.5395
2011    11      4       1.730646        222.6725
2011    11      5       1.908556        230.1826
2011    11      6       2.273785        242.2142
2011    11      7       2.290589        242.7372
2011    12      0       2.297681        242.7803
2011    12      1       2.266456        241.7567
2011    12      2       2.212911        240.0621
2011    12      3       2.223031        240.2658
2011    12      4       2.84399         253.9538
2011    12      5       3.596724        263.3937
2011    12      6       3.2741          260.9962
2011    12      7       3.401383        262.8966
2011    13      0       3.467803        264.2684
2011    13      1       4.13144         269.6134
2011    13      2       5.34689         273.8022
2011    13      3       4.762669        272.83
2011    13      4       5.657067        274.5644
2011    13      5       3.386188        263.2638
2011    13      6       2.98288         257.8936
2011    13      7       2.697659        252.8782
2011    14      0       2.726735        253.4743
2011    14      1       3.37399         262.0665
2011    14      2       3.579629        263.8332
2011    14      3       2.975439        256.6405
2011    14      4       2.8877          254.8148
2011    14      5       3.132424        257.6952
2011    14      6       3.030595        255.8487
2011    14      7       2.892189        253.6503
2011    15      0       2.230305        240.0698
2011    15      1       1.707212        220.7994
2011    15      2       1.609224        216.0671
2011    15      3       1.76571         223.493
2011    15      4       1.917894        229.9731
2011    15      5       1.825162        226.0405
2011    15      6       2.471715        246.5311
2011    15      7       3.026704        255.7091
2011    16      0       2.386355        243.7897
2011    16      1       2.239493        240.0435
2011    16      2       2.652811        249.399
2011    16      3       3.751138        262.8939
2011    16      4       4.741034        268.15
2011    16      5       4.811124        268.7215
2011    16      6       4.754058        268.8804
2011    16      7       4.242023        267.4839
2011    17      0       3.765949        265.3121
2011    17      1       3.038037        258.2805
2011    17      2       3.140999        259.5939
2011    17      3       3.636819        264.8245
2011    17      4       3.594413        265.2493
2011    17      5       3.972711        268.0352
2011    17      6       5.285371        271.7907
2011    17      7       5.361302        271.4531
2011    18      0       4.184808        268.0084
2011    18      1       4.001942        267.1778
2011    18      2       4.216488        267.9892
2011    18      3       3.378279        261.4817
2011    18      4       3.390983        261.5665
2011    18      5       2.979013        256.6609
2011    18      6       2.922176        255.7165
2011    18      7       2.69045         252.2125
2011    19      0       2.401968        246.7166
2011    19      1       2.360505        246.2504
2011    19      2       2.2883          244.3236
2011    19      3       2.507976        249.777
2011    19      4       2.23286         242.6462
2011    19      5       1.905234        231.413
2011    19      6       1.926282        232.2375
2011    19      7       1.667644        220.2119
2011    20      0       1.393965        204.4096
2011    20      1       1.487019        210.5446
2011    20      2       1.749307        224.1598
2011    20      3       1.922117        231.063
2011    20      4       1.839764        227.3879
2011    20      5       1.703179        221.0226
2011    20      6       1.632007        217.1131
2011    20      7       1.782284        223.8873
2011    21      0       1.985734        231.9298
2011    21      1       1.942311        229.9254
2011    21      2       1.737765        220.5296
2011    21      3       1.627464        214.4912
2011    21      4       1.676056        216.7391
2011    21      5       1.783647        221.6328
2011    21      6       1.778474        221.2725
2011    21      7       1.619258        213.2709
2011    22      0       1.689301        216.77
2011    22      1       1.755827        220.0252
2011    22      2       1.858666        224.6932
2011    22      3       2.011562        231.1979
2011    22      4       2.144371        235.9107
2011    22      5       2.300214        240.4387
2011    22      6       2.32743         241.2024
2011    22      7       2.222824        238.6254
2011    23      0       2.266978        240.003
2011    23      1       2.334882        241.8774
2011    23      2       2.261752        240.0319
2011    23      3       2.271312        240.4028
2011    23      4       2.588077        247.8969
2011    23      5       2.643616        249.2851
2011    23      6       2.654418        249.5767
2011    23      7       2.57193         247.7312
2011    24      0       2.392047        243.9029
2011    24      1       2.293819        241.6898
2011    24      2       2.357494        243.3113
2011    24      3       2.818851        252.357
2011    24      4       3.462227        260.3998
2011    24      5       3.542262        261.2706
2011    24      6       3.043202        256.0887
2011    24      7       2.937276        254.4915
2011    25      0       2.652336        249.518
2011    25      1       2.626529        248.9392
2011    25      2       2.903103        254.065
2011    25      3       3.25219         259.171
2011    25      4       3.351203        260.6971
2011    25      5       3.099407        258.0451
2011    25      6       3.325542        260.4865
2011    25      7       3.320918        260.5811
2011    26      0       2.945579        256.0798
2011    26      1       2.902124        255.4675
2011    26      2       3.084409        257.8998
2011    26      3       3.409724        261.1419
2011    26      4       2.850409        254.5955
2011    26      5       2.552732        249.7007
2011    26      6       2.261555        242.3694
2011    26      7       2.195927        239.9346
2011    27      0       2.067837        235.6514
2011    27      1       2.087317        236.0559
2011    27      2       2.371039        244.3628
2011    27      3       2.607677        249.9384
2011    27      4       3.002488        256.0769
2011    27      5       3.86831         264.5089
2011    27      6       4.264193        266.8287
2011    27      7       3.465774        261.3286
2011    28      0       3.148816        257.9901
2011    28      1       2.921014        254.8439
2011    28      2       2.960214        255.2437
2011    28      3       3.38227         260.0688
2011    28      4       3.472106        260.7371
2011    28      5       3.751105        263.0638
2011    28      6       4.388573        266.8704
2011    28      7       4.145766        265.6082
2011    29      0       3.344701        259.2503
2011    29      1       3.240714        257.7707
2011    29      2       3.086248        255.5216
2011    29      3       2.845674        251.8871
2011    29      4       3.293006        257.8102
2011    29      5       2.862954        252.1441
2011    29      6       2.555001        246.7312
2011    29      7       2.029705        232.7031
2011    30      0       1.969256        230.2935
2011    30      1       2.031311        232.4749
2011    30      2       1.966485        230.5391
2011    30      3       1.910711        228.7749
2011    30      4       2.161816        237.6369
2011    30      5       2.243718        240.9217
2011    30      6       2.252983        241.5605
2011    30      7       2.191701        239.6472
2012    1       0       1.395311        205.6841
2012    1       1       1.448571        209.1449
2012    1       2       1.47443         210.3876
2012    1       3       1.459984        209.4317
2012    1       4       1.574507        216.1585
2012    1       5       1.764067        225.6881
2012    1       6       1.894545        231.3901
2012    1       7       1.893192        231.3859
2012    2       0       1.715065        223.4058
2012    2       1       1.530478        213.756
2012    2       2       1.507686        212.2777
2012    2       3       1.551998        214.6097
2012    2       4       1.564171        215.4074
2012    2       5       1.540295        214.0216
2012    2       6       1.457011        208.9122
2012    2       7       1.424597        207.4453
2012    3       0       1.414878        207.533
2012    3       1       1.409279        207.4544
2012    3       2       1.468686        211.3038
2012    3       3       1.555987        216.3828
2012    3       4       1.676963        223.0619
2012    3       5       1.899604        233.4043
2012    3       6       1.954036        235.4365
2012    3       7       1.750193        226.9251
2012    4       0       1.727592        225.6457
2012    4       1       1.697434        223.729
2012    4       2       1.74005         225.3191
2012    4       3       1.85361         229.928
2012    4       4       2.294559        244.9058
2012    4       5       1.973608        233.4829
2012    4       6       1.649389        218.0397
2012    4       7       1.782241        224.0384
2012    5       0       1.18502         186.0071
2012    5       1       0.9971246       169.1341
2012    5       2       1.268459        192.0882
2012    5       3       2.835148        249.6378
2012    5       4       2.323696        239.1285
2012    5       5       2.03119         230.7119
2012    5       6       2.459184        243.0288
2012    5       7       3.120503        254.2116
2012    6       0       3.830241        260.8914
2012    6       1       2.906379        251.5654
2012    6       2       3.108039        254.0981
2012    6       3       3.852078        260.2943
2012    6       4       3.34569         256.0694
2012    6       5       3.062976        252.6871
2012    6       6       3.695008        259.161
2012    6       7       3.12225         253.7019
2012    7       0       2.761039        248.3806
2012    7       1       3.057757        253.9139
2012    7       2       3.136895        255.362
2012    7       3       3.495846        259.5582
2012    7       4       2.568435        247.1637
2012    7       5       2.623531        248.7186
2012    7       6       2.752917        251.3161
2012    7       7       2.625042        248.518
2012    8       0       2.160977        237.12
2012    8       1       2.417691        244.1228
2012    8       2       3.4236          259.4636
2012    8       3       3.468679        259.5302
2012    8       4       3.642851        261.7566
2012    8       5       3.594273        261.862
2012    8       6       3.225031        259.0869
2012    8       7       2.916598        256.28
2012    9       0       2.770601        254.9111
2012    9       1       2.550569        250.9831
2012    9       2       2.225048        242.5506
2012    9       3       2.169398        240.5388
2012    9       4       2.462152        248.0917
2012    9       5       2.555646        250.341
2012    9       6       2.754141        254.3066
2012    9       7       2.387124        247.7094
2012    10      0       2.693243        254.5967
2012    10      1       2.767473        256.0963
2012    10      2       2.491074        249.8548
2012    10      3       2.060802        237.2981
2012    10      4       2.113156        238.7817
2012    10      5       2.206492        241.621
2012    10      6       1.908012        231.9817
2012    10      7       1.453939        209.7217
2012    11      0       1.29146         198.5466
2012    11      1       1.239568        194.5355
2012    11      2       1.293153        198.4
2012    11      3       1.350595        202.288
2012    11      4       1.530605        213.4583
2012    11      5       2.035629        236.3645
2012    11      6       2.129884        239.594
2012    11      7       2.009579        235.4141
2012    12      0       1.748975        224.5869
2012    12      1       1.560728        214.7207
2012    12      2       1.462288        208.5907
2012    12      3       1.419702        205.5673
2012    12      4       1.900727        229.5819
2012    12      5       2.159701        238.9847
2012    12      6       2.2893          242.8534
2012    12      7       2.260162        241.5939
2012    13      0       1.862035        227.8456
2012    13      1       1.590337        214.8214
2012    13      2       1.583205        214.0308
2012    13      3       1.7965          223.9452
2012    13      4       1.953527        230.8808
2012    13      5       2.070787        235.89
2012    13      6       2.271769        242.0985
2012    13      7       2.393686        244.7526
2012    14      0       2.239885        240.8223
2012    14      1       2.173827        238.6887
2012    14      2       2.230894        239.9614
2012    14      3       2.245913        240.4973
2012    14      4       2.183401        238.927
2012    14      5       2.371176        243.0659
2012    14      6       2.123273        236.1309
2012    14      7       1.737813        220.9168
2012    15      0       1.615439        215.0296
2012    15      1       1.663001        217.332
2012    15      2       1.618353        214.531
2012    15      3       1.603313        213.3523
2012    15      4       1.771402        222.3306
2012    15      5       1.809967        224.5657
2012    15      6       1.809725        223.9487
2012    15      7       1.654391        216.23
2012    16      0       1.651467        216.484
2012    16      1       1.87197         227.7423
2012    16      2       2.105592        236.0907
2012    16      3       2.40192         243.6203
2012    16      4       2.730272        250.9625
2012    16      5       3.007875        255.0976
2012    16      6       3.110382        256.408
2012    16      7       2.742599        250.4918
2012    17      0       2.382973        242.4079
2012    17      1       2.582653        246.5965
2012    17      2       3.290784        257.4965
2012    17      3       2.561903        247.1659
2012    17      4       2.368172        243.4625
2012    17      5       2.358195        243.9709
2012    17      6       2.324227        243.8772
2012    17      7       2.367297        245.1156
2012    18      0       2.458673        247.1339
2012    18      1       2.67699         251.1273
2012    18      2       2.93225         254.498
2012    18      3       3.575337        260.9413
2012    18      4       3.11048         256.7264
2012    18      5       2.994266        255.6825
2012    18      6       2.625602        249.5095
2012    18      7       2.188939        238.5525
2012    19      0       1.733639        221.5703
2012    19      1       1.767642        223.1879
2012    19      2       2.013176        233.4897
2012    19      3       2.371213        244.5826
2012    19      4       2.649877        249.914
2012    19      5       3.118392        257.2008
2012    19      6       3.460066        261.0093
2012    19      7       3.064327        256.6627
2012    20      0       2.743899        252.2128
2012    20      1       2.480363        246.4817
2012    20      2       2.091496        235.0782
2012    20      3       1.535428        210.4802
2012    20      4       1.591316        213.9654
2012    20      5       1.659791        218.1908
2012    20      6       1.645256        217.7107
2012    20      7       1.550653        212.7985
2012    21      0       1.304025        197.4157
2012    21      1       1.369012        201.9353
2012    21      2       1.418477        205.2512
2012    21      3       1.693011        220.5894
2012    21      4       2.019552        234.8142
2012    21      5       2.19656         241.0212
2012    21      6       2.393611        246.6189
2012    21      7       2.634501        251.9781
2012    22      0       2.642902        252.4756
2012    22      1       2.490004        249.439
2012    22      2       2.426302        247.9266
2012    22      3       2.468198        249.0451
2012    22      4       2.992233        258.9228
2012    22      5       3.691796        266.9871
2012    22      6       5.007401        272.6046
2012    22      7       3.680973        266.8152
2012    23      0       3.04943         260.9476
2012    23      1       3.039697        261.0554
2012    23      2       3.734089        267.4681
2012    23      3       4.515645        270.8706
2012    23      4       4.732421        271.2521
2012    23      5       4.829311        271.8333
2012    23      6       4.227233        270.1008
2012    23      7       4.218513        269.3594
2012    24      0       4.332012        268.9641
2012    24      1       4.367451        268.5819
2012    24      2       4.553549        268.6851
2012    24      3       4.799266        269.4077
2012    24      4       4.718289        269.4391
2012    24      5       4.503647        269.2697
2012    24      6       4.425562        269.6084
2012    24      7       4.414566        269.9211
2012    25      0       3.786796        266.8126
2012    25      1       3.716604        266.5085
2012    25      2       3.117974        260.9995
2012    25      3       2.647819        254.064
2012    25      4       2.709994        255.5917
2012    25      5       2.619334        254.6122
2012    25      6       2.564764        253.8728
2012    25      7       2.535494        253.1989
2012    26      0       2.436513        250.6406
2012    26      1       2.688839        255.379
2012    26      2       2.954174        259.0806
2012    26      3       3.217324        261.8462
2012    26      4       3.489331        264.204
2012    26      5       4.714874        270.6365
2012    26      6       4.459498        269.6987
2012    26      7       4.247205        268.4962
2012    27      0       3.582179        264.4738
2012    27      1       3.423707        263.2442
2012    27      2       3.064706        258.946
2012    27      3       2.527813        249.2074
2012    27      4       2.37704         245.8864
2012    27      5       2.388356        246.795
2012    27      6       2.461757        248.7905
2012    27      7       2.370956        246.3254
2012    28      0       2.36291         246.0407
2012    28      1       2.237567        242.8293
2012    28      2       2.259381        243.6705
2012    28      3       2.41713         247.913
2012    28      4       2.678113        254.1136
2012    28      5       2.803838        257.1491
2012    28      6       2.928259        258.9572
2012    28      7       2.914866        258.2278
2012    29      0       2.35198         246.4295
2012    29      1       2.084008        237.5539
2012    29      2       2.427129        246.6286
2012    29      3       4.001118        265.7151
2012    29      4       4.301673        267.5136
2012    29      5       3.702747        264.6966
2012    29      6       3.061347        258.3515
2012    29      7       2.755905        253.2964
2012    30      0       2.360793        245.1223
2012    30      1       2.393193        246.022
2012    30      2       2.376845        245.5613
2012    30      3       2.204872        240.9306
2012    30      4       2.602279        250.8291
2012    30      5       2.770138        254.7678
2012    30      6       2.886865        257.1843
2012    30      7       2.966102        258.0365
2013    1       0       3.102865        255.937
2013    1       1       3.098319        255.7363
2013    1       2       3.135314        255.9608
2013    1       3       3.160962        256.3501
2013    1       4       3.282935        257.546
2013    1       5       3.227144        256.7461
2013    1       6       3.069015        254.6597
2013    1       7       2.841166        251.429
2013    2       0       2.732807        249.4045
2013    2       1       2.54662         245.3984
2013    2       2       2.117513        233.8406
2013    2       3       1.846724        224.3968
2013    2       4       2.611513        247.4256
2013    2       5       2.909447        253.7424
2013    2       6       3.086983        256.6928
2013    2       7       2.331177        242.9026
2013    3       0       2.506778        247.804
2013    3       1       2.897733        256.556
2013    3       2       4.998315        272.8468
2013    3       3       5.695057        276.3738
2013    3       4       5.829935        276.2228
2013    3       5       5.974663        276.3998
2013    3       6       6.349545        276.8305
2013    3       7       6.687748        276.4657
2013    4       0       5.678709        275.4622
2013    4       1       5.738716        275.6969
2013    4       2       6.280238        275.5927
2013    4       3       6.451897        274.8314
2013    4       4       6.142352        273.5756
2013    4       5       6.234933        274.1151
2013    4       6       6.073999        274.2103
2013    4       7       5.553144        272.9045
2013    5       0       5.044753        271.9122
2013    5       1       4.923449        271.3161
2013    5       2       5.048307        271.4051
2013    5       3       5.217141        271.8591
2013    5       4       5.42931         272.1754
2013    5       5       5.86036         272.8023
2013    5       6       5.215898        271.5659
2013    5       7       4.413016        269.0929
2013    6       0       3.742571        265.0479
2013    6       1       3.377983        261.7677
2013    6       2       3.467595        262.7833
2013    6       3       3.393476        262.7762
2013    6       4       3.593328        264.4685
2013    6       5       4.785029        270.2691
2013    6       6       4.670643        269.6562
2013    6       7       3.492116        263.8082
2013    7       0       3.473273        263.4244
2013    7       1       2.943258        257.0978
2013    7       2       3.202387        260.1028
2013    7       3       3.59974         263.7491
2013    7       4       4.157351        267.1759
2013    7       5       4.53446         269.1919
2013    7       6       4.678548        270.1963
2013    7       7       4.602976        270.744
2013    8       0       4.445749        270.3187
2013    8       1       3.904696        266.6829
2013    8       2       4.116663        268.9313
2013    8       3       4.979593        272.5738
2013    8       4       5.167934        272.3473
2013    8       5       5.000035        271.9419
2013    8       6       5.537046        272.7415
2013    8       7       5.945194        273.3354
2013    9       0       5.367782        272.7627
2013    9       1       4.109524        269.1701
2013    9       2       4.654872        271.3685
2013    9       3       4.554753        271.3881
2013    9       4       4.355617        270.3229
2013    9       5       3.910871        267.5837
2013    9       6       3.918127        267.8913
2013    9       7       3.885713        268.014
2013    10      0       4.240998        269.7138
2013    10      1       4.477768        270.5545
2013    10      2       4.691096        271.5818
2013    10      3       4.381991        270.492
2013    10      4       4.351884        270.8608
2013    10      5       4.085242        271.1684
2013    10      6       4.132252        271.7775
2013    10      7       4.354567        272.296
2013    11      0       4.088421        271.0672
2013    11      1       3.674733        268.5436
2013    11      2       3.467104        266.1104
2013    11      3       3.206708        262.8709
2013    11      4       3.37984         265.0232
2013    11      5       3.547806        267.4742
2013    11      6       3.505718        267.5752
2013    11      7       3.58895         268.1004
2013    12      0       3.442844        266.3475
2013    12      1       3.259171        263.2634
2013    12      2       3.330792        262.9322
2013    12      3       3.32814         262.502
2013    12      4       3.504063        263.5527
2013    12      5       3.527017        264.2096
2013    12      6       3.293539        262.7383
2013    12      7       2.995433        259.499
2013    13      0       2.657936        254.33
2013    13      1       2.912292        258.7362
2013    13      2       3.30807         263.4875
2013    13      3       3.334164        263.5914
2013    13      4       3.900427        267.5305
2013    13      5       4.57534         270.7207
2013    13      6       4.424197        270.437
2013    13      7       3.717752        267.0164
2013    14      0       3.063422        261.4879
2013    14      1       2.120276        240.5902
2013    14      2       1.842674        229.5934
2013    14      3       1.896375        231.5178
2013    14      4       1.909744        231.9988
2013    14      5       1.806059        227.6562
2013    14      6       1.937795        233.4043
2013    14      7       2.058244        238.331
2013    15      0       1.993377        235.6316
2013    15      1       1.825548        227.862
2013    15      2       2.193859        241.6234
2013    15      3       2.925654        257.9066
2013    15      4       3.293349        262.6137
2013    15      5       3.012078        259.2722
2013    15      6       2.442694        248.0345
2013    15      7       1.575865        214.5884
2013    16      0       1.334878        199.2804
2013    16      1       1.481479        209.0882
2013    16      2       1.524698        211.4649
2013    16      3       1.426801        205.2858
2013    16      4       1.828035        226.4874
2013    16      5       2.120945        237.9016
2013    16      6       2.688126        252.3177
2013    16      7       3.619544        263.558
2013    17      0       4.448615        268.2845
2013    17      1       4.849678        269.3986
2013    17      2       5.025866        269.8484
2013    17      3       4.895006        269.4632
2013    17      4       4.923548        269.9255
2013    17      5       4.813656        270.2514
2013    17      6       4.244252        269.1108
2013    17      7       4.239721        269.3208
2013    18      0       3.91549         267.4509
2013    18      1       3.55091         264.719
2013    18      2       3.555621        264.3415
2013    18      3       3.850187        266.4886
2013    18      4       3.667146        266.7524
2013    18      5       3.652208        267.0756
2013    18      6       3.792292        267.0662
2013    18      7       3.764597        265.9075
2013    19      0       3.356215        262.4521
2013    19      1       3.19841         260.6093
2013    19      2       3.275684        261.216
2013    19      3       3.485962        263.2265
2013    19      4       3.819011        265.884
2013    19      5       3.84216         266.3103
2013    19      6       4.261941        268.4961
2013    19      7       4.770705        270.4544
2013    20      0       4.543904        270.1842
2013    20      1       3.419689        263.2147
2013    20      2       3.410213        262.9751
2013    20      3       3.536592        263.8032
2013    20      4       3.601293        264.3741
2013    20      5       3.79424         265.6206
2013    20      6       3.680648        264.858
2013    20      7       3.825381        265.62
2013    21      0       4.060034        266.3404
2013    21      1       3.592088        262.8854
2013    21      2       3.187778        258.9349
2013    21      3       3.204742        259.1372
2013    21      4       2.718927        252.8453
2013    21      5       2.611029        251.4304
2013    21      6       2.443281        247.3999
2013    21      7       2.074343        236.6576
2013    22      0       1.910785        230.798
2013    22      1       1.775367        225.1314
2013    22      2       1.739976        223.4581
2013    22      3       1.843587        227.8735
2013    22      4       2.421454        246.9784
2013    22      5       2.544336        250.1491
2013    22      6       2.603938        250.8935
2013    22      7       2.361865        245.3981
2013    23      0       2.502093        248.777
2013    23      1       2.704431        253.0505
2013    23      2       2.557845        249.9921
2013    23      3       2.583584        250.074
2013    23      4       2.854978        255.0254
2013    23      5       3.167235        259.936
2013    23      6       3.861643        266.6827
2013    23      7       3.757071        266.9579
2013    24      0       3.811459        267.8328
2013    24      1       4.439682        270.6286
2013    24      2       5.427461        272.6209
2013    24      3       5.263387        271.7894
2013    24      4       5.378487        271.8453
2013    24      5       5.982259        273.4688
2013    24      6       6.350209        274.0863
2013    24      7       5.257017        272.3694
2013    25      0       4.639498        270.1616
2013    25      1       4.759685        269.9733
2013    25      2       5.156655        270.8243
2013    25      3       5.008342        270.7069
2013    25      4       5.148559        271.4306
2013    25      5       4.381772        270.1864
2013    25      6       4.339592        270.5798
2013    25      7       5.230037        273.3305
2013    26      0       3.894215        267.8352
2013    26      1       3.956717        268.8589
2013    26      2       5.318993        274.0903
2013    26      3       4.846762        272.7518
2013    26      4       4.832454        270.3879
2013    26      5       2.261834        240.5899
2013    26      6       2.406061        242.6841
2013    26      7       2.535361        244.1787
2013    27      0       3.445866        258.2789
2013    27      1       3.210204        256.1891
2013    27      2       2.905959        252.5134
2013    27      3       3.814089        262.5245
2013    27      4       2.646259        249.1633
2013    27      5       2.755275        251.5623
2013    27      6       3.349913        259.3905
2013    27      7       3.588552        261.1205
2013    28      0       3.286669        257.894
2013    28      1       3.26119         257.3442
2013    28      2       3.051373        254.6276
2013    28      3       3.387425        258.5433
2013    28      4       3.15031         255.922
2013    28      5       3.003868        254.2634
2013    28      6       2.893343        253.0573
2013    28      7       3.145537        256.2472
2013    29      0       3.050483        254.8052
2013    29      1       2.835362        251.5266
2013    29      2       2.619927        247.7745
2013    29      3       2.477643        245.2815
2013    29      4       2.266989        241.0947
2013    29      5       2.230211        241.0158
2013    29      6       2.222102        241.1867
2013    29      7       2.074746        236.5337
2013    30      0       1.595456        215.8089
2013    30      1       1.635101        217.5689
2013    30      2       1.633901        217.3049
2013    30      3       1.615907        216.0467
2013    30      4       2.034975        234.2415
2013    30      5       2.195736        239.692
2013    30      6       2.319962        242.8761
2013    30      7       2.428636        245.1511
2014    1       0       4.262636        268.3467
2014    1       1       3.972971        266.1469
2014    1       2       4.120927        266.4769
2014    1       3       3.787095        264.1209
2014    1       4       4.346296        267.5042
2014    1       5       5.075505        270.1584
2014    1       6       4.09329         266.7977
2014    1       7       4.10954         266.6816
2014    2       0       4.165968        267.0402
2014    2       1       4.143317        266.8428
2014    2       2       4.558622        268.1772
2014    2       3       4.21483         266.4786
2014    2       4       4.302182        267.0137
2014    2       5       4.181402        266.5551
2014    2       6       3.453026        261.939
2014    2       7       3.255008        260.9016
2014    3       0       3.217995        260.9141
2014    3       1       3.269271        261.6111
2014    3       2       3.344709        262.32
2014    3       3       3.645503        264.6146
2014    3       4       3.849769        266.0172
2014    3       5       4.024931        266.7077
2014    3       6       4.580151        268.0914
2014    3       7       4.018611        265.0346
2014    4       0       3.932369        264.4793
2014    4       1       3.823551        263.939
2014    4       2       3.934772        265.0379
2014    4       3       3.499945        262.3096
2014    4       4       3.565212        263.2948
2014    4       5       3.74027         264.9691
2014    4       6       3.597918        263.8708
2014    4       7       2.862639        255.7674
2014    5       0       2.642863        251.9636
2014    5       1       2.463713        248.231
2014    5       2       2.426448        246.765
2014    5       3       2.191136        240.3341
2014    5       4       2.342299        244.3429
2014    5       5       2.730124        252.883
2014    5       6       2.964576        256.6655
2014    5       7       2.804525        254.2998
2014    6       0       2.610343        251.1705
2014    6       1       2.418963        247.0468
2014    6       2       2.266774        243.2686
2014    6       3       2.113929        239.0948
2014    6       4       2.181593        241.6794
2014    6       5       2.238467        244.0157
2014    6       6       2.151745        241.7782
2014    6       7       1.959954        235.0457
2014    7       0       1.795864        228.2225
2014    7       1       1.740223        225.4901
2014    7       2       1.821743        228.9361
2014    7       3       1.942552        233.8087
2014    7       4       1.922256        232.7949
2014    7       5       1.838754        229.1531
2014    7       6       1.879874        231.3147
2014    7       7       1.903694        232.7038
2014    8       0       2.035915        238.0832
2014    8       1       2.427579        249.6789
2014    8       2       2.85244         258.5096
2014    8       3       3.120337        262.1868
2014    8       4       3.22516         263.1354
2014    8       5       3.518664        265.2759
2014    8       6       3.517627        265.339
2014    8       7       3.271138        262.7977
2014    9       0       3.0827          261.1548
2014    9       1       3.115189        261.6595
2014    9       2       3.337449        263.8095
2014    9       3       3.555869        265.5543
2014    9       4       3.563244        265.4939
2014    9       5       3.636805        265.8736
2014    9       6       3.796112        266.5891
2014    9       7       4.127485        268.0734
2014    10      0       4.335252        268.4956
2014    10      1       4.216739        268.4941
2014    10      2       4.935121        271.0561
2014    10      3       3.76211         266.132
2014    10      4       3.212754        261.5985
2014    10      5       3.902568        267.5619
2014    10      6       3.949249        268.0779
2014    10      7       3.016529        259.4773
2014    11      0       2.909661        258.1103
2014    11      1       2.692155        254.7018
2014    11      2       2.570626        252.0437
2014    11      3       2.509518        250.5979
2014    11      4       2.383022        247.7825
2014    11      5       2.410494        248.9084
2014    11      6       2.500615        251.606
2014    11      7       2.278449        246.2071
2014    12      0       2.134621        242.0689
2014    12      1       2.246505        245.5747
2014    12      2       2.322269        247.5207
2014    12      3       2.567421        253.3225
2014    12      4       3.890864        268.7481
2014    12      5       4.613177        272.217
2014    12      6       4.41114         271.4917
2014    12      7       3.547057        266.7915
2014    13      0       3.583762        267.4856
2014    13      1       3.897474        269.5918
2014    13      2       3.826088        268.6965
2014    13      3       3.474352        266.022
2014    13      4       4.558822        272.1284
2014    13      5       5.438517        274.6843
2014    13      6       5.970501        275.6401
2014    13      7       6.300089        275.732
2014    14      0       5.361176        274.1054
2014    14      1       4.549377        271.9348
2014    14      2       4.030079        268.9657
2014    14      3       4.791518        271.0068
2014    14      4       4.612979        270.4344
2014    14      5       4.651401        270.619
2014    14      6       5.100195        271.6797
2014    14      7       4.933914        271.0953
2014    15      0       4.228684        269.2053
2014    15      1       3.927233        268.4955
2014    15      2       3.867698        268.3762
2014    15      3       3.80009         267.6871
2014    15      4       4.239241        269.7385
2014    15      5       5.962221        273.9679
2014    15      6       6.422503        274.4958
2014    15      7       6.060157        273.9854
2014    16      0       4.868106        272.1442
2014    16      1       5.198303        273.3522
2014    16      2       5.175172        273.3524
2014    16      3       4.633618        271.4877
2014    16      4       5.37773         273.4668
2014    16      5       6.042032        274.3348
2014    16      6       5.036472        272.8791
2014    16      7       4.028923        269.4219
2014    17      0       3.332988        263.8038
2014    17      1       3.21778         263.394
2014    17      2       4.054824        269.8612
2014    17      3       4.78921         272.6768
2014    17      4       5.52756         274.27
2014    17      5       5.528768        273.7025
2014    17      6       5.01624         272.0988
2014    17      7       4.465325        269.9139
2014    18      0       5.046023        270.9157
2014    18      1       4.855931        270.1128
2014    18      2       4.640667        270.0941
2014    18      3       4.348143        269.6927
2014    18      4       4.788871        271.6904
2014    18      5       5.329181        272.8028
2014    18      6       5.41387         272.5004
2014    18      7       5.229403        271.8491
2014    19      0       5.516956        271.5725
2014    19      1       4.844626        270.0891
2014    19      2       4.05709         268.1248
2014    19      3       4.528194        269.7291
2014    19      4       4.533513        269.4786
2014    19      5       4.838507        270.6421
2014    19      6       4.64536         269.6144
2014    19      7       4.719252        270.227
2014    20      0       6.05121         272.5336
2014    20      1       4.996024        270.8448
2014    20      2       5.564091        272.0877
2014    20      3       5.198167        271.3416
2014    20      4       5.244436        271.1913
2014    20      5       5.707541        272.0384
2014    20      6       5.173694        271.1519
2014    20      7       4.258095        268.3481
2014    21      0       3.908718        266.4529
2014    21      1       3.755584        265.2115
2014    21      2       3.806862        265.0555
2014    21      3       4.758508        269.2339
2014    21      4       5.863824        271.4145
2014    21      5       5.528924        271.3071
2014    21      6       5.205274        270.4528
2014    21      7       4.502696        268.3642
2014    22      0       3.852725        265.1857
2014    22      1       3.672541        264.1891
2014    22      2       3.002669        257.6152
2014    22      3       2.816901        254.8972
2014    22      4       2.749762        254.6935
2014    22      5       2.748391        254.7816
2014    22      6       3.401946        262.9261
2014    22      7       3.8015          265.804
2014    23      0       2.738325        254.6684
2014    23      1       2.354038        247.1432
2014    23      2       2.385632        248.2007
2014    23      3       2.518582        251.5597
2014    23      4       3.042287        260.356
2014    23      5       3.284884        263.9024
2014    23      6       3.685473        268.0989
2014    23      7       3.624049        267.556
2014    24      0       3.627192        267.4968
2014    24      1       3.274613        263.6001
2014    24      2       3.118076        261.6912
2014    24      3       3.720881        267.406
2014    24      4       4.431078        271.6041
2014    24      5       4.954291        273.2422
2014    24      6       5.409956        274.3273
2014    24      7       5.963968        275.427
2014    25      0       5.879081        275.8874
2014    25      1       5.088586        275.1861
2014    25      2       4.980669        275.036
2014    25      3       5.00582         275.0138
2014    25      4       6.147804        276.5316
2014    25      5       7.090739        277.0756
2014    25      6       6.759509        277.0371
2014    25      7       5.677544        276.0272
2014    26      0       4.814511        274.1615
2014    26      1       4.550341        272.8919
2014    26      2       4.546121        272.1393
2014    26      3       4.969656        273.2343
2014    26      4       5.878092        275.2677
2014    26      5       6.223465        275.9517
2014    26      6       6.677902        276.1245
2014    26      7       6.585415        275.776
2014    27      0       6.787706        275.4318
2014    27      1       7.223338        275.3577
2014    27      2       5.977139        273.8575
2014    27      3       4.807041        271.8271
2014    27      4       5.595539        273.5161
2014    27      5       5.534596        273.3124
2014    27      6       5.027939        272.121
2014    27      7       5.206334        271.972
2014    28      0       4.193939        268.4326
2014    28      1       4.374893        269.352
2014    28      2       5.622634        273.1028
2014    28      3       4.666184        270.7869
2014    28      4       3.904857        266.8648
2014    28      5       3.524017        264.3928
2014    28      6       3.663195        265.3594
2014    28      7       3.184184        260.2818
2014    29      0       2.953468        258.3308
2014    29      1       2.968831        258.6881
2014    29      2       3.998924        267.2777
2014    29      3       5.062055        270.613
2014    29      4       5.610954        271.1755
2014    29      5       5.512107        271.2532
2014    29      6       5.395653        271.0802
2014    29      7       4.824642        269.693
2014    30      0       5.347244        269.8046
2014    30      1       4.82625         268.3198
2014    30      2       3.688364        263.0146
2014    30      3       3.954228        266.1106
2014    30      4       4.014126        266.911
2014    30      5       4.195916        268.1349
2014    30      6       4.279267        268.3227
2014    30      7       3.893605        265.35
2015    1       0       2.960304        252.648
2015    1       1       2.699199        248.4013
2015    1       2       2.592846        245.8369
2015    1       3       2.615421        245.5816
2015    1       4       2.518351        243.363
2015    1       5       2.591607        244.9751
2015    1       6       2.489712        242.5907
2015    1       7       2.593108        244.1552
2015    2       0       2.120149        232.4711
2015    2       1       2.058471        230.9059
2015    2       2       2.214257        235.1771
2015    2       3       2.379671        239.0305
2015    2       4       2.28897         236.6453
2015    2       5       2.594933        244.1664
2015    2       6       2.842021        249.1306
2015    2       7       2.642194        245.709
2015    3       0       3.010137        251.4455
2015    3       1       2.848748        249.2875
2015    3       2       3.491437        257.1073
2015    3       3       3.409366        256.4297
2015    3       4       2.470862        242.0642
2015    3       5       2.495364        242.8178
2015    3       6       2.631593        245.666
2015    3       7       2.347883        239.3221
2015    4       0       1.99666         228.8077
2015    4       1       1.949163        227.0671
2015    4       2       1.776109        219.826
2015    4       3       1.696917        216.0299
2015    4       4       1.730015        217.7279
2015    4       5       1.948729        227.151
2015    4       6       2.03469         230.2849
2015    4       7       1.998745        228.8844
2015    5       0       1.769082        220.0822
2015    5       1       1.64285         214.3481
2015    5       2       1.620252        213.4521
2015    5       3       1.7601          220.0542
2015    5       4       2.246564        237.5011
2015    5       5       2.341212        240.5287
2015    5       6       2.50116         244.5846
2015    5       7       2.5374          245.0827
2015    6       0       2.333176        239.8156
2015    6       1       2.459063        243.0383
2015    6       2       2.530372        244.3985
2015    6       3       2.988426        252.5231
2015    6       4       2.985249        252.9872
2015    6       5       2.581236        246.7711
2015    6       6       2.074687        233.2097
2015    6       7       1.517852        208.312
2015    7       0       1.432182        202.8734
2015    7       1       2.922718        252.3701
2015    7       2       2.611957        246.6411
2015    7       3       3.335163        257.6682
2015    7       4       3.562438        260.4288
2015    7       5       3.515486        260.3003
2015    7       6       2.838207        253.2013
2015    7       7       4.523834        267.8253
2015    8       0       2.905159        253.2096
2015    8       1       2.702243        248.9165
2015    8       2       4.194065        264.8901
2015    8       3       4.25873         265.114
2015    8       4       4.210223        265.3338
2015    8       5       3.989108        264.0189
2015    8       6       3.429531        259.7739
2015    8       7       3.309698        259.2186
2015    9       0       3.693354        261.607
2015    9       1       2.745899        250.1756
2015    9       2       2.753944        249.9087
2015    9       3       2.535932        245.9615
2015    9       4       2.538318        246.118
2015    9       5       2.552826        246.524
2015    9       6       2.780212        250.7879
2015    9       7       2.817026        250.9808
2015    10      0       2.939433        252.5701
2015    10      1       2.761951        249.6933
2015    10      2       2.724215        249.1672
2015    10      3       2.574178        246.2501
2015    10      4       2.99606         253.9579
2015    10      5       2.995126        253.6544
2015    10      6       3.174847        256.0648
2015    10      7       2.377069        241.5934
2015    11      0       2.423003        242.5781
2015    11      1       2.489569        243.3065
2015    11      2       2.018291        228.8727
2015    11      3       2.43996         241.2303
2015    11      4       2.166209        234.3232
2015    11      5       2.066184        230.8971
2015    11      6       2.54406         243.6165
2015    11      7       2.835821        248.8864
2015    12      0       2.108544        231.7503
2015    12      1       1.755064        218.1096
2015    12      2       1.606738        210.7058
2015    12      3       1.920502        225.2099
2015    12      4       1.919812        224.62
2015    12      5       2.109594        231.4157
2015    12      6       2.095546        231.2453
2015    12      7       1.949016        226.2537
2015    13      0       1.62207         212.2213
2015    13      1       1.613347        212.3939
2015    13      2       1.608215        212.2693
2015    13      3       1.548442        208.9636
2015    13      4       1.723028        217.7491
2015    13      5       1.716276        217.677
2015    13      6       1.633581        213.9192
2015    13      7       1.36648         198.4703
2015    14      0       1.221388        188.3241
2015    14      1       1.271247        192.5166
2015    14      2       1.37997         200.284
2015    14      3       1.721604        219.1528
2015    14      4       1.842845        224.6406
2015    14      5       1.740984        220.5648
2015    14      6       1.556152        211.6492
2015    14      7       1.405206        202.6767
2015    15      0       1.027668        173.4612
2015    15      1       1.190862        188.0537
2015    15      2       1.653222        218.3413
2015    15      3       1.904962        230.2508
2015    15      4       1.96596         232.8121
2015    15      5       2.276321        243.0897
2015    15      6       2.867264        255.9399
2015    15      7       3.820309        267.1928
2015    16      0       3.848242        268.2228
2015    16      1       4.165937        270.9574
2015    16      2       5.075857        274.7996
2015    16      3       5.238622        274.2029
2015    16      4       5.158139        274.6276
2015    16      5       5.02332         274.1257
2015    16      6       5.166892        273.6158
2015    16      7       4.575042        271.759
2015    17      0       4.162334        270.0983
2015    17      1       4.154486        268.93
2015    17      2       4.601971        270.2337
2015    17      3       5.402805        272.1964
2015    17      4       4.524256        270.8027
2015    17      5       3.962153        269.1256
2015    17      6       4.53275         271.2803
2015    17      7       5.375836        272.573
2015    18      0       4.612296        270.2967
2015    18      1       4.264366        268.6968
2015    18      2       4.424967        269.2459
2015    18      3       4.769132        270.5011
2015    18      4       4.738286        270.8313
2015    18      5       4.438719        270.0499
2015    18      6       4.21235         268.7512
2015    18      7       3.428585        263.8883
2015    19      0       3.079552        260.4099
2015    19      1       2.858784        257.8704
2015    19      2       2.927364        258.9038
2015    19      3       3.171338        261.881
2015    19      4       3.632421        266.1175
2015    19      5       4.266504        269.452
2015    19      6       5.001567        272.4166
2015    19      7       5.094783        272.9452
2015    20      0       4.651491        271.7837
2015    20      1       4.508738        270.9151
2015    20      2       4.767258        271.4264
2015    20      3       4.731832        271.3776
2015    20      4       4.238167        269.8756
2015    20      5       3.489389        265.677
2015    20      6       3.059898        260.9391
2015    20      7       2.807769        256.8361
2015    21      0       2.627366        253.647
2015    21      1       2.466369        250.6466
2015    21      2       2.332107        247.4483
2015    21      3       2.206625        244.0104
2015    21      4       2.206596        244.3399
2015    21      5       2.350213        248.114
2015    21      6       2.694603        255.0302
2015    21      7       2.690461        255.3489
2015    22      0       2.692507        255.5406
2015    22      1       2.457983        250.2526
2015    22      2       1.802624        227.9733
2015    22      3       1.632907        219.2804
2015    22      4       1.844714        229.7378
2015    22      5       2.156158        241.7743
2015    22      6       2.241182        244.6189
2015    22      7       2.143722        241.8435
2015    23      0       1.823477        229.5773
2015    23      1       1.478358        211.5201
2015    23      2       1.344619        202.9281
2015    23      3       1.200784        192.0685
2015    23      4       1.041718        178.0625
2015    23      5       1.305973        199.7179
2015    23      6       1.551835        215.3546
2015    23      7       1.072558        180.8494
2015    24      0       1.103412        183.7801
2015    24      1       1.431499        209.2091
2015    24      2       1.904065        233.5538
2015    24      3       2.138339        241.798
2015    24      4       2.063606        239.2371
2015    24      5       1.805319        228.9696
2015    24      6       1.364399        204.8305
2015    24      7       1.036233        178.1519
2015    25      0       1.006842        174.6957
2015    25      1       1.061072        179.5333
2015    25      2       1.446965        209.6501
2015    25      3       1.914222        233.4037
2015    25      4       2.07341         239.0923
2015    25      5       2.742396        255.418
2015    25      6       2.523579        251.7843
2015    25      7       1.818101        230.1832
2015    26      0       1.57926         218.9725
2015    26      1       1.861254        232.9711
2015    26      2       1.634287        222.134
2015    26      3       0.9987479       174.7379
2015    26      4       0.9817612       173.274
2015    26      5       1.57538         219.3939
2015    26      6       1.723334        227.235
2015    26      7       1.991583        238.9544
2015    27      0       2.369285        250.4074
2015    27      1       2.018028        238.823
2015    27      2       2.042649        238.7682
2015    27      3       2.298329        247.2659
2015    27      4       2.896567        260.1372
2015    27      5       3.415618        266.6148
2015    27      6       3.472495        267.8412
2015    27      7       3.484642        267.409
2015    28      0       3.170172        264.06
2015    28      1       2.475073        252.0593
2015    28      2       2.016019        237.417
2015    28      3       2.223938        244.4403
2015    28      4       2.356543        248.3708
2015    28      5       2.611498        254.3555
2015    28      6       2.797425        258.1869
2015    28      7       2.674897        255.9338
2015    29      0       2.412868        250.4786
2015    29      1       2.322703        248.1082
2015    29      2       2.224551        245.0734
2015    29      3       2.22874         245.1112
2015    29      4       2.464886        251.3642
2015    29      5       2.513044        252.8137
2015    29      6       2.556899        254.2732
2015    29      7       2.711823        257.5674
2015    30      0       3.054493        261.8568
2015    30      1       3.192313        262.3093
2015    30      2       3.184223        262.048
2015    30      3       2.94379         258.5768
2015    30      4       2.789364        255.736
2015    30      5       3.048481        259.9666
2015    30      6       2.97531         259.2501
2015    30      7       3.27361         263.1433
2016    1       0       5.040444        271.4561
2016    1       1       4.647726        269.4451
2016    1       2       1.583002        215.606
2016    1       3       1.245142        191.1881
2016    1       4       1.172819        184.9494
2016    1       5       0.9947464       170.0879
2016    1       6       1.352951        202.6545
2016    1       7       2.77765         257.082
2016    2       0       5.100154        272.8558
2016    2       1       4.545395        271.4793
2016    2       2       4.231789        270.8383
2016    2       3       4.408102        272.7457
2016    2       4       5.959808        276.5361
2016    2       5       5.270009        275.2695
2016    2       6       5.033016        274.3937
2016    2       7       4.540788        272.7794
2016    3       0       3.891916        269.9573
2016    3       1       3.280754        264.6195
2016    3       2       5.332875        275.4818
2016    3       3       2.701182        255.7147
2016    3       4       2.49449         251.6546
2016    3       5       2.320374        247.0837
2016    3       6       2.120399        240.7401
2016    3       7       2.144464        241.5676
2016    4       0       2.552819        252.8464
2016    4       1       2.557454        252.692
2016    4       2       2.621446        254.795
2016    4       3       3.208139        264.7631
2016    4       4       3.176287        264.8039
2016    4       5       2.98674         262.708
2016    4       6       3.149935        264.4313
2016    4       7       3.767451        268.727
2016    5       0       4.20222         270.449
2016    5       1       4.052778        270.271
2016    5       2       3.51035         265.9699
2016    5       3       3.182219        262.0124
2016    5       4       2.893736        257.184
2016    5       5       4.172076        267.6826
2016    5       6       5.325848        271.1298
2016    5       7       4.505196        269.0693
2016    6       0       6.030597        271.9477
2016    6       1       3.717257        264.7858
2016    6       2       3.019218        257.8473
2016    6       3       3.30501         261.7
2016    6       4       4.590918        269.9952
2016    6       5       4.207833        269.0185
2016    6       6       4.907696        271.0477
2016    6       7       4.138373        268.3075
2016    7       0       3.28135         262.3212
2016    7       1       3.02819         259.7612
2016    7       2       2.956824        258.8222
2016    7       3       2.840973        257.0082
2016    7       4       2.735304        255.2109
2016    7       5       2.732624        255.238
2016    7       6       2.791843        256.2149
2016    7       7       3.013482        259.1999
2016    8       0       3.199837        261.0931
2016    8       1       3.233516        261.2696
2016    8       2       3.184117        260.963
2016    8       3       3.479031        264.0315
2016    8       4       4.056106        268.3682
2016    8       5       4.342252        270.1589
2016    8       6       4.741146        272.1911
2016    8       7       4.687723        272.69
2016    9       0       5.155712        273.8902
2016    9       1       4.986384        273.3085
2016    9       2       4.572555        272.1185
2016    9       3       4.899006        273.1237
2016    9       4       4.60015         272.4002
2016    9       5       4.495956        272.0186
2016    9       6       4.39079         271.7346
2016    9       7       4.314837        271.7056
2016    10      0       4.4289          272.032
2016    10      1       4.910888        273.5382
2016    10      2       4.556193        272.9713
2016    10      3       4.344812        272.4884
2016    10      4       5.231588        274.7873
2016    10      5       6.84612         276.3361
2016    10      6       6.161515        275.7397
2016    10      7       4.824441        273.171
2016    11      0       5.582228        274.3321
2016    11      1       4.658112        272.0088
2016    11      2       4.564834        271.7758
2016    11      3       4.441211        271.5744
2016    11      4       4.243684        270.6229
2016    11      5       5.624564        273.8503
2016    11      6       5.295216        273.1076
2016    11      7       4.299517        269.9751
2016    12      0       4.301954        269.9549
2016    12      1       4.105014        268.9278
2016    12      2       3.596647        265.4127
2016    12      3       2.511254        249.636
2016    12      4       1.711213        221.6989
2016    12      5       1.112085        181.4774
2016    12      6       1.023057        174.1754
2016    12      7       1.049061        178.031
2016    13      0       1.195023        191.6427
2016    13      1       1.459043        210.2988
2016    13      2       1.460107        210.1461
2016    13      3       1.404019        206.2927
2016    13      4       1.426255        207.5515
2016    13      5       1.82431         228.5111
2016    13      6       2.063218        237.6177
2016    13      7       1.879707        230.6871
2016    14      0       1.840673        228.8738
2016    14      1       3.177256        262.6739
2016    14      2       1.291669        196.8778
2016    14      3       1.167966        187.2516
2016    14      4       1.297919        197.7628
2016    14      5       1.273743        196.0714
2016    14      6       1.249319        194.1733
2016    14      7       1.327958        199.8784
2016    15      0       1.42522         206.6725
2016    15      1       1.51019         212.135
2016    15      2       1.74942         224.9237
2016    15      3       2.158441        240.6434
2016    15      4       2.79158         254.7098
2016    15      5       3.006102        258.8623
2016    15      6       3.116421        260.2295
2016    15      7       3.443187        262.6529
2016    16      0       4.029775        265.2242
2016    16      1       3.465856        260.2374
2016    16      2       3.219726        258.3543
2016    16      3       4.343436        267.1144
2016    16      4       3.980261        265.8483
2016    16      5       4.260644        267.5384
2016    16      6       4.562458        268.9004
2016    16      7       4.35108         267.8622
2016    17      0       4.428603        268.7389
2016    17      1       4.289396        268.5998
2016    17      2       4.365469        268.8871
2016    17      3       4.387462        268.9796
2016    17      4       4.218612        268.8047
2016    17      5       3.952084        267.4909
2016    17      6       4.054144        268.2663
2016    17      7       3.994018        267.9516
2016    18      0       3.50934         264.5523
2016    18      1       3.633896        265.6447
2016    18      2       3.776898        266.7385
2016    18      3       3.998208        268.1618
2016    18      4       4.657889        271.2848
2016    18      5       3.724691        267.6877
2016    18      6       3.503531        265.8288
2016    18      7       3.417833        263.7188
2016    19      0       3.814488        266.6672
2016    19      1       6.011266        274.5406
2016    19      2       5.058471        273.448
2016    19      3       4.729457        272.7674
2016    19      4       4.570537        272.2715
2016    19      5       4.379243        271.4653
2016    19      6       4.393667        271.293
2016    19      7       4.125861        270.8343
2016    20      0       4.094325        271.3491
2016    20      1       4.056811        271.6747
2016    20      2       4.09877         272.9079
2016    20      3       3.862655        272.466
2016    20      4       3.527259        270.8043
2016    20      5       3.645795        271.3839
2016    20      6       3.733665        270.5468
2016    20      7       3.805867        270.2915
2016    21      0       4.033699        271.1495
2016    21      1       3.892915        270.2386
2016    21      2       3.598739        267.6939
2016    21      3       3.684511        267.6387
2016    21      4       5.435445        273.2019
2016    21      5       5.948405        273.7011
2016    21      6       5.314382        272.4763
2016    21      7       3.594139        266.512
2016    22      0       2.975167        260.9236
2016    22      1       2.845041        259.6521
2016    22      2       2.886653        260.5828
2016    22      3       2.98183         262.1082
2016    22      4       2.980377        262.2494
2016    22      5       3.274834        265.093
2016    22      6       3.488049        266.6757
2016    22      7       3.393225        265.6039
2016    23      0       2.763341        258.0744
2016    23      1       2.199803        244.8108
2016    23      2       2.027434        238.3895
2016    23      3       2.595196        253.8988
2016    23      4       2.668656        255.7863
2016    23      5       2.684181        256.2931
2016    23      6       2.784489        258.0212
2016    23      7       3.521765        267.3506
2016    24      0       4.272478        272.032
2016    24      1       4.305362        272.1941
2016    24      2       4.157395        271.902
2016    24      3       4.042506        271.8968
2016    24      4       4.176441        270.8231
2016    24      5       4.926125        273.033
2016    24      6       5.117902        273.1683
2016    24      7       5.852862        275.2559
2016    25      0       5.506598        275.7715
2016    25      1       5.113826        274.7614
2016    25      2       5.807748        275.2108
2016    25      3       5.08971         274.3981
2016    25      4       5.18841         273.9041
2016    25      5       5.849223        274.2883
2016    25      6       5.631441        274.202
2016    25      7       5.910026        274.2806
2016    26      0       5.836873        273.9746
2016    26      1       5.419562        273.6743
2016    26      2       5.649813        274.1813
2016    26      3       6.546317        275.4717
2016    26      4       6.241817        275.064
2016    26      5       4.843855        271.9932
2016    26      6       4.469759        270.5808
2016    26      7       4.342731        269.9148
2016    27      0       4.227127        269.6097
2016    27      1       3.816149        267.4419
2016    27      2       3.967182        267.7281
2016    27      3       4.340773        269.1435
2016    27      4       4.492335        270.0948
2016    27      5       3.842007        267.6341
2016    27      6       4.44568         270.5922
2016    27      7       4.274742        269.8107
2016    28      0       4.322252        270.4505
2016    28      1       3.980868        268.2297
2016    28      2       4.011915        266.2627
2016    28      3       3.369355        260.174
2016    28      4       3.5308          261.7263
2016    28      5       4.396365        268.0573
2016    28      6       4.602895        268.5549
2016    28      7       3.681956        264.3727
2016    29      0       5.226274        271.502
2016    29      1       5.567912        270.5475
2016    29      2       3.667425        263.8619
2016    29      3       3.158617        259.5252
2016    29      4       4.153566        267.6066
2016    29      5       4.100358        267.8303
2016    29      6       3.156365        260.3062
2016    29      7       2.66184         252.531
2016    30      0       2.900652        256.7735
2016    30      1       3.206352        260.9378
2016    30      2       3.481385        263.8437
2016    30      3       3.601836        265.5514
2016    30      4       4.018381        267.9582
2016    30      5       4.795266        271.0034
2016    30      6       4.336503        269.0218
2016    30      7       3.013382        258.5716
2017    1       0       2.576784        247.662
2017    1       1       2.999746        255.2738
2017    1       2       3.836707        263.0772
2017    1       3       3.13651         256.6179
2017    1       4       3.046371        255.9746
2017    1       5       3.275228        258.6981
2017    1       6       3.364735        260.0144
2017    1       7       3.351891        261.3039
2017    2       0       3.407431        263.2414
2017    2       1       3.614048        264.7892
2017    2       2       3.576362        264.2879
2017    2       3       3.831453        266.1577
2017    2       4       4.502693        268.9897
2017    2       5       5.21856         270.4632
2017    2       6       4.805416        269.2607
2017    2       7       5.164927        270.2184
2017    3       0       4.082448        266.2974
2017    3       1       3.886137        264.8455
2017    3       2       3.988166        266.083
2017    3       3       3.527666        262.8969
2017    3       4       3.165276        258.8527
2017    3       5       2.983766        255.9784
2017    3       6       2.826219        253.5037
2017    3       7       2.636369        250.5189
2017    4       0       2.672942        251.5121
2017    4       1       2.812386        253.7959
2017    4       2       2.759652        253.2228
2017    4       3       2.632335        251.0944
2017    4       4       2.775894        253.7244
2017    4       5       3.19002         259.9158
2017    4       6       3.328259        261.8671
2017    4       7       3.263765        261.4909
2017    5       0       3.172529        260.1658
2017    5       1       3.093613        258.3745
2017    5       2       2.880104        254.3396
2017    5       3       2.634901        249.5888
2017    5       4       2.990026        254.3028
2017    5       5       3.523553        259.863
2017    5       6       3.443636        258.8504
2017    5       7       2.934931        252.3971
2017    6       0       2.388839        241.9831
2017    6       1       2.141483        235.0762
2017    6       2       1.753683        219.5784
2017    6       3       1.883441        224.4946
2017    6       4       2.050452        231.139
2017    6       5       2.045693        231.3882
2017    6       6       1.88764         225.5072
2017    6       7       1.835997        222.8075
2017    7       0       1.963459        228.2408
2017    7       1       1.732092        217.8348
2017    7       2       1.835207        222.9345
2017    7       3       2.327382        239.8589
2017    7       4       2.26923         238.3701
2017    7       5       2.378141        241.0203
2017    7       6       2.494912        243.7739
2017    7       7       2.864135        250.528
2017    8       0       3.52869         257.6268
2017    8       1       3.009041        251.7848
2017    8       2       2.954898        251.2372
2017    8       3       3.012008        252.4866
2017    8       4       2.81368         249.8616
2017    8       5       2.673207        247.4999
2017    8       6       2.755309        248.9844
2017    8       7       2.902221        251.2727
2017    9       0       2.792654        249.8449
2017    9       1       2.143931        235.1485
2017    9       2       1.825317        223.878
2017    9       3       1.94735         228.9347
2017    9       4       2.131268        236.0683
2017    9       5       2.343737        242.9233
2017    9       6       2.266301        241.394
2017    9       7       2.230924        240.1813
2017    10      0       1.991389        232.6828
2017    10      1       1.85384         227.4192
2017    10      2       1.75782         223.2616
2017    10      3       1.652709        218.0396
2017    10      4       1.975888        232.1918
2017    10      5       2.196855        240.1073
2017    10      6       2.292978        242.9618
2017    10      7       2.120456        237.8134
2017    11      0       1.941018        231.8951
2017    11      1       1.833924        227.6748
2017    11      2       1.649664        218.869
2017    11      3       1.839616        227.4211
2017    11      4       2.8039          253.3539
2017    11      5       3.195741        259.129
2017    11      6       2.962187        256.6269
2017    11      7       2.467825        247.188
2017    12      0       2.320424        243.4611
2017    12      1       2.299852        243.0359
2017    12      2       2.330192        243.6773
2017    12      3       2.280082        242.1543
2017    12      4       2.705696        251.3246
2017    12      5       3.23481         259.1961
2017    12      6       3.019113        256.8582
2017    12      7       2.480808        247.747
2017    13      0       2.248132        242.7678
2017    13      1       2.458814        248.2712
2017    13      2       2.630198        251.3376
2017    13      3       2.72708         252.8072
2017    13      4       2.84654         255.1342
2017    13      5       2.830442        255.1879
2017    13      6       3.073973        259.0369
2017    13      7       3.214096        260.7636
2017    14      0       3.140082        259.1457
2017    14      1       3.094706        258.2452
2017    14      2       2.783912        254.001
2017    14      3       2.777352        254.1597
2017    14      4       3.177296        260.2576
2017    14      5       3.317289        262.1857
2017    14      6       3.321563        262.4736
2017    14      7       3.321052        262.7237
2017    15      0       3.28309         262.4989
2017    15      1       3.431987        263.9481
2017    15      2       3.819332        266.266
2017    15      3       4.037036        267.0579
2017    15      4       3.83139         265.8297
2017    15      5       3.826946        265.9149
2017    15      6       3.848691        266.3039
2017    15      7       3.718678        266.1849
2017    16      0       3.795609        266.9789
2017    16      1       3.900106        267.6969
2017    16      2       3.942237        267.9997
2017    16      3       3.761807        267.1575
2017    16      4       3.756463        267.1047
2017    16      5       4.383548        270.2816
2017    16      6       4.252497        269.7764
2017    16      7       4.037221        268.5755
2017    17      0       4.214924        269.3777
2017    17      1       4.357632        269.5921
2017    17      2       4.296559        268.9886
2017    17      3       4.535485        270.0303
2017    17      4       4.475693        269.4762
2017    17      5       4.491704        269.3402
2017    17      6       5.159043        270.8923
2017    17      7       5.07814         270.4818
2017    18      0       4.5136          268.9024
2017    18      1       4.395244        268.3062
2017    18      2       3.693681        264.5278
2017    18      3       3.53775         263.3904
2017    18      4       3.371041        261.4161
2017    18      5       3.472643        261.4716
2017    18      6       3.311802        259.2457
2017    18      7       3.082118        256.1646
2017    19      0       2.694698        249.8092
2017    19      1       2.169117        236.8932
2017    19      2       1.791869        222.3018
2017    19      3       1.893406        227.2296
2017    19      4       2.66902         249.6222
2017    19      5       3.717211        263.0538
2017    19      6       3.843551        264.2072
2017    19      7       2.885314        254.873
2017    20      0       2.540448        249.4071
2017    20      1       2.526177        249.1923
2017    20      2       2.907301        256.0056
2017    20      3       3.618436        263.6629
2017    20      4       4.017939        266.4042
2017    20      5       4.520409        269.3312
2017    20      6       3.653148        264.4721
2017    20      7       3.905418        266.2511
2017    21      0       4.331645        268.5422
2017    21      1       4.116446        267.9059
2017    21      2       3.754491        265.2423
2017    21      3       3.596975        263.5815
2017    21      4       4.085772        267.2527
2017    21      5       4.379897        269.2442
2017    21      6       4.313947        269.2409
2017    21      7       3.978898        267.3722
2017    22      0       3.557396        263.9086
2017    22      1       3.533561        262.7127
2017    22      2       3.273332        259.8609
2017    22      3       3.347453        260.3482
2017    22      4       4.267218        266.6578
2017    22      5       4.154722        266.2403
2017    22      6       3.80623         264.2711
2017    22      7       3.351762        261.1861
2017    23      0       2.618125        251.0826
2017    23      1       2.69657         252.3337
2017    23      2       3.13512         259.0321
2017    23      3       3.09993         258.0005
2017    23      4       2.924739        254.2702
2017    23      5       3.68979         262.973
2017    23      6       5.299231        270.6244
2017    23      7       5.307276        270.5499
2017    24      0       4.935002        269.2159
2017    24      1       4.064034        265.0317
2017    24      2       3.832358        263.3646
2017    24      3       3.905057        263.5884
2017    24      4       3.624336        261.5933
2017    24      5       3.362993        259.6741
2017    24      6       2.789533        252.291
2017    24      7       2.871061        253.404
2017    25      0       1.987886        232.7504
2017    25      1       1.344402        200.737
2017    25      2       1.260048        194.5368
2017    25      3       1.257306        194.1883
2017    25      4       1.232289        192.0821
2017    25      5       1.546151        212.9166
2017    25      6       1.691931        221.0019
2017    25      7       1.495564        210.6774
2017    26      0       1.307943        198.6391
2017    26      1       1.669817        220.3979
2017    26      2       2.15135         239.2892
2017    26      3       2.569846        249.7748
2017    26      4       3.035075        257.2748
2017    26      5       3.430311        261.5085
2017    26      6       3.72221         264.0537
2017    26      7       4.103584        266.6116
2017    27      0       4.921825        269.4557
2017    27      1       4.766305        268.9454
2017    27      2       4.89209         269.0147
2017    27      3       4.70421         268.5821
2017    27      4       4.036383        265.6857
2017    27      5       4.29842         266.8965
2017    27      6       4.148714        266.2584
2017    27      7       3.654502        263.3252
2017    28      0       3.189575        259.0769
2017    28      1       3.357725        261.4001
2017    28      2       5.161723        270.3618
2017    28      3       4.884049        270.1361
2017    28      4       4.946259        270.4774
2017    28      5       4.665984        269.9064
2017    28      6       5.522739        272.1206
2017    28      7       5.611925        272.1214
2017    29      0       5.259905        271.3169
2017    29      1       4.714284        269.9555
2017    29      2       4.115599        268.0886
2017    29      3       3.806908        266.1544
2017    29      4       4.899659        270.8132
2017    29      5       5.583664        271.428
2017    29      6       4.289538        267.8475
2017    29      7       3.921543        266.8744
2017    30      0       3.687387        265.9167
2017    30      1       3.481376        264.1219
2017    30      2       4.436217        269.3872
2017    30      3       5.628075        271.8071
2017    30      4       4.540526        269.16
2017    30      5       3.679125        265.0297
2017    30      6       3.911647        266.7835
2017    30      7       4.446503        269.274
2018    1       0       2.866203        257.6792
2018    1       1       2.687442        253.7648
2018    1       2       3.181739        260.6627
2018    1       3       4.093499        266.7132
2018    1       4       3.358098        261.0494
2018    1       5       2.928894        256.3423
2018    1       6       2.215005        241.8851
2018    1       7       2.17054         241.1559
2018    2       0       2.396692        247.4541
2018    2       1       2.565606        251.2543
2018    2       2       2.616936        252.2448
2018    2       3       6.634805        275.0646
2018    2       4       6.825165        275.8719
2018    2       5       5.872391        274.4512
2018    2       6       3.384091        265.056
2018    2       7       3.126813        263.2866
2018    3       0       4.576491        273.8752
2018    3       1       4.727           274.5118
2018    3       2       4.004443        271.4012
2018    3       3       5.874276        275.5462
2018    3       4       6.274304        275.5996
2018    3       5       6.36785         275.7674
2018    3       6       6.395336        275.9588
2018    3       7       6.69828         276.0297
2018    4       0       5.989654        275.6171
2018    4       1       5.005179        274.5909
2018    4       2       4.652871        273.4755
2018    4       3       3.494883        267.0736
2018    4       4       2.902932        260.2428
2018    4       5       3.055601        262.2117
2018    4       6       3.038627        262.7695
2018    4       7       3.541477        268.0421
2018    5       0       3.450399        267.1856
2018    5       1       3.586445        267.9192
2018    5       2       3.336256        265.5182
2018    5       3       3.369232        266.152
2018    5       4       3.366509        266.4507
2018    5       5       3.378633        267.1918
2018    5       6       3.536683        268.9099
2018    5       7       3.395033        267.6406
2018    6       0       3.456739        268.1436
2018    6       1       3.424199        267.9142
2018    6       2       3.252918        266.8554
2018    6       3       3.145446        266.2072
2018    6       4       3.018162        264.6247
2018    6       5       2.943384        263.3701
2018    6       6       3.0623          264.8915
2018    6       7       3.136111        265.6312
2018    7       0       3.165495        265.8488
2018    7       1       3.166585        265.7146
2018    7       2       2.778461        260.0871
2018    7       3       2.739244        259.2039
2018    7       4       2.942445        262.052
2018    7       5       3.635923        268.8024
2018    7       6       5.004869        273.8368
2018    7       7       5.851826        274.4966
2018    8       0       5.726752        274.0796
2018    8       1       5.575611        274.0044
2018    8       2       5.548506        273.5225
2018    8       3       6.139197        273.8676
2018    8       4       5.277546        272.5958
2018    8       5       4.303984        269.3252
2018    8       6       3.357581        262.8238
2018    8       7       3.039849        258.5425
2018    9       0       3.790538        266.0007
2018    9       1       4.92159         271.5052
2018    9       2       5.467788        273.4167
2018    9       3       5.853946        274.1896
2018    9       4       5.36499         273.6356
2018    9       5       5.205167        273.2908
2018    9       6       5.196615        273.5009
2018    9       7       4.713527        272.5551
2018    10      0       5.081771        273.2022
2018    10      1       4.433266        270.5217
2018    10      2       3.88959         267.8026
2018    10      3       4.231023        269.4028
2018    10      4       5.580646        272.6411
2018    10      5       4.400866        269.6588
2018    10      6       3.950779        267.4613
2018    10      7       4.755318        270.5218
2018    11      0       3.564076        263.8497
2018    11      1       3.495927        262.5995
2018    11      2       3.519843        262.3325
2018    11      3       3.549118        262.5215
2018    11      4       3.636871        263.4041
2018    11      5       4.753795        268.9237
2018    11      6       4.205623        267.1795
2018    11      7       4.007591        266.3902
2018    12      0       3.994896        266.1147
2018    12      1       3.987572        265.6245
2018    12      2       3.390216        260.6517
2018    12      3       3.627024        262.4522
2018    12      4       3.656433        262.6443
2018    12      5       3.442889        261.4255
2018    12      6       3.975345        265.4903
2018    12      7       4.048975        265.6678
2018    13      0       4.250306        266.4792
2018    13      1       3.815855        263.3957
2018    13      2       3.966455        264.1699
2018    13      3       3.742259        262.9723
2018    13      4       3.323071        259.6855
2018    13      5       3.164855        258.5471
2018    13      6       3.491104        261.8356
2018    13      7       3.832134        263.8596
2018    14      0       3.038759        256.4709
2018    14      1       3.784031        263.5866
2018    14      2       4.819113        268.8475
2018    14      3       4.209857        265.3086
2018    14      4       3.562821        260.5273
2018    14      5       3.563253        260.0948
2018    14      6       3.614618        260.0778
2018    14      7       3.306361        257.021
2018    15      0       2.931537        252.0442
2018    15      1       2.714093        248.0291
2018    15      2       3.33024         256.0806
2018    15      3       2.968253        252.0373
2018    15      4       2.806882        249.8297
2018    15      5       2.721735        248.344
2018    15      6       2.576432        245.052
2018    15      7       2.539239        243.6039
2018    16      0       2.634221        245.6052
2018    16      1       2.541988        244.0647
2018    16      2       2.749733        248.0757
2018    16      3       2.946605        251.2079
2018    16      4       2.706839        247.206
2018    16      5       2.960173        251.6688
2018    16      6       2.880328        250.9947
2018    16      7       2.850122        250.6917
2018    17      0       2.915642        252.462
2018    17      1       2.833418        251.8141
2018    17      2       3.61608         262.048
2018    17      3       3.903236        264.6517
2018    17      4       4.295296        266.9435
2018    17      5       4.427176        267.4125
2018    17      6       4.325261        267.0148
2018    17      7       3.199111        257.6658
2018    18      0       3.97328         264.7338
2018    18      1       5.30848         270.4323
2018    18      2       4.873556        268.9946
2018    18      3       4.817751        268.947
2018    18      4       4.555859        268.1148
2018    18      5       4.081034        264.4762
2018    18      6       3.869225        264.5049
2018    18      7       3.765106        262.9574
2018    19      0       3.728071        262.4811
2018    19      1       3.433504        259.9608
2018    19      2       3.074294        255.7387
2018    19      3       2.57597         247.1918
2018    19      4       2.383009        242.9385
2018    19      5       2.292194        240.877
2018    19      6       2.123219        234.4495
2018    19      7       2.011467        230.3704
2018    20      0       1.70155         217.3959
2018    20      1       1.621832        213.9413
2018    20      2       1.686799        217.7013
2018    20      3       1.629386        215.4177
2018    20      4       1.788142        223.5276
2018    20      5       1.861682        227.6136
2018    20      6       1.848173        227.3871
2018    20      7       1.302419        197.8895
2018    21      0       1.281136        196.984
2018    21      1       1.349711        201.8287
2018    21      2       1.444089        207.2519
2018    21      3       2.799778        254.6416
2018    21      4       5.625834        273.5427
2018    21      5       5.467119        273.4051
2018    21      6       4.578435        270.376
2018    21      7       5.231551        272.4587
2018    22      0       5.706195        273.8776
2018    22      1       5.532835        273.3171
2018    22      2       4.439726        268.4566
2018    22      3       4.658444        268.2743
2018    22      4       4.82538         269.1982
2018    22      5       4.750728        269.4957
2018    22      6       4.150784        267.3889
2018    22      7       3.756083        265.1352
2018    23      0       3.227583        261.0585
2018    23      1       3.232879        262.0705
2018    23      2       3.536282        266.0976
2018    23      3       3.340168        264.6017
2018    23      4       4.752493        272.481
2018    23      5       5.10495         272.6339
2018    23      6       4.430685        271.7336
2018    23      7       3.604646        266.8871
2018    24      0       2.790849        256.6563
2018    24      1       2.867689        257.5457
2018    24      2       5.082626        271.4246
2018    24      3       4.551298        269.224
2018    24      4       4.607614        269.2024
2018    24      5       4.84493         269.9156
2018    24      6       5.5711          271.1404
2018    24      7       4.148018        267.0708
2018    25      0       4.157442        267.2488
2018    25      1       3.83894         264.4735
2018    25      2       4.059079        265.0895
2018    25      3       3.80691         263.4483
2018    25      4       3.907407        263.2524
2018    25      5       2.925391        253.0825
2018    25      6       3.012064        253.5043
2018    25      7       3.076332        254.0825
2018    26      0       3.297445        257.4558
2018    26      1       4.020112        264.2007
2018    26      2       3.717938        262.8344
2018    26      3       4.031819        264.803
2018    26      4       3.929407        264.3683
2018    26      5       3.724485        262.9794
2018    26      6       3.508134        261.1909
2018    26      7       3.263584        258.4533
2018    27      0       2.734989        250.7734
2018    27      1       2.916821        254.2713
2018    27      2       3.063323        256.6364
2018    27      3       4.230871        266.2638
2018    27      4       4.198782        266.5072
2018    27      5       4.491813        268.0595
2018    27      6       4.652439        268.7007
2018    27      7       3.919272        265.9472
2018    28      0       3.597411        264.3311
2018    28      1       2.773837        255.672
2018    28      2       3.590698        265.8275
2018    28      3       4.756663        270.6963
2018    28      4       3.843485        268.992
2018    28      5       4.980201        274.6885
2018    28      6       6.114168        277.7257
2018    28      7       6.297068        278.4155
2018    29      0       6.697669        279.1183
2018    29      1       5.410113        277.0056
2018    29      2       3.827645        270.358
2018    29      3       3.708268        268.3268
2018    29      4       5.278232        272.4202
2018    29      5       6.199467        273.0441
2018    29      6       5.388255        272.1756
2018    29      7       4.19071         268.8967
2018    30      0       4.811752        271.3949
2018    30      1       4.856709        271.3133
2018    30      2       4.429979        268.9435
2018    30      3       3.782467        265.4299
2018    30      4       3.413036        262.4341
2018    30      5       3.405558        262.4218
2018    30      6       3.513152        263.3836
2018    30      7       2.49819         249.5457
