####################################################################################################
# Month: 11Nov                                                                                     #
# Station: ATCA                                                                                    #
# Frequency: 345 GHz                                                                               #
# Columns are: year    day     segment         tau     Tb (K)                                      #
####################################################################################################
2009    1       0       3.672965        278.8793
2009    1       1       2.533717        265.8179
2009    1       2       2.098854        254.3298
2009    1       3       2.002522        250.4563
2009    1       4       2.14411         255.4389
2009    1       5       2.913418        272.8516
2009    1       6       3.780121        280.9081
2009    1       7       4.202625        282.8771
2009    2       0       4.59739         285.6057
2009    2       1       3.780545        285.2654
2009    2       2       3.578172        285.0716
2009    2       3       3.737867        286.2651
2009    2       4       3.94108         286.889
2009    2       5       3.897221        285.6913
2009    2       6       3.548521        282.537
2009    2       7       3.159841        277.7935
2009    3       0       3.077962        277.0694
2009    3       1       2.768296        274.1272
2009    3       2       2.463705        268.5854
2009    3       3       2.44087         267.9458
2009    3       4       2.693519        272.877
2009    3       5       3.480875        282.4757
2009    3       6       4.172761        286.3805
2009    3       7       5.272004        288.8443
2009    4       0       4.244917        287.0076
2009    4       1       4.791839        290.7491
2009    4       2       5.597642        292.5904
2009    4       3       5.834431        290.3342
2009    4       4       5.04613         286.3384
2009    4       5       3.765827        278.6161
2009    4       6       3.189841        271.7595
2009    4       7       3.524521        275.1605
2009    5       0       4.840585        281.9637
2009    5       1       6.267369        285.8707
2009    5       2       6.00226         287.0755
2009    5       3       5.729341        286.8699
2009    5       4       4.770476        285.3197
2009    5       5       6.885306        286.9827
2009    5       6       7.359664        285.8486
2009    5       7       7.655971        285.926
2009    6       0       7.402244        285.7227
2009    6       1       7.619057        285.2006
2009    6       2       7.692351        284.9177
2009    6       3       7.672321        285.1056
2009    6       4       7.347316        285.4833
2009    6       5       7.258331        284.4864
2009    6       6       7.259239        284.7992
2009    6       7       7.326546        285.08
2009    7       0       7.560904        285.2029
2009    7       1       7.055591        286.3411
2009    7       2       6.566988        287.9769
2009    7       3       6.230238        288.0076
2009    7       4       6.170574        286.2517
2009    7       5       5.381408        284.0105
2009    7       6       5.05979         283.0359
2009    7       7       5.124738        282.964
2009    8       0       5.62            284.6079
2009    8       1       5.623534        286.5487
2009    8       2       5.89327         287.8508
2009    8       3       6.455493        288.2672
2009    8       4       6.872381        286.7463
2009    8       5       6.134898        285.4604
2009    8       6       5.993765        284.9262
2009    8       7       5.704383        284.6032
2009    9       0       5.274719        285.6927
2009    9       1       5.021739        287.0082
2009    9       2       5.010531        287.6751
2009    9       3       5.000592        287.2031
2009    9       4       5.488277        286.2368
2009    9       5       5.431775        282.987
2009    9       6       4.943897        281.4256
2009    9       7       4.954973        280.9842
2009    10      0       4.68264         283.0351
2009    10      1       3.559017        279.995
2009    10      2       3.016026        274.9139
2009    10      3       2.930522        272.8069
2009    10      4       3.500719        279.3815
2009    10      5       5.495363        284.8011
2009    10      6       5.38537         283.7235
2009    10      7       5.392721        283.1693
2009    11      0       5.171187        285.95
2009    11      1       3.974886        285.0118
2009    11      2       3.692557        284.1853
2009    11      3       3.654291        283.5893
2009    11      4       3.710797        283.5402
2009    11      5       4.500761        286.2171
2009    11      6       4.694866        285.5694
2009    11      7       4.905011        285.2258
2009    12      0       4.717312        286.9492
2009    12      1       4.082351        287.8198
2009    12      2       4.126016        289.3815
2009    12      3       4.524114        290.6262
2009    12      4       4.829437        291.168
2009    12      5       5.3738          291.0776
2009    12      6       7.061505        290.1393
2009    12      7       6.076014        290.0338
2009    13      0       5.613533        290.9201
2009    13      1       5.549289        292.3359
2009    13      2       5.64289         293.0942
2009    13      3       5.351136        292.326
2009    13      4       6.833805        290.1174
2009    13      5       6.847159        287.8308
2009    13      6       6.794363        286.9254
2009    13      7       7.154413        286.2032
2009    14      0       6.309517        289.0535
2009    14      1       5.03156         290.5202
2009    14      2       4.497666        290.3363
2009    14      3       4.048635        288.3492
2009    14      4       4.046783        287.7845
2009    14      5       4.257748        287.9992
2009    14      6       4.703867        288.5683
2009    14      7       5.272671        288.8583
2009    15      0       5.5997          290.7927
2009    15      1       5.11307         292.385
2009    15      2       4.749227        292.6729
2009    15      3       5.035895        292.9979
2009    15      4       5.167673        292.6855
2009    15      5       5.042085        292.1119
2009    15      6       5.253168        291.6825
2009    15      7       5.308594        290.812
2009    16      0       4.95349         291.7827
2009    16      1       4.392978        292.4681
2009    16      2       4.227232        292.3721
2009    16      3       4.074417        291.4838
2009    16      4       6.454422        294.8554
2009    16      5       6.689247        294.1815
2009    16      6       6.101183        293.7426
2009    16      7       6.239873        294.3598
2009    17      0       6.004188        295.2868
2009    17      1       4.993265        294.0566
2009    17      2       4.633781        294.4558
2009    17      3       4.135615        290.2231
2009    17      4       3.456169        281.2052
2009    17      5       4.298677        288.1112
2009    17      6       4.948598        289.5412
2009    17      7       7.481205        290.3246
2009    18      0       6.504209        293.9192
2009    18      1       4.823219        295.1331
2009    18      2       4.172249        293.0163
2009    18      3       3.945021        291.0675
2009    18      4       3.64137         288.7597
2009    18      5       4.621234        293.5334
2009    18      6       8.79912         292.7689
2009    18      7       8.616376        292.1086
2009    19      0       7.785882        295.4986
2009    19      1       5.410153        297.3827
2009    19      2       4.914976        297.215
2009    19      3       4.996645        296.8587
2009    19      4       5.26861         296.5144
2009    19      5       5.849891        296.5278
2009    19      6       6.815303        295.7671
2009    19      7       6.657081        293.7773
2009    20      0       6.399364        295.625
2009    20      1       5.270443        297.1909
2009    20      2       4.580498        296.5627
2009    20      3       4.517453        296.1296
2009    20      4       4.532745        295.4476
2009    20      5       4.837616        295.2092
2009    20      6       4.983703        294.4341
2009    20      7       5.022857        292.9586
2009    21      0       5.241308        294.7438
2009    21      1       4.876288        297.0486
2009    21      2       4.616056        297.1045
2009    21      3       4.704078        296.8308
2009    21      4       5.142266        296.8303
2009    21      5       5.260928        295.1584
2009    21      6       4.51439         292.5319
2009    21      7       4.611116        291.059
2009    22      0       4.434481        291.8714
2009    22      1       3.953726        291.8727
2009    22      2       4.19216         293.306
2009    22      3       4.771694        294.76
2009    22      4       5.965509        295.7375
2009    22      5       5.899059        292.0156
2009    22      6       5.970646        292.1024
2009    22      7       6.403495        292.7681
2009    23      0       6.50716         294.3363
2009    23      1       5.852859        296.3458
2009    23      2       5.583556        296.7035
2009    23      3       7.296572        296.8958
2009    23      4       10.33912        292.1425
2009    23      5       9.146651        288.6051
2009    23      6       8.04448         288.3214
2009    23      7       8.101604        288.1501
2009    24      0       6.911953        290.4736
2009    24      1       5.218451        291.9824
2009    24      2       4.603941        291.432
2009    24      3       4.569131        291.3434
2009    24      4       5.007859        291.7738
2009    24      5       6.221029        289.8857
2009    24      6       6.689384        287.9064
2009    24      7       6.587541        286.3289
2009    25      0       5.66139         288.8133
2009    25      1       4.634461        290.0091
2009    25      2       3.627965        285.3086
2009    25      3       3.431654        282.5412
2009    25      4       3.918408        286.3947
2009    25      5       5.87383         290.2979
2009    25      6       6.332976        288.8843
2009    25      7       7.236679        287.485
2009    26      0       6.376733        289.4039
2009    26      1       4.883933        290.2386
2009    26      2       4.102912        288.9005
2009    26      3       4.053533        287.8167
2009    26      4       5.524518        291.7841
2009    26      5       8.683904        290.4792
2009    26      6       9.567876        288.5416
2009    26      7       9.052429        288.1568
2009    27      0       7.411159        290.4188
2009    27      1       6.302305        293.9795
2009    27      2       5.160105        294.4954
2009    27      3       4.37568         291.7106
2009    27      4       3.837653        288.1613
2009    27      5       4.008736        288.5215
2009    27      6       3.79549         286.5539
2009    27      7       5.353655        291.4602
2009    28      0       5.534869        294.0507
2009    28      1       4.328253        292.0638
2009    28      2       3.84975         288.9966
2009    28      3       3.93149         288.5096
2009    28      4       3.789166        285.2223
2009    28      5       2.485268        262.3417
2009    28      6       2.78655         267.461
2009    28      7       3.264934        274.1106
2009    29      0       2.768911        268.5541
2009    29      1       2.362605        261.1138
2009    29      2       2.584595        267.2319
2009    29      3       3.929962        283.076
2009    29      4       3.268877        275.7386
2009    29      5       3.377178        275.6495
2009    29      6       3.501353        275.4899
2009    29      7       3.786862        277.1116
2009    30      0       3.464493        276.5984
2009    30      1       3.011517        273.2922
2009    30      2       3.060885        274.5281
2009    30      3       3.286334        276.4487
2009    30      4       3.389643        276.4787
2009    30      5       4.377508        281.5208
2009    30      6       4.623677        281.6703
2009    30      7       4.630011        281.6702
2010    1       0       6.80523         282.4357
2010    1       1       5.890625        282.5671
2010    1       2       5.281359        282.3604
2010    1       3       5.177161        279.4501
2010    1       4       3.953883        274.3778
2010    1       5       3.908731        273.2157
2010    1       6       3.628309        270.9844
2010    1       7       3.304303        268.0568
2010    2       0       2.853107        263.365
2010    2       1       2.358097        254.6463
2010    2       2       2.446654        257.6221
2010    2       3       2.553903        259.6245
2010    2       4       2.540816        258.7682
2010    2       5       2.909791        264.936
2010    2       6       3.445962        271.0195
2010    2       7       3.799095        273.5276
2010    3       0       3.741249        274.8971
2010    3       1       3.513262        275.4239
2010    3       2       3.323217        274.7804
2010    3       3       3.290307        274.4185
2010    3       4       3.376494        275.0773
2010    3       5       3.514915        275.8977
2010    3       6       3.703716        276.6786
2010    3       7       4.649885        280.748
2010    4       0       5.20029         282.5546
2010    4       1       4.482277        281.1809
2010    4       2       4.707119        282.2737
2010    4       3       4.822741        282.7707
2010    4       4       5.397934        282.9881
2010    4       5       5.436539        281.9171
2010    4       6       5.339569        281.7382
2010    4       7       5.537839        281.9026
2010    5       0       5.69648         283.8521
2010    5       1       5.19877         284.1127
2010    5       2       5.401525        284.4649
2010    5       3       5.362486        282.425
2010    5       4       4.797397        279.6523
2010    5       5       4.64472         279.5927
2010    5       6       4.931674        280.1607
2010    5       7       4.889699        279.5088
2010    6       0       4.996076        280.997
2010    6       1       4.371448        281.0668
2010    6       2       4.08799         280.9682
2010    6       3       4.140172        280.9724
2010    6       4       4.577073        281.4876
2010    6       5       4.479956        280.2149
2010    6       6       4.321905        280.0302
2010    6       7       4.331733        280.5686
2010    7       0       5.055198        282.8186
2010    7       1       6.016095        286.2011
2010    7       2       6.251929        287.7818
2010    7       3       5.904259        287.852
2010    7       4       5.882142        287.4385
2010    7       5       7.283682        286.5363
2010    7       6       6.927946        285.5609
2010    7       7       7.636383        285.5051
2010    8       0       8.245974        286.4834
2010    8       1       7.893341        287.215
2010    8       2       7.586351        288.2295
2010    8       3       6.986963        288.1199
2010    8       4       6.57265         287.6879
2010    8       5       6.589272        287.1349
2010    8       6       7.885686        285.6776
2010    8       7       8.227364        285.1659
2010    9       0       7.913973        286.9002
2010    9       1       7.363365        289.1026
2010    9       2       7.406145        290.2006
2010    9       3       7.54508         290.041
2010    9       4       8.477707        288.8083
2010    9       5       9.389147        286.7057
2010    9       6       8.022609        286.2094
2010    9       7       7.724627        285.6283
2010    10      0       7.935438        287.3565
2010    10      1       8.081595        289.4636
2010    10      2       8.002385        290.2854
2010    10      3       7.949725        290.2631
2010    10      4       7.408473        289.9398
2010    10      5       7.233766        289.0893
2010    10      6       7.550692        287.2802
2010    10      7       7.788892        286.25
2010    11      0       8.377969        286.395
2010    11      1       8.091098        288.4671
2010    11      2       8.004035        289.6148
2010    11      3       8.0933          289.5785
2010    11      4       7.797715        289.1091
2010    11      5       6.967214        288.8197
2010    11      6       6.899091        288.6319
2010    11      7       7.363225        288.0419
2010    12      0       8.060079        288.8181
2010    12      1       7.304693        290.4473
2010    12      2       7.128772        291.481
2010    12      3       7.273915        291.6823
2010    12      4       7.493689        291.408
2010    12      5       9.407333        289.2049
2010    12      6       9.097487        287.6876
2010    12      7       7.839031        286.7175
2010    13      0       7.611869        287.9529
2010    13      1       7.129706        290.0008
2010    13      2       7.305859        291.0446
2010    13      3       8.066764        290.8753
2010    13      4       8.32274         290.3757
2010    13      5       7.940234        289.3221
2010    13      6       8.092076        288.4284
2010    13      7       8.360235        287.2476
2010    14      0       8.588669        288.1172
2010    14      1       8.200793        290.4599
2010    14      2       8.219841        291.5208
2010    14      3       7.873079        291.2083
2010    14      4       7.534281        291.279
2010    14      5       8.061949        290.0492
2010    14      6       9.245267        287.8359
2010    14      7       9.941661        286.9424
2010    15      0       10.35009        287.0369
2010    15      1       10.43582        287.6636
2010    15      2       11.05806        288.5044
2010    15      3       10.15486        288.3156
2010    15      4       8.997375        287.3291
2010    15      5       9.477228        287.2651
2010    15      6       8.428351        287.0877
2010    15      7       7.736272        286.4116
2010    16      0       7.177585        286.4286
2010    16      1       6.910258        288.4912
2010    16      2       6.770865        289.3223
2010    16      3       6.42558         288.874
2010    16      4       7.360032        288.3838
2010    16      5       8.413471        287.3688
2010    16      6       8.735818        286.5794
2010    16      7       8.170813        285.973
2010    17      0       7.544644        285.7801
2010    17      1       6.868837        287.7805
2010    17      2       6.989468        288.4033
2010    17      3       7.239091        287.9445
2010    17      4       7.843696        287.0179
2010    17      5       8.59001         286.0241
2010    17      6       7.988054        285.5805
2010    17      7       7.550811        285.3325
2010    18      0       7.670199        285.1125
2010    18      1       8.210552        285.7213
2010    18      2       8.147994        285.6472
2010    18      3       7.726406        285.42
2010    18      4       6.660152        284.9992
2010    18      5       5.961826        284.3797
2010    18      6       5.342509        283.8881
2010    18      7       4.656251        282.4667
2010    19      0       4.727575        283.2986
2010    19      1       4.695476        284.7259
2010    19      2       5.074207        286.4898
2010    19      3       5.737111        286.226
2010    19      4       4.988378        282.8063
2010    19      5       5.075845        282.3401
2010    19      6       4.49309         280.972
2010    19      7       4.336256        280.3136
2010    20      0       4.821825        283.4186
2010    20      1       4.62688         285.0045
2010    20      2       4.540082        285.3283
2010    20      3       4.7596          285.8738
2010    20      4       5.256882        285.2195
2010    20      5       3.621618        277.1293
2010    20      6       2.580968        261.5477
2010    20      7       3.079547        269.5907
2010    21      0       4.026005        278.132
2010    21      1       3.619489        277.538
2010    21      2       3.529134        277.392
2010    21      3       3.658176        278.1616
2010    21      4       4.581249        282.1393
2010    21      5       5.19575         282.0252
2010    21      6       4.010644        277.4814
2010    21      7       3.695548        275.2206
2010    22      0       4.915666        282.0468
2010    22      1       5.020505        284.2485
2010    22      2       5.475126        285.962
2010    22      3       6.633343        285.7758
2010    22      4       6.383188        284.0225
2010    22      5       6.134426        282.9414
2010    22      6       6.032931        282.3321
2010    22      7       5.9326          282.1409
2010    23      0       6.137094        282.9373
2010    23      1       5.502905        284.7011
2010    23      2       5.531281        286.1544
2010    23      3       6.024692        285.6585
2010    23      4       5.650006        283.8308
2010    23      5       5.488463        283.0384
2010    23      6       5.600438        282.8246
2010    23      7       5.327249        282.3961
2010    24      0       5.201699        283.6095
2010    24      1       4.895581        285.1689
2010    24      2       5.183071        286.8422
2010    24      3       5.362466        286.8603
2010    24      4       5.023178        283.6928
2010    24      5       4.554132        281.0204
2010    24      6       4.560946        280.5759
2010    24      7       4.511474        280.1636
2010    25      0       4.477345        281.3003
2010    25      1       3.733473        279.5585
2010    25      2       3.788137        281.0584
2010    25      3       4.15359         283.1932
2010    25      4       4.3778          283.8011
2010    25      5       4.644451        282.8824
2010    25      6       5.064487        282.7149
2010    25      7       5.063008        282.1908
2010    26      0       5.468783        283.5616
2010    26      1       5.137476        284.8028
2010    26      2       4.792324        285.8344
2010    26      3       4.943527        286.4835
2010    26      4       5.439067        287.1471
2010    26      5       6.085071        285.5188
2010    26      6       5.743928        284.5383
2010    26      7       5.75427         284.009
2010    27      0       5.747718        285.8777
2010    27      1       5.03611         287.0904
2010    27      2       4.656879        287.0276
2010    27      3       4.633173        286.5065
2010    27      4       5.141897        286.7073
2010    27      5       5.878634        285.2813
2010    27      6       6.172866        283.6693
2010    27      7       6.496687        283.5123
2010    28      0       6.472364        285.4384
2010    28      1       6.644121        287.3012
2010    28      2       6.598469        287.8463
2010    28      3       6.213712        287.2412
2010    28      4       5.921799        286.1879
2010    28      5       6.450523        285.8877
2010    28      6       6.902037        284.9189
2010    28      7       7.657379        284.1009
2010    29      0       8.097518        284.7526
2010    29      1       6.690349        286.5688
2010    29      2       7.619999        288.3481
2010    29      3       8.947385        287.754
2010    29      4       8.078216        287.1715
2010    29      5       8.394932        287.008
2010    29      6       8.457297        286.0728
2010    29      7       7.371523        285.7644
2010    30      0       7.991136        285.8429
2010    30      1       8.012155        285.6394
2010    30      2       8.585948        286.7636
2010    30      3       8.474397        286.5592
2010    30      4       8.969267        286.3966
2010    30      5       7.938463        286.21
2010    30      6       7.448023        285.4659
2010    30      7       7.761046        284.9958
2011    1       0       5.125606        283.4016
2011    1       1       4.455342        284.6789
2011    1       2       4.33066         285.173
2011    1       3       4.39184         285.0327
2011    1       4       3.822095        281.2498
2011    1       5       3.19101         274.7491
2011    1       6       3.271729        276.0177
2011    1       7       3.612547        278.8888
2011    2       0       3.927663        281.7362
2011    2       1       3.495672        278.8721
2011    2       2       3.057889        274.2153
2011    2       3       3.054814        274.2768
2011    2       4       3.485821        279.4252
2011    2       5       3.731604        280.6153
2011    2       6       3.750039        279.3134
2011    2       7       3.938797        279.2397
2011    3       0       3.928769        280.5234
2011    3       1       4.126878        284.0018
2011    3       2       4.280659        286.0448
2011    3       3       4.20351         284.8868
2011    3       4       3.996125        282.6517
2011    3       5       3.892525        281.1632
2011    3       6       4.045335        282.0175
2011    3       7       4.73474         284.2455
2011    4       0       4.863776        286.3954
2011    4       1       4.342512        287.1548
2011    4       2       4.109796        287.1006
2011    4       3       4.020223        286.2077
2011    4       4       4.136008        286.0719
2011    4       5       5.791975        287.7512
2011    4       6       6.279871        286.6492
2011    4       7       6.177239        285.5903
2011    5       0       6.257451        288.3735
2011    5       1       6.289667        290.455
2011    5       2       6.272469        291.2806
2011    5       3       6.342427        290.6032
2011    5       4       6.217337        290.1951
2011    5       5       6.361875        289.7231
2011    5       6       7.248035        287.853
2011    5       7       8.630809        287.928
2011    6       0       9.524043        287.5967
2011    6       1       10.37945        287.928
2011    6       2       10.5977         288.5883
2011    6       3       10.62176        288.4133
2011    6       4       8.950398        288.8879
2011    6       5       6.935835        289.006
2011    6       6       6.335037        288.5909
2011    6       7       6.583933        288.3663
2011    7       0       7.276601        289.0866
2011    7       1       7.717813        292.742
2011    7       2       8.233217        293.8444
2011    7       3       8.218129        293.6318
2011    7       4       7.59194         293.201
2011    7       5       6.812548        292.3419
2011    7       6       6.547308        290.9956
2011    7       7       6.603406        288.7611
2011    8       0       6.866338        290.1124
2011    8       1       6.366447        292.8676
2011    8       2       6.25973         294.2079
2011    8       3       6.365472        293.9991
2011    8       4       6.24718         293.1525
2011    8       5       6.547139        292.0489
2011    8       6       5.631162        290.3212
2011    8       7       6.823254        288.9191
2011    9       0       7.422515        289.682
2011    9       1       6.700609        292.0155
2011    9       2       6.502389        293.9091
2011    9       3       6.455271        293.7706
2011    9       4       6.117601        292.9234
2011    9       5       5.35536         290.887
2011    9       6       15.31737        295.8985
2011    9       7       6.262251        290.2319
2011    10      0       7.759454        289.9254
2011    10      1       7.705753        292.4695
2011    10      2       8.372221        292.1906
2011    10      3       7.824349        291.6894
2011    10      4       5.589591        290.079
2011    10      5       4.01142         284.2525
2011    10      6       4.3984          286.2541
2011    10      7       5.701268        289.8526
2011    11      0       5.34475         290.1908
2011    11      1       4.613976        290.036
2011    11      2       3.903           287.2925
2011    11      3       3.151006        279.2403
2011    11      4       3.242823        279.0366
2011    11      5       6.931649        288.8142
2011    11      6       6.945751        287.6026
2011    11      7       6.93627         286.714
2011    12      0       6.702932        288.7413
2011    12      1       6.070859        290.9949
2011    12      2       5.71652         292.2667
2011    12      3       5.457979        291.9184
2011    12      4       4.53959         287.7054
2011    12      5       4.284925        284.9762
2011    12      6       5.362473        287.6329
2011    12      7       6.822741        288.6482
2011    13      0       8.244414        291.3713
2011    13      1       8.998272        293.253
2011    13      2       9.931032        293.1827
2011    13      3       10.90315        291.2068
2011    13      4       9.555107        291.7652
2011    13      5       9.207754        291.5158
2011    13      6       8.521332        291.16
2011    13      7       7.705047        290.0831
2011    14      0       7.017509        291.5589
2011    14      1       6.007613        294.3588
2011    14      2       5.135767        294.3548
2011    14      3       5.194406        294.0346
2011    14      4       5.006749        293.4159
2011    14      5       5.004608        292.9362
2011    14      6       5.04765         292.1645
2011    14      7       4.867721        291.3887
2011    15      0       5.291273        293.0112
2011    15      1       5.138991        294.5619
2011    15      2       5.042498        295.0252
2011    15      3       5.14545         294.9577
2011    15      4       5.67385         295.1867
2011    15      5       6.776597        294.7743
2011    15      6       7.736174        292.6618
2011    15      7       7.430826        291.4177
2011    16      0       7.319798        292.6319
2011    16      1       6.281285        294.8693
2011    16      2       6.967888        295.7687
2011    16      3       8.312102        292.8224
2011    16      4       8.432573        292.1866
2011    16      5       8.115535        292.0413
2011    16      6       8.504627        291.1215
2011    16      7       8.729572        289.8631
2011    17      0       7.648437        289.5291
2011    17      1       7.990934        291.8165
2011    17      2       10.06574        289.2891
2011    17      3       9.603525        288.9982
2011    17      4       8.438537        289.056
2011    17      5       7.922817        288.2733
2011    17      6       8.066101        287.5625
2011    17      7       8.850195        287.1816
2011    18      0       9.8098          287.6476
2011    18      1       9.156241        290.3257
2011    18      2       9.277039        290.7432
2011    18      3       8.92527         290.2506
2011    18      4       7.544221        290.1534
2011    18      5       6.26258         290.1555
2011    18      6       5.760589        289.316
2011    18      7       6.609592        288.3742
2011    19      0       6.578272        289.7808
2011    19      1       6.223274        292.2786
2011    19      2       6.300558        293.5082
2011    19      3       6.112753        293.3564
2011    19      4       5.787775        292.7045
2011    19      5       4.453163        287.2887
2011    19      6       5.540364        288.3455
2011    19      7       6.22414         287.5745
2011    20      0       6.150662        289.8735
2011    20      1       5.727247        292.8732
2011    20      2       5.921238        294.1243
2011    20      3       7.5705          293.8152
2011    20      4       7.952979        289.5228
2011    20      5       7.287204        290.6431
2011    20      6       7.877966        291.7372
2011    20      7       7.945664        288.6016
2011    21      0       7.840807        290.6082
2011    21      1       7.146714        293.6699
2011    21      2       8.668605        292.8497
2011    21      3       9.542347        290.8745
2011    21      4       8.363696        291.3456
2011    21      5       7.914667        291.5188
2011    21      6       6.864169        288.627
2011    21      7       7.41661         287.7431
2011    22      0       7.745855        289.9901
2011    22      1       7.575605        292.9219
2011    22      2       7.976749        293.2421
2011    22      3       8.498971        291.8628
2011    22      4       8.584266        291.335
2011    22      5       9.403934        290.7238
2011    22      6       10.27139        289.4292
2011    22      7       10.65224        289.1128
2011    23      0       11.44397        289.5073
2011    23      1       11.83961        291.2257
2011    23      2       12.10362        290.6349
2011    23      3       12.68561        290.1149
2011    23      4       11.6888         289.8499
2011    23      5       11.53618        289.0288
2011    23      6       9.865387        288.2907
2011    23      7       8.541665        289.2515
2011    24      0       8.723529        288.3787
2011    24      1       10.01528        289.5907
2011    24      2       10.4407         289.634
2011    24      3       9.871844        288.8277
2011    24      4       9.136873        287.7629
2011    24      5       9.978351        288.6517
2011    24      6       10.88075        289.3329
2011    24      7       12.07167        289.2691
2011    25      0       12.39891        289.395
2011    25      1       12.04001        289.1017
2011    25      2       11.54641        289.3496
2011    25      3       11.95132        289.2231
2011    25      4       11.55555        288.9916
2011    25      5       11.04018        288.2027
2011    25      6       9.155971        287.7616
2011    25      7       7.263091        286.4216
2011    26      0       7.581017        287.2411
2011    26      1       5.869347        288.9355
2011    26      2       4.393212        286.4609
2011    26      3       3.500924        280.2171
2011    26      4       2.857384        271.6081
2011    26      5       2.766102        269.9695
2011    26      6       3.025272        273.4213
2011    26      7       3.223444        275.6188
2011    27      0       4.163275        283.2905
2011    27      1       4.008703        284.1595
2011    27      2       4.348274        286.6398
2011    27      3       4.305524        286.2322
2011    27      4       4.369178        286.2603
2011    27      5       4.522329        286.4128
2011    27      6       4.501432        286.2997
2011    27      7       4.38933         285.9104
2011    28      0       4.654439        286.9555
2011    28      1       4.471599        287.8177
2011    28      2       4.62037         289.5043
2011    28      3       4.634989        289.6889
2011    28      4       5.303597        291.0863
2011    28      5       7.172234        290.9771
2011    28      6       6.770425        290.4455
2011    28      7       5.814718        289.3285
2011    29      0       7.106913        290.3126
2011    29      1       7.511938        292.2096
2011    29      2       7.561844        292.8492
2011    29      3       7.153659        293.1717
2011    29      4       6.633654        293.1107
2011    29      5       6.641938        291.2706
2011    29      6       6.484865        289.4814
2011    29      7       5.906804        287.559
2011    30      0       7.551233        288.9755
2011    30      1       7.676839        291.7336
2011    30      2       8.341558        292.1645
2011    30      3       9.154906        291.4355
2011    30      4       10.02943        288.962
2011    30      5       7.416102        286.7454
2011    30      6       6.416563        285.3917
2011    30      7       6.83551         285.8795
2012    1       0       3.747777        283.2647
2012    1       1       3.930674        285.1138
2012    1       2       8.622121        296.7391
2012    1       3       4.80431         289.1917
2012    1       4       6.185717        288.2642
2012    1       5       4.076758        279.3134
2012    1       6       3.086983        270.0098
2012    1       7       2.821609        265.8557
2012    2       0       2.262779        256.1653
2012    2       1       1.797709        240.7171
2012    2       2       1.710578        237.1454
2012    2       3       1.771765        239.6594
2012    2       4       2.094264        252.2138
2012    2       5       3.069175        273.942
2012    2       6       4.4579          281.2708
2012    2       7       5.201977        281.9724
2012    3       0       4.677734        283.476
2012    3       1       4.956096        284.9236
2012    3       2       5.259156        285.7981
2012    3       3       5.353255        285.9417
2012    3       4       5.570779        286.0301
2012    3       5       6.180626        284.5928
2012    3       6       6.224081        283.1385
2012    3       7       5.97389         282.4391
2012    4       0       5.716917        285.237
2012    4       1       5.12509         287.0709
2012    4       2       4.826541        287.7838
2012    4       3       4.686307        287.2389
2012    4       4       4.391958        286.0829
2012    4       5       4.225632        285.417
2012    4       6       4.928047        286.0127
2012    4       7       5.406485        285.3569
2012    5       0       5.084368        287.145
2012    5       1       4.211           286.9932
2012    5       2       4.11286         287.9088
2012    5       3       4.213073        288.5199
2012    5       4       4.11659         287.8706
2012    5       5       3.940114        286.6012
2012    5       6       4.828797        287.8506
2012    5       7       5.934971        286.6401
2012    6       0       6.304225        289.3472
2012    6       1       6.334532        292.0864
2012    6       2       6.127192        292.8014
2012    6       3       5.872273        292.0052
2012    6       4       5.760481        291.0196
2012    6       5       5.702382        288.1868
2012    6       6       5.219349        286.2594
2012    6       7       5.527938        285.9251
2012    7       0       5.4719          286.6485
2012    7       1       5.434659        289.3605
2012    7       2       5.700727        290.3014
2012    7       3       6.108575        290.6324
2012    7       4       6.367781        290.5964
2012    7       5       6.772332        289.8349
2012    7       6       5.058682        287.1629
2012    7       7       6.24171         287.4096
2012    8       0       6.983118        290.0587
2012    8       1       7.426567        292.572
2012    8       2       7.971423        292.8816
2012    8       3       8.249377        291.9089
2012    8       4       9.381172        290.2302
2012    8       5       10.17843        288.1607
2012    8       6       9.012295        287.7018
2012    8       7       8.435479        287.3986
2012    9       0       8.560168        287.1199
2012    9       1       8.571883        286.8081
2012    9       2       7.706783        287.1536
2012    9       3       6.759637        287.7481
2012    9       4       6.634993        287.0483
2012    9       5       5.555146        284.5434
2012    9       6       3.514179        273.6167
2012    9       7       5.082291        283.1752
2012    10      0       5.530985        284.228
2012    10      1       5.050016        284.2238
2012    10      2       4.899078        284.9391
2012    10      3       4.88258         284.7671
2012    10      4       5.214676        282.2231
2012    10      5       4.333224        278.478
2012    10      6       4.17818         277.6902
2012    10      7       3.721418        275.6589
2012    11      0       3.410406        275.3966
2012    11      1       2.713312        267.8654
2012    11      2       2.464595        263.5729
2012    11      3       2.477832        263.7463
2012    11      4       3.108979        273.1605
2012    11      5       3.293338        272.8518
2012    11      6       2.53846         261.3837
2012    11      7       2.356679        256.7657
2012    12      0       3.186142        273.3027
2012    12      1       2.99305         273.0251
2012    12      2       2.84639         271.8519
2012    12      3       2.858477        271.7897
2012    12      4       2.93205         272.625
2012    12      5       2.942763        272.1637
2012    12      6       3.00357         272.2407
2012    12      7       3.290442        274.6676
2012    13      0       3.915513        280.7367
2012    13      1       3.591345        281.3055
2012    13      2       3.382161        280.218
2012    13      3       3.619252        281.9463
2012    13      4       4.180671        284.746
2012    13      5       4.968572        286.5008
2012    13      6       4.779204        286.174
2012    13      7       4.843738        286.2196
2012    14      0       5.029948        287.7794
2012    14      1       5.220645        289.5847
2012    14      2       5.211346        290.5815
2012    14      3       4.663816        289.316
2012    14      4       3.6572          282.3992
2012    14      5       3.267904        277.7616
2012    14      6       3.34453         277.9522
2012    14      7       3.565261        279.7251
2012    15      0       3.588765        281.5576
2012    15      1       3.23429         278.9573
2012    15      2       3.372464        280.5863
2012    15      3       3.291482        279.8757
2012    15      4       2.996297        275.9699
2012    15      5       3.333121        279.3498
2012    15      6       5.055462        288.3872
2012    15      7       6.213944        289.3762
2012    16      0       6.298413        288.4029
2012    16      1       6.081181        290.1961
2012    16      2       6.288943        289.7874
2012    16      3       5.738324        288.9003
2012    16      4       6.848217        286.9959
2012    16      5       6.772223        284.6937
2012    16      6       6.36436         285.1444
2012    16      7       6.551071        286.074
2012    17      0       5.621591        288.3993
2012    17      1       5.270536        290.8686
2012    17      2       6.232815        292.7715
2012    17      3       7.212439        292.6357
2012    17      4       9.245584        289.3479
2012    17      5       8.260162        286.2273
2012    17      6       8.187157        286.2678
2012    17      7       8.368513        286.5342
2012    18      0       6.284442        288.4598
2012    18      1       4.42429         287.1441
2012    18      2       3.373725        281.1371
2012    18      3       1.925093        246.3352
2012    18      4       1.537457        224.9323
2012    18      5       2.053457        247.6488
2012    18      6       2.253199        253.2132
2012    18      7       2.338107        255.0453
2012    19      0       1.861175        239.7875
2012    19      1       1.259784        205.5926
2012    19      2       1.429259        218.6237
2012    19      3       1.970582        246.6793
2012    19      4       2.550597        263.1099
2012    19      5       2.605619        262.1856
2012    19      6       3.232942        270.7615
2012    19      7       3.243027        271.1047
2012    20      0       3.391725        276.2515
2012    20      1       3.018408        275.1357
2012    20      2       3.015226        276.4055
2012    20      3       3.265213        279.1577
2012    20      4       3.761175        281.5614
2012    20      5       4.238745        282.69
2012    20      6       4.627953        283.1551
2012    20      7       4.418401        282.053
2012    21      0       4.551118        284.6246
2012    21      1       3.876111        284.0958
2012    21      2       3.833252        284.6535
2012    21      3       4.137088        286.2822
2012    21      4       4.481551        287.3507
2012    21      5       4.353576        286.738
2012    21      6       4.093499        285.291
2012    21      7       4.202056        285.2243
2012    22      0       4.043407        285.5412
2012    22      1       3.524684        283.524
2012    22      2       3.202865        280.3529
2012    22      3       3.142482        278.6605
2012    22      4       3.99172         286.1135
2012    22      5       5.546399        289.7195
2012    22      6       6.784386        287.889
2012    22      7       7.056294        287.2138
2012    23      0       6.085484        290.3469
2012    23      1       4.397077        289.5434
2012    23      2       4.002309        288.3811
2012    23      3       4.21013         289.0344
2012    23      4       5.035737        290.7478
2012    23      5       6.884045        288.8672
2012    23      6       7.144207        287.5319
2012    23      7       7.183256        286.701
2012    24      0       6.743815        289.8363
2012    24      1       5.712145        292.4869
2012    24      2       4.906619        292.2966
2012    24      3       4.994308        292.1511
2012    24      4       5.401912        292.1898
2012    24      5       6.646844        290.0578
2012    24      6       6.841592        287.9731
2012    24      7       6.975503        287.2906
2012    25      0       6.834078        289.9588
2012    25      1       6.331059        292.7895
2012    25      2       5.914369        293.6138
2012    25      3       6.168709        293.5639
2012    25      4       6.199812        293.1229
2012    25      5       6.149513        292.4028
2012    25      6       6.161794        291.4229
2012    25      7       6.360658        290.0095
2012    26      0       6.594512        291.5208
2012    26      1       6.594922        294.1337
2012    26      2       7.410098        295.0773
2012    26      3       7.644491        295.3755
2012    26      4       7.613038        294.6175
2012    26      5       7.824095        293.3416
2012    26      6       8.472955        290.9436
2012    26      7       7.79334         288.394
2012    27      0       7.622116        290.8859
2012    27      1       7.906468        294.6472
2012    27      2       8.66044         294.9939
2012    27      3       10.68623        291.8185
2012    27      4       9.237012        292.5653
2012    27      5       9.443713        291.7521
2012    27      6       8.891044        291.6971
2012    27      7       8.524557        291.3333
2012    28      0       8.018123        292.3093
2012    28      1       8.194535        293.6743
2012    28      2       7.90461         294.4139
2012    28      3       8.095039        293.8731
2012    28      4       8.18266         293.2094
2012    28      5       8.182631        291.7127
2012    28      6       8.115138        291.154
2012    28      7       7.460218        290.2308
2012    29      0       7.242419        292.6593
2012    29      1       6.773937        295.1563
2012    29      2       6.545665        296.1161
2012    29      3       6.380361        296.2911
2012    29      4       6.050812        296.2287
2012    29      5       5.857548        295.8363
2012    29      6       5.81591         294.6014
2012    29      7       6.039638        293.6189
2012    30      0       6.187503        295.1474
2012    30      1       6.17195         297.4411
2012    30      2       6.132403        298.5746
2012    30      3       6.096705        298.3625
2012    30      4       5.71883         297.116
2012    30      5       5.556491        295.8909
2012    30      6       5.950308        293.7174
2012    30      7       5.616884        292.6807
2013    1       0       4.556663        283.8614
2013    1       1       3.592884        280.6865
2013    1       2       3.572352        280.8737
2013    1       3       3.71671         281.4858
2013    1       4       3.772962        281.3823
2013    1       5       3.855259        281.7475
2013    1       6       4.224037        283.1281
2013    1       7       4.127462        281.204
2013    2       0       4.471597        283.7992
2013    2       1       4.415297        285.5606
2013    2       2       4.335396        286.2953
2013    2       3       4.656859        287.951
2013    2       4       4.835006        288.3217
2013    2       5       4.545946        286.9758
2013    2       6       3.690486        281.5887
2013    2       7       2.488465        263.507
2013    3       0       2.615089        266.0131
2013    3       1       2.963602        273.206
2013    3       2       4.837886        291.1218
2013    3       3       3.954248        284.7337
2013    3       4       2.531976        264.545
2013    3       5       1.449892        217.5727
2013    3       6       1.763698        234.0709
2013    3       7       2.774903        263.9198
2013    4       0       2.400568        257.6118
2013    4       1       1.743463        235.8937
2013    4       2       1.477098        221.8239
2013    4       3       1.879345        243.0181
2013    4       4       2.783326        267.6059
2013    4       5       3.464131        274.2543
2013    4       6       3.656355        274.0595
2013    4       7       3.179893        269.1079
2013    5       0       3.256576        272.2362
2013    5       1       2.811437        268.8826
2013    5       2       2.537971        264.4984
2013    5       3       2.506886        263.3679
2013    5       4       2.439485        261.2374
2013    5       5       3.451044        275.3645
2013    5       6       3.646058        275.8219
2013    5       7       3.739592        274.927
2013    6       0       3.964321        278.265
2013    6       1       3.766755        280.5357
2013    6       2       3.382246        278.9652
2013    6       3       3.198223        276.9319
2013    6       4       3.055728        274.7101
2013    6       5       2.850053        270.9827
2013    6       6       3.050031        272.5895
2013    6       7       3.060374        271.8381
2013    7       0       3.194025        274.6998
2013    7       1       2.728256        269.8718
2013    7       2       2.635117        269.297
2013    7       3       2.629883        269.0125
2013    7       4       2.558848        266.8887
2013    7       5       2.402175        262.3873
2013    7       6       2.308899        259.4731
2013    7       7       2.268684        258.0211
2013    8       0       2.456293        263.8436
2013    8       1       2.295617        261.4146
2013    8       2       2.079808        254.9812
2013    8       3       1.968322        250.7364
2013    8       4       2.878204        273.9728
2013    8       5       6.675321        288.8622
2013    8       6       8.732062        287.9663
2013    8       7       9.440251        288.4203
2013    9       0       7.161136        289.8136
2013    9       1       6.262294        292.163
2013    9       2       6.18565         293.1067
2013    9       3       5.335258        290.6019
2013    9       4       2.891631        271.6236
2013    9       5       1.907775        242.422
2013    9       6       2.567548        262.8545
2013    9       7       3.252837        272.826
2013    10      0       4.151771        280.1837
2013    10      1       4.72996         283.995
2013    10      2       4.173908        284.8172
2013    10      3       4.304918        284.8803
2013    10      4       3.545049        277.6716
2013    10      5       5.046784        284.5044
2013    10      6       7.065114        285.9012
2013    10      7       7.6216          285.7145
2013    11      0       5.982089        287.1099
2013    11      1       4.930717        287.2567
2013    11      2       5.97584         288.0473
2013    11      3       6.414655        288.1386
2013    11      4       7.388179        286.347
2013    11      5       5.513437        284.4835
2013    11      6       5.094338        283.515
2013    11      7       4.492673        281.2948
2013    12      0       4.121114        280.4722
2013    12      1       4.405089        283.1691
2013    12      2       4.166617        282.7236
2013    12      3       3.375424        276.598
2013    12      4       1.989324        245.7023
2013    12      5       1.694844        232.287
2013    12      6       1.801321        236.613
2013    12      7       1.898459        240.2859
2013    13      0       1.973787        244.7646
2013    13      1       2.114202        252.0374
2013    13      2       1.886157        243.836
2013    13      3       1.456529        219.6165
2013    13      4       1.283531        206.5627
2013    13      5       1.243409        203.134
2013    13      6       1.517879        222.1744
2013    13      7       2.063442        247.4902
2013    14      0       2.167221        251.9679
2013    14      1       2.046614        249.5866
2013    14      2       1.781864        238.981
2013    14      3       1.509323        223.5538
2013    14      4       1.453673        219.4414
2013    14      5       1.521168        223.0371
2013    14      6       1.638799        229.3251
2013    14      7       1.872362        240.4319
2013    15      0       1.757632        235.666
2013    15      1       1.61762         229.3871
2013    15      2       1.739815        235.3869
2013    15      3       1.880527        240.7677
2013    15      4       2.008318        243.9573
2013    15      5       2.191307        250.6873
2013    15      6       2.781446        265.7913
2013    15      7       3.05396         269.6865
2013    16      0       3.124617        271.045
2013    16      1       3.005612        270.7108
2013    16      2       3.106155        272.439
2013    16      3       4.407875        280.4342
2013    16      4       4.064426        278.7944
2013    16      5       3.950732        277.8433
2013    16      6       4.024794        277.5784
2013    16      7       4.326587        278.2117
2013    17      0       3.859065        277.4941
2013    17      1       3.937418        279.257
2013    17      2       4.050215        280.1522
2013    17      3       5.25828         282.6943
2013    17      4       6.081486        281.0505
2013    17      5       5.096985        279.7085
2013    17      6       4.887384        278.9944
2013    17      7       5.022567        278.9161
2013    18      0       4.326052        279.5154
2013    18      1       4.285989        280.8428
2013    18      2       5.313363        282.8444
2013    18      3       5.546367        281.0292
2013    18      4       5.697463        280.9415
2013    18      5       5.838386        281.2104
2013    18      6       5.72858         281.7792
2013    18      7       5.30778         281.7775
2013    19      0       4.454978        282.5257
2013    19      1       3.782656        281.6291
2013    19      2       3.779247        282.8583
2013    19      3       4.217197        285.0888
2013    19      4       4.537306        285.7774
2013    19      5       4.657655        285.6288
2013    19      6       4.745291        285.6034
2013    19      7       4.941716        285.8909
2013    20      0       4.385237        285.6739
2013    20      1       4.006177        285.5987
2013    20      2       3.639624        283.8853
2013    20      3       3.673627        283.4856
2013    20      4       3.751147        283.3145
2013    20      5       3.870644        283.9153
2013    20      6       4.930909        287.6486
2013    20      7       6.42877         288.0053
2013    21      0       6.389959        289.4282
2013    21      1       4.992092        290.9125
2013    21      2       4.39222         290.4956
2013    21      3       4.685108        291.5102
2013    21      4       4.953337        291.9533
2013    21      5       6.866884        290.9664
2013    21      6       8.456989        288.6142
2013    21      7       9.813892        288.7132
2013    22      0       9.82348         290.3095
2013    22      1       10.44491        291.5075
2013    22      2       11.46229        290.0606
2013    22      3       10.47818        289.7625
2013    22      4       8.601852        289.5626
2013    22      5       9.311566        288.6557
2013    22      6       9.632064        287.7973
2013    22      7       9.461452        287.5884
2013    23      0       8.579893        289.9669
2013    23      1       7.790524        292.0206
2013    23      2       6.352864        292.1107
2013    23      3       4.735041        289.0409
2013    23      4       3.324252        278.7119
2013    23      5       2.708667        267.8561
2013    23      6       2.839743        269.2625
2013    23      7       3.074754        272.0431
2013    24      0       3.042615        272.6853
2013    24      1       2.952079        273.0526
2013    24      2       2.946383        273.928
2013    24      3       2.777594        270.7318
2013    24      4       2.519827        264.9583
2013    24      5       2.485787        263.6354
2013    24      6       2.571094        264.6841
2013    24      7       2.741229        267.3818
2013    25      0       2.821854        269.8814
2013    25      1       2.526027        265.5573
2013    25      2       2.214015        257.2424
2013    25      3       2.342177        259.9086
2013    25      4       3.795873        280.6008
2013    25      5       4.585632        283.0102
2013    25      6       4.738596        281.9436
2013    25      7       4.936609        281.7182
2013    26      0       4.152731        282.1742
2013    26      1       2.774929        270.301
2013    26      2       1.903391        245.4008
2013    26      3       2.152017        254.1262
2013    26      4       2.94913         272.0949
2013    26      5       4.87819         283.4066
2013    26      6       5.191626        283.0356
2013    26      7       5.10619         282.2423
2013    27      0       4.757973        284.0908
2013    27      1       3.52785         280.3909
2013    27      2       3.02256         275.6343
2013    27      3       2.628376        267.9092
2013    27      4       2.236707        256.8187
2013    27      5       2.306856        258.8408
2013    27      6       3.123104        275.0173
2013    27      7       4.440413        284.0902
2013    28      0       4.451671        286.0718
2013    28      1       3.109745        278.6178
2013    28      2       2.90443         276.9663
2013    28      3       3.487579        283.944
2013    28      4       4.480869        290.0732
2013    28      5       5.425102        291.4384
2013    28      6       7.438272        290.8553
2013    28      7       10.32432        288.1074
2013    29      0       10.99458        288.9926
2013    29      1       10.19293        289.8394
2013    29      2       10.20012        288.9308
2013    29      3       8.431425        288.2358
2013    29      4       6.636954        286.3377
2013    29      5       5.377512        285.065
2013    29      6       5.18965         282.7601
2013    29      7       5.062421        281.6826
2013    30      0       4.335289        282.0008
2013    30      1       3.607917        279.3663
2013    30      2       3.441974        278.9123
2013    30      3       3.725095        280.9585
2013    30      4       5.059746        284.4373
2013    30      5       4.77246         281.2807
2013    30      6       4.396575        280.2365
2013    30      7       4.213467        279.2131
2014    1       0       7.095496        290.3038
2014    1       1       5.858839        292.5785
2014    1       2       5.767343        294.1702
2014    1       3       5.538995        290.5355
2014    1       4       6.407683        287.0554
2014    1       5       3.430641        275.0929
2014    1       6       1.841432        237.2374
2014    1       7       1.684527        228.4953
2014    2       0       1.301666        205.4098
2014    2       1       1.031289        182.7432
2014    2       2       0.9974928       179.8538
2014    2       3       1.043713        184.3705
2014    2       4       1.078884        187.6334
2014    2       5       1.253591        202.5511
2014    2       6       1.848523        238.5052
2014    2       7       3.700905        275.7642
2014    3       0       3.548089        275.8279
2014    3       1       3.011972        272.0637
2014    3       2       2.760855        269.5214
2014    3       3       2.698872        268.5194
2014    3       4       2.768008        269.3544
2014    3       5       5.087875        283.7437
2014    3       6       5.419368        282.5167
2014    3       7       5.430951        282.0105
2014    4       0       5.389852        284.2348
2014    4       1       4.653574        285.0638
2014    4       2       4.176667        284.796
2014    4       3       4.129556        284.2967
2014    4       4       3.841747        282.3468
2014    4       5       3.91705         282.1008
2014    4       6       4.955515        283.4376
2014    4       7       4.999169        283.0007
2014    5       0       5.176847        284.8034
2014    5       1       5.04462         287.1532
2014    5       2       5.24236         288.8312
2014    5       3       7.640898        288.3736
2014    5       4       6.644696        286.9515
2014    5       5       5.944796        286.0556
2014    5       6       5.485727        284.747
2014    5       7       6.064896        284.9888
2014    6       0       6.535087        286.6261
2014    6       1       5.399387        288.4411
2014    6       2       4.078504        284.1375
2014    6       3       2.947131        270.9603
2014    6       4       2.697682        266.9859
2014    6       5       2.623827        265.4268
2014    6       6       2.776664        268.7207
2014    6       7       3.042242        273.0188
2014    7       0       3.641021        280.7176
2014    7       1       3.291804        279.4922
2014    7       2       3.129525        278.9015
2014    7       3       3.3117          280.7498
2014    7       4       3.399499        280.635
2014    7       5       3.816998        282.9761
2014    7       6       5.486032        286.9466
2014    7       7       6.028297        286.6198
2014    8       0       4.793993        286.6439
2014    8       1       3.740581        284.5957
2014    8       2       3.343438        282.3606
2014    8       3       3.278656        281.4475
2014    8       4       3.313487        281.5101
2014    8       5       3.458891        282.5732
2014    8       6       4.498739        286.093
2014    8       7       5.438287        286.5164
2014    9       0       5.647617        289.1743
2014    9       1       4.42113         289.7912
2014    9       2       4.016193        289.446
2014    9       3       4.012785        289.4006
2014    9       4       4.161629        289.4316
2014    9       5       4.343992        289.2803
2014    9       6       4.773873        288.9383
2014    9       7       5.031444        288.2852
2014    10      0       5.433823        290.3826
2014    10      1       4.962874        292.3195
2014    10      2       4.425289        291.367
2014    10      3       4.638849        291.744
2014    10      4       4.195057        286.689
2014    10      5       3.257766        277.6344
2014    10      6       2.896248        274.2039
2014    10      7       3.864515        284.1055
2014    11      0       4.364465        288.1873
2014    11      1       3.578265        285.0313
2014    11      2       3.086683        279.7661
2014    11      3       2.550065        269.0796
2014    11      4       3.187431        278.9398
2014    11      5       5.189686        288.1243
2014    11      6       7.007588        287.4154
2014    11      7       6.703203        286.6437
2014    12      0       6.071246        289.5535
2014    12      1       4.576781        289.8603
2014    12      2       3.824274        287.4957
2014    12      3       3.597821        285.4777
2014    12      4       3.65421         285.1721
2014    12      5       4.141343        287.3717
2014    12      6       7.092775        288.6105
2014    12      7       7.113815        287.3757
2014    13      0       6.43265         290.4301
2014    13      1       5.623165        292.751
2014    13      2       5.241578        293.2762
2014    13      3       5.219708        293.1426
2014    13      4       5.019628        292.3327
2014    13      5       5.365672        292.0712
2014    13      6       7.382929        289.8987
2014    13      7       7.381556        289.1607
2014    14      0       6.77923         291.5163
2014    14      1       5.417871        294.1206
2014    14      2       4.456161        293.0991
2014    14      3       4.290599        291.8523
2014    14      4       4.649189        292.6572
2014    14      5       4.623418        292.2959
2014    14      6       4.6838          292.3269
2014    14      7       4.93631         291.5056
2014    15      0       5.137299        292.3666
2014    15      1       4.418512        293.4528
2014    15      2       4.779439        295.3737
2014    15      3       6.855908        299.8601
2014    15      4       6.541619        297.8491
2014    15      5       5.921436        292.9517
2014    15      6       5.951844        291.0977
2014    15      7       6.652477        288.0292
2014    16      0       6.568113        289.1738
2014    16      1       3.633586        282.2758
2014    16      2       2.263287        260.1702
2014    16      3       2.616408        268.4897
2014    16      4       3.386627        277.9534
2014    16      5       4.086175        280.703
2014    16      6       4.227402        279.9625
2014    16      7       4.042005        278.3399
2014    17      0       3.220356        274.3501
2014    17      1       2.711361        269.2941
2014    17      2       2.442279        264.6642
2014    17      3       2.531226        266.524
2014    17      4       2.625262        267.4522
2014    17      5       2.67893         267.7533
2014    17      6       2.920251        270.8267
2014    17      7       2.957332        270.4727
2014    18      0       2.847562        269.8989
2014    18      1       2.44138         262.7952
2014    18      2       1.851426        243.4081
2014    18      3       1.639205        232.6414
2014    18      4       1.84702         243.1816
2014    18      5       2.006949        249.4641
2014    18      6       2.33874         260.1865
2014    18      7       3.829293        282.2782
2014    19      0       4.056241        285.08
2014    19      1       3.865846        285.2352
2014    19      2       3.547499        282.9288
2014    19      3       2.892325        274.258
2014    19      4       2.447988        264.6988
2014    19      5       6.609696        289.858
2014    19      6       8.073553        290.8248
2014    19      7       7.13367         289.9884
2014    20      0       6.62578         292.3534
2014    20      1       5.475661        294.0632
2014    20      2       5.363393        295.2976
2014    20      3       6.107117        296.1144
2014    20      4       6.592896        296.1687
2014    20      5       8.162733        294.6926
2014    20      6       9.082481        292.8577
2014    20      7       10.01146        291.6672
2014    21      0       8.678211        294.2726
2014    21      1       6.736773        297.6284
2014    21      2       5.233908        296.4654
2014    21      3       3.568435        286.4039
2014    21      4       3.28683         282.9689
2014    21      5       3.789751        286.6869
2014    21      6       3.614205        285.6336
2014    21      7       3.459015        284.5382
2014    22      0       3.381799        285.2261
2014    22      1       3.089408        283.0454
2014    22      2       3.056857        282.689
2014    22      3       3.041051        282.1688
2014    22      4       3.187478        283.2328
2014    22      5       3.276738        283.5799
2014    22      6       3.713878        288.4674
2014    22      7       7.179726        294.7398
2014    23      0       7.257551        297.1705
2014    23      1       6.504283        299.6965
2014    23      2       5.91544         299.9586
2014    23      3       6.049648        299.791
2014    23      4       6.116798        298.8312
2014    23      5       7.81117         297.2734
2014    23      6       8.647832        295.2422
2014    23      7       7.781784        294.9841
2014    24      0       8.296935        296.3658
2014    24      1       7.709799        297.9479
2014    24      2       6.14092         297.853
2014    24      3       5.861541        296.9156
2014    24      4       6.8956          294.8283
2014    24      5       8.936328        289.3923
2014    24      6       8.424716        289.2148
2014    24      7       9.585708        289.2941
2014    25      0       10.23293        290.5584
2014    25      1       9.531865        291.2778
2014    25      2       7.601921        291.5947
2014    25      3       7.741143        291.811
2014    25      4       7.920952        291.8391
2014    25      5       6.503421        290.5459
2014    25      6       5.604453        287.9355
2014    25      7       6.073768        288.4351
2014    26      0       6.351855        290.9049
2014    26      1       6.62099         292.2789
2014    26      2       6.524765        292.9556
2014    26      3       6.356201        292.7053
2014    26      4       4.584375        287.9791
2014    26      5       3.694424        281.8493
2014    26      6       4.887799        286.5021
2014    26      7       5.944834        287.4086
2014    27      0       3.944361        284.271
2014    27      1       2.629859        269.6618
2014    27      2       2.379189        263.6049
2014    27      3       4.080287        286.9339
2014    27      4       5.766034        287.8032
2014    27      5       5.693689        285.4885
2014    27      6       5.080383        283.9969
2014    27      7       5.125762        283.9331
2014    28      0       5.28563         287.7541
2014    28      1       5.27215         289.9693
2014    28      2       4.995507        290.0592
2014    28      3       4.834776        289.4633
2014    28      4       5.830502        289.125
2014    28      5       6.66224         285.8147
2014    28      6       6.591986        284.4648
2014    28      7       6.471081        284.4885
2014    29      0       6.416811        287.7773
2014    29      1       6.450723        289.9588
2014    29      2       6.435325        290.9209
2014    29      3       6.35179         290.9689
2014    29      4       5.85304         289.8388
2014    29      5       5.520728        286.9541
2014    29      6       5.505866        285.9494
2014    29      7       5.781013        285.4248
2014    30      0       6.145907        288.0957
2014    30      1       6.206069        290.9307
2014    30      2       6.621165        291.7242
2014    30      3       7.489162        291.2843
2014    30      4       7.699986        290.3702
2014    30      5       7.874382        289.8168
2014    30      6       7.547235        288.7918
2014    30      7       7.003447        286.9197
2015    1       0       7.288375        286.4324
2015    1       1       7.50203         288.7424
2015    1       2       8.419198        289.5851
2015    1       3       9.383627        289.6449
2015    1       4       8.759384        289.3726
2015    1       5       8.742803        288.1992
2015    1       6       9.534077        287.7516
2015    1       7       10.0393         287.129
2015    2       0       8.431329        287.2682
2015    2       1       7.359829        290.3028
2015    2       2       7.134551        292.4499
2015    2       3       6.883931        292.7575
2015    2       4       6.367369        292.0929
2015    2       5       6.358308        290.922
2015    2       6       7.230514        290.9305
2015    2       7       8.029018        290.7911
2015    3       0       8.744516        291.2955
2015    3       1       7.186183        293.3955
2015    3       2       6.327817        292.3311
2015    3       3       7.280768        291.0968
2015    3       4       6.934927        291.0054
2015    3       5       7.431917        290.2791
2015    3       6       7.749588        290.1413
2015    3       7       9.594831        290.1229
2015    4       0       10.90612        290.1845
2015    4       1       11.57577        289.9345
2015    4       2       10.65647        290.9248
2015    4       3       10.66538        290.2828
2015    4       4       10.34643        290.3947
2015    4       5       9.958721        290.5333
2015    4       6       9.190798        290.4769
2015    4       7       7.755715        289.7707
2015    5       0       9.503609        289.5461
2015    5       1       8.623709        290.615
2015    5       2       8.378412        292.0875
2015    5       3       8.542778        292.7032
2015    5       4       8.345891        292.4707
2015    5       5       7.665812        291.9651
2015    5       6       8.137188        290.782
2015    5       7       6.945372        289.737
2015    6       0       6.180314        289.6499
2015    6       1       4.621937        288.4889
2015    6       2       4.50002         288.2776
2015    6       3       5.000679        288.7376
2015    6       4       5.193274        288.2485
2015    6       5       5.470336        287.7132
2015    6       6       5.79759         287.0946
2015    6       7       5.940235        286.6142
2015    7       0       5.353019        287.2084
2015    7       1       5.076414        288.6662
2015    7       2       5.277549        289.8628
2015    7       3       5.295481        289.1161
2015    7       4       4.450608        285.6507
2015    7       5       3.752793        280.5337
2015    7       6       4.660965        284.9893
2015    7       7       5.727778        287.4786
2015    8       0       5.663753        288.4974
2015    8       1       5.957379        289.6849
2015    8       2       6.723501        290.655
2015    8       3       7.288212        289.8321
2015    8       4       6.49712         285.9064
2015    8       5       5.660685        283.7341
2015    8       6       5.268283        283.2782
2015    8       7       5.141932        282.8356
2015    9       0       5.179366        284.532
2015    9       1       4.884844        285.5051
2015    9       2       4.98778         286.8784
2015    9       3       5.04434         287.2119
2015    9       4       4.898498        286.4449
2015    9       5       4.984344        285.746
2015    9       6       5.608515        286.0726
2015    9       7       6.353524        285.7208
2015    10      0       6.244829        287.3764
2015    10      1       5.389991        289.0696
2015    10      2       5.088256        290.38
2015    10      3       4.797384        289.6721
2015    10      4       4.3854          287.729
2015    10      5       4.437639        287.5167
2015    10      6       5.125546        288.8687
2015    10      7       6.382891        287.9244
2015    11      0       6.927128        289.4149
2015    11      1       6.674198        291.5147
2015    11      2       7.023368        292.4797
2015    11      3       7.543653        292.577
2015    11      4       7.744793        290.8836
2015    11      5       6.465217        287.0735
2015    11      6       6.338116        285.8549
2015    11      7       6.421531        285.5298
2015    12      0       6.518169        285.7911
2015    12      1       6.68508         287.0758
2015    12      2       7.150598        287.8444
2015    12      3       7.691075        287.4149
2015    12      4       6.466154        288.1062
2015    12      5       6.446216        287.8283
2015    12      6       6.246248        287.5064
2015    12      7       7.766006        287.0537
2015    13      0       8.156074        288.97
2015    13      1       7.205205        291.7147
2015    13      2       6.45512         292.8787
2015    13      3       6.548378        293.3538
2015    13      4       6.402732        292.6982
2015    13      5       8.836437        289.9223
2015    13      6       8.509352        289.4406
2015    13      7       8.941504        289.0073
2015    14      0       8.533844        290.3827
2015    14      1       8.25207         291.0783
2015    14      2       7.566286        290.7586
2015    14      3       6.564517        289.8347
2015    14      4       6.414707        288.6942
2015    14      5       6.113428        288.0588
2015    14      6       5.850476        286.7944
2015    14      7       5.681074        285.4323
2015    15      0       5.478186        286.7064
2015    15      1       4.974185        287.2538
2015    15      2       4.691846        286.7729
2015    15      3       4.69399         285.9661
2015    15      4       5.7889          284.7368
2015    15      5       4.768814        280.822
2015    15      6       4.691614        280.0232
2015    15      7       4.547698        279.6466
2015    16      0       4.754202        282.3911
2015    16      1       4.410913        282.8924
2015    16      2       3.972425        281.7142
2015    16      3       3.690915        279.5637
2015    16      4       3.692605        279.2709
2015    16      5       5.372026        283.5343
2015    16      6       5.444343        282.5019
2015    16      7       5.412858        282.1012
2015    17      0       5.477929        284.5154
2015    17      1       4.710059        285.2538
2015    17      2       4.732411        286.6295
2015    17      3       4.674195        286.636
2015    17      4       4.49505         285.6634
2015    17      5       4.401939        285.0224
2015    17      6       4.615214        285.4827
2015    17      7       4.761248        285.5921
2015    18      0       5.012415        287.6358
2015    18      1       4.407028        287.8237
2015    18      2       3.946598        286.7753
2015    18      3       3.672504        284.825
2015    18      4       3.480698        283.3213
2015    18      5       3.641139        284.3494
2015    18      6       3.659448        284.017
2015    18      7       3.66886         283.8409
2015    19      0       4.284595        287.898
2015    19      1       3.876523        288.0093
2015    19      2       3.68381         287.7907
2015    19      3       3.653601        287.1863
2015    19      4       3.59902         286.015
2015    19      5       3.540188        284.8503
2015    19      6       3.598937        284.9551
2015    19      7       3.858412        286.8544
2015    20      0       4.74652         291.5308
2015    20      1       4.178927        291.6151
2015    20      2       4.028698        291.5465
2015    20      3       4.091747        291.5702
2015    20      4       4.235972        291.3675
2015    20      5       4.196643        290.183
2015    20      6       4.477621        289.708
2015    20      7       4.423971        288.0516
2015    21      0       4.687123        289.324
2015    21      1       4.087692        289.3771
2015    21      2       3.910991        287.7003
2015    21      3       4.168036        287.5655
2015    21      4       3.726805        282.8957
2015    21      5       4.107103        284.5217
2015    21      6       7.385369        288.108
2015    21      7       7.370014        287.869
2015    22      0       7.51952         289.7864
2015    22      1       6.376338        292.9369
2015    22      2       4.785589        291.888
2015    22      3       3.304288        280.3463
2015    22      4       3.109002        276.4738
2015    22      5       2.93102         273.0981
2015    22      6       2.896543        272.2619
2015    22      7       3.24657         277.0959
2015    23      0       3.39156         280.1941
2015    23      1       2.819944        273.9521
2015    23      2       2.054487        253.3113
2015    23      3       1.76266         239.4515
2015    23      4       1.845098        242.6339
2015    23      5       1.937682        246.1609
2015    23      6       1.986139        247.5265
2015    23      7       1.92727         244.8871
2015    24      0       1.860555        242.9847
2015    24      1       1.745377        239.142
2015    24      2       1.699869        237.4905
2015    24      3       1.79805         241.9846
2015    24      4       1.80051         242.0039
2015    24      5       1.814844        242.4616
2015    24      6       1.830881        243.1126
2015    24      7       5.169831        288.1459
2015    25      0       6.158278        291.3477
2015    25      1       4.091378        289.318
2015    25      2       3.648956        288.3595
2015    25      3       4.471058        293.5219
2015    25      4       5.151635        295.1186
2015    25      5       6.314146        294.0059
2015    25      6       6.90828         292.8371
2015    25      7       6.437849        292.2452
2015    26      0       6.813881        294.5783
2015    26      1       5.248357        296.5599
2015    26      2       3.954705        290.6236
2015    26      3       5.539578        294.5114
2015    26      4       5.176691        289.3623
2015    26      5       5.115131        285.5933
2015    26      6       4.729872        284.2245
2015    26      7       4.347754        284.2825
2015    27      0       4.547083        287.025
2015    27      1       3.912117        286.0438
2015    27      2       2.626298        268.8962
2015    27      3       2.578702        262.6193
2015    27      4       2.733386        264.5248
2015    27      5       3.15033         270.6031
2015    27      6       3.168568        271.3843
2015    27      7       3.130165        270.7511
2015    28      0       3.085306        272.2979
2015    28      1       2.987215        273.8025
2015    28      2       3.109609        276.6813
2015    28      3       3.021639        274.0106
2015    28      4       2.706984        266.4516
2015    28      5       2.78724         266.534
2015    28      6       3.338731        275.673
2015    28      7       4.447171        284.4541
2015    29      0       3.949634        283.7863
2015    29      1       2.555445        266.6326
2015    29      2       2.623325        268.0703
2015    29      3       2.732832        269.5715
2015    29      4       2.643028        267.0604
2015    29      5       2.417274        261.5234
2015    29      6       2.370683        261.0733
2015    29      7       2.480702        264.2566
2015    30      0       2.668886        269.4241
2015    30      1       2.431498        265.1796
2015    30      2       2.264756        260.7599
2015    30      3       2.039296        253.0859
2015    30      4       1.923419        248.2028
2015    30      5       2.029979        251.651
2015    30      6       5.101058        290.6918
2015    30      7       8.993196        293.3368
2016    1       0       1.795829        234.7143
2016    1       1       1.974617        243.1258
2016    1       2       2.039109        245.7873
2016    1       3       1.851669        238.5541
2016    1       4       1.844426        238.079
2016    1       5       1.889998        239.4676
2016    1       6       1.993607        243.7263
2016    1       7       2.264934        252.89
2016    2       0       2.414878        257.8281
2016    2       1       2.254345        255.2715
2016    2       2       2.318675        258.2263
2016    2       3       2.466337        261.8838
2016    2       4       2.605624        264.3677
2016    2       5       2.788583        267.0348
2016    2       6       2.873311        269.9855
2016    2       7       3.080119        272.3193
2016    3       0       3.491586        275.9682
2016    3       1       3.706081        278.9836
2016    3       2       3.600951        278.9028
2016    3       3       3.481447        277.6465
2016    3       4       3.166682        274.1716
2016    3       5       2.588195        264.1277
2016    3       6       2.239335        254.6195
2016    3       7       2.092145        249.7002
2016    4       0       1.985876        246.1251
2016    4       1       2.014023        248.4001
2016    4       2       2.178473        255.5185
2016    4       3       2.266141        258.4931
2016    4       4       2.277227        258.3783
2016    4       5       2.274704        257.7852
2016    4       6       2.241201        256.5383
2016    4       7       2.241461        255.0191
2016    5       0       2.575244        264.1944
2016    5       1       2.641683        266.7821
2016    5       2       3.046948        274.0466
2016    5       3       1.661725        229.6973
2016    5       4       1.971098        242.9699
2016    5       5       2.282513        252.8317
2016    5       6       2.447423        256.8556
2016    5       7       2.589682        259.8791
2016    6       0       2.74139         264.7726
2016    6       1       2.69053         266.43
2016    6       2       2.658032        266.4944
2016    6       3       2.554235        263.3814
2016    6       4       2.493173        261.329
2016    6       5       2.604715        263.2801
2016    6       6       2.737798        266.2799
2016    6       7       2.73299         266.5289
2016    7       0       2.856616        270.2651
2016    7       1       2.935296        273.1036
2016    7       2       2.84117         272.9089
2016    7       3       2.701559        270.6971
2016    7       4       2.618509        269.0281
2016    7       5       2.654059        269.257
2016    7       6       3.381315        279.6954
2016    7       7       5.512889        288.8948
2016    8       0       6.937105        290.8317
2016    8       1       5.431548        292.368
2016    8       2       4.139189        287.7751
2016    8       3       3.369243        279.714
2016    8       4       4.411213        285.2379
2016    8       5       5.05647         286.1413
2016    8       6       4.978464        285.9528
2016    8       7       6.156564        287.6288
2016    9       0       7.294121        289.1936
2016    9       1       7.192397        292.2453
2016    9       2       10.49004        288.9547
2016    9       3       8.22853         288.4493
2016    9       4       6.874007        287.6092
2016    9       5       5.484409        286.0268
2016    9       6       5.289017        285.398
2016    9       7       5.414726        285.8254
2016    10      0       5.215988        286.9488
2016    10      1       4.654641        287.7656
2016    10      2       4.111598        286.4329
2016    10      3       4.161629        286.0911
2016    10      4       4.466297        287.1204
2016    10      5       4.750249        287.7852
2016    10      6       4.933672        287.895
2016    10      7       4.956219        287.6648
2016    11      0       5.889048        288.8888
2016    11      1       6.727246        290.5478
2016    11      2       6.916652        292.7333
2016    11      3       6.590407        292.9433
2016    11      4       6.534557        292.5628
2016    11      5       7.133938        292.1653
2016    11      6       8.383776        292.0883
2016    11      7       10.16486        289.3315
2016    12      0       9.631422        291.775
2016    12      1       9.9026          294.243
2016    12      2       8.480001        295.9658
2016    12      3       8.551991        295.0555
2016    12      4       8.820534        294.7502
2016    12      5       8.64508         293.4639
2016    12      6       7.317181        291.2186
2016    12      7       3.71661         280.3531
2016    13      0       3.043893        274.0816
2016    13      1       2.729257        270.5456
2016    13      2       2.655627        268.499
2016    13      3       2.174079        253.2526
2016    13      4       1.864427        238.9567
2016    13      5       3.239376        270.9828
2016    13      6       3.978192        275.1361
2016    13      7       3.847353        273.4222
2016    14      0       3.673431        273.6428
2016    14      1       3.465116        273.4999
2016    14      2       3.710451        276.1102
2016    14      3       4.48695         278.8044
2016    14      4       4.681648        277.7456
2016    14      5       4.627992        276.8334
2016    14      6       4.47068         276.8409
2016    14      7       4.553694        277.4365
2016    15      0       4.177654        278.6484
2016    15      1       4.059746        280.4801
2016    15      2       3.84221         279.8108
2016    15      3       3.529559        276.9109
2016    15      4       3.114353        271.4565
2016    15      5       2.957287        268.9649
2016    15      6       3.044826        270.3609
2016    15      7       3.293787        273.39
2016    16      0       3.267174        274.8476
2016    16      1       3.040137        274.3197
2016    16      2       2.891057        273.4474
2016    16      3       2.824502        272.4222
2016    16      4       2.722024        270.4553
2016    16      5       3.066909        275.8896
2016    16      6       4.569214        284.4032
2016    16      7       5.279134        284.4922
2016    17      0       5.061592        286.0191
2016    17      1       4.203236        285.6573
2016    17      2       3.784074        284.4709
2016    17      3       3.701246        283.6257
2016    17      4       3.790072        283.6083
2016    17      5       3.919389        283.7941
2016    17      6       4.51447         284.7066
2016    17      7       4.621477        284.3835
2016    18      0       4.723413        285.9921
2016    18      1       3.825819        284.5012
2016    18      2       3.557212        283.6257
2016    18      3       3.546633        283.2769
2016    18      4       3.525039        282.5798
2016    18      5       3.559918        282.4168
2016    18      6       3.834379        282.7271
2016    18      7       4.611887        284.5789
2016    19      0       5.058018        287.2731
2016    19      1       4.000853        286.63
2016    19      2       3.63488         284.9337
2016    19      3       4.006507        286.9554
2016    19      4       4.462475        287.8671
2016    19      5       4.587525        286.7301
2016    19      6       5.310679        287.4993
2016    19      7       5.815726        286.9298
2016    20      0       5.402847        287.6263
2016    20      1       4.081169        286.1672
2016    20      2       3.782046        284.991
2016    20      3       3.959106        285.4102
2016    20      4       4.143869        285.6624
2016    20      5       4.238305        284.2261
2016    20      6       3.503167        277.8839
2016    20      7       2.757431        266.1751
2016    21      0       3.85378         280.7942
2016    21      1       3.631635        281.1169
2016    21      2       3.166347        276.3415
2016    21      3       3.054498        274.2069
2016    21      4       3.157585        275.3645
2016    21      5       3.629026        279.2809
2016    21      6       3.679449        279.1995
2016    21      7       3.590736        278.1888
2016    22      0       3.775191        280.6614
2016    22      1       3.381424        279.3664
2016    22      2       3.357215        280.0793
2016    22      3       3.423077        280.7095
2016    22      4       3.507443        281.8977
2016    22      5       4.057341        284.028
2016    22      6       4.341866        283.2812
2016    22      7       4.311714        282.8816
2016    23      0       4.652543        285.9939
2016    23      1       4.419903        288.2735
2016    23      2       4.197682        288.0733
2016    23      3       4.766897        290.1163
2016    23      4       4.938456        286.8755
2016    23      5       3.267511        274.2339
2016    23      6       2.147368        250.1137
2016    23      7       1.967321        242.3903
2016    24      0       1.726484        233.1635
2016    24      1       1.512043        223.2825
2016    24      2       1.57075         227.341
2016    24      3       1.723585        236.0143
2016    24      4       1.87861         241.9167
2016    24      5       1.963832        243.8127
2016    24      6       2.108426        247.937
2016    24      7       2.391961        255.9791
2016    25      0       2.737629        264.6135
2016    25      1       2.575911        263.2296
2016    25      2       2.551998        264.1472
2016    25      3       2.58035         264.7433
2016    25      4       2.491109        262.3679
2016    25      5       2.413915        259.977
2016    25      6       2.335097        256.9635
2016    25      7       2.390704        258.3467
2016    26      0       2.419233        260.5209
2016    26      1       2.154           254.1407
2016    26      2       1.988233        248.699
2016    26      3       1.930779        246.126
2016    26      4       1.937801        245.6764
2016    26      5       1.763066        236.8999
2016    26      6       1.728815        235.2335
2016    26      7       1.937409        244.8085
2016    27      0       2.031178        249.7752
2016    27      1       1.892089        245.0798
2016    27      2       1.843727        242.9544
2016    27      3       1.789344        239.7868
2016    27      4       1.799401        239.6405
2016    27      5       1.836972        241.3084
2016    27      6       2.009441        247.9386
2016    27      7       5.080703        284.7604
2016    28      0       5.394769        287.2852
2016    28      1       4.485132        286.5625
2016    28      2       4.218704        286.0149
2016    28      3       5.173247        288.7941
2016    28      4       5.668729        288.9567
2016    28      5       5.407817        287.5008
2016    28      6       4.76148         284.6068
2016    28      7       5.305923        285.4559
2016    29      0       5.614586        288.0524
2016    29      1       4.793397        289.2451
2016    29      2       4.950114        290.2303
2016    29      3       4.88392         289.0765
2016    29      4       4.378895        286.4882
2016    29      5       4.759686        286.2869
2016    29      6       4.9279          286.0621
2016    29      7       5.135816        286.3163
2016    30      0       5.425964        288.597
2016    30      1       4.606868        288.8418
2016    30      2       4.398758        288.5782
2016    30      3       4.591953        289.2861
2016    30      4       4.372014        288.1976
2016    30      5       4.433205        287.4427
2016    30      6       6.590721        288.3918
2016    30      7       7.291459        287.7788
2017    1       0       1.823955        234.543
2017    1       1       1.822889        236.2696
2017    1       2       1.879957        240.2913
2017    1       3       2.026019        246.3748
2017    1       4       2.064352        247.2057
2017    1       5       2.293215        254.0283
2017    1       6       2.844523        266.0688
2017    1       7       3.110548        269.6
2017    2       0       2.946032        268.5281
2017    2       1       2.74884         267.4885
2017    2       2       2.570869        265.1574
2017    2       3       2.556323        264.7795
2017    2       4       2.672658        266.6953
2017    2       5       2.818903        268.7409
2017    2       6       2.852397        268.8114
2017    2       7       2.796824        267.7288
2017    3       0       2.707083        266.9758
2017    3       1       2.464049        262.7196
2017    3       2       2.618846        266.435
2017    3       3       2.824806        269.794
2017    3       4       3.077832        273.3293
2017    3       5       4.59029         284.391
2017    3       6       4.656444        285.1819
2017    3       7       4.377041        284.2663
2017    4       0       4.302963        284.2645
2017    4       1       4.298999        285.3987
2017    4       2       5.455883        288.3898
2017    4       3       6.169216        285.5067
2017    4       4       5.819003        284.4151
2017    4       5       5.269564        284.4613
2017    4       6       6.645543        286.9839
2017    4       7       8.808786        286.8939
2017    5       0       7.766385        288.8297
2017    5       1       6.207376        290.3758
2017    5       2       5.443075        290.5387
2017    5       3       5.610693        290.3721
2017    5       4       6.952469        290.4117
2017    5       5       9.182637        288.032
2017    5       6       8.842996        287.7825
2017    5       7       9.459811        287.4311
2017    6       0       7.881691        288.9823
2017    6       1       6.701627        291.7691
2017    6       2       8.231755        292.5948
2017    6       3       6.112088        291.0586
2017    6       4       3.689399        277.672
2017    6       5       3.388803        271.7206
2017    6       6       3.354307        270.9421
2017    6       7       3.480384        272.0114
2017    7       0       3.18021         271.1278
2017    7       1       2.626599        264.1922
2017    7       2       2.29661         256.7953
2017    7       3       2.19645         253.3086
2017    7       4       2.30019         255.7483
2017    7       5       3.200876        272.5716
2017    7       6       4.646306        278.9177
2017    7       7       4.200279        275.9922
2017    8       0       4.266788        277.936
2017    8       1       3.799672        277.3765
2017    8       2       3.505421        275.8654
2017    8       3       3.190804        272.079
2017    8       4       3.784189        275.4759
2017    8       5       3.503804        272.4433
2017    8       6       2.719912        262.6399
2017    8       7       2.243478        251.063
2017    9       0       2.028442        244.9498
2017    9       1       1.684727        231.7468
2017    9       2       1.773898        237.3774
2017    9       3       2.04977         249.3721
2017    9       4       2.950811        270.1586
2017    9       5       4.213564        278.2872
2017    9       6       4.033698        277.5906
2017    9       7       3.958394        276.9341
2017    10      0       3.47109         274.082
2017    10      1       2.776171        266.4788
2017    10      2       2.410631        259.4313
2017    10      3       2.649819        264.9935
2017    10      4       3.736011        277.2947
2017    10      5       3.888402        277.1337
2017    10      6       3.560617        273.7918
2017    10      7       3.138905        268.6654
2017    11      0       2.34055         254.6117
2017    11      1       1.713734        232.4086
2017    11      2       1.731905        233.6143
2017    11      3       2.012924        245.1842
2017    11      4       3.266562        272.8753
2017    11      5       5.031027        280.6298
2017    11      6       4.762623        279.3699
2017    11      7       4.769714        278.8646
2017    12      0       4.754992        280.5367
2017    12      1       4.143214        280.3471
2017    12      2       3.222305        273.6457
2017    12      3       2.513259        260.8458
2017    12      4       3.045704        270.5243
2017    12      5       4.174119        278.5189
2017    12      6       4.304132        278.3518
2017    12      7       4.524178        278.5911
2017    13      0       4.557039        280.5227
2017    13      1       4.286379        281.077
2017    13      2       4.005895        280.8208
2017    13      3       3.785467        279.6476
2017    13      4       3.843284        279.5772
2017    13      5       4.449933        280.9277
2017    13      6       4.756195        280.8598
2017    13      7       4.999829        280.6052
2017    14      0       5.171868        282.6735
2017    14      1       5.032232        284.6025
2017    14      2       4.944838        285.573
2017    14      3       4.857466        285.3521
2017    14      4       4.58952         284.2383
2017    14      5       4.739907        284.2064
2017    14      6       4.973613        282.4727
2017    14      7       5.107443        281.8292
2017    15      0       5.166447        284.2801
2017    15      1       4.993221        286.2196
2017    15      2       4.938676        286.3216
2017    15      3       4.847782        285.8549
2017    15      4       4.861854        285.7614
2017    15      5       5.177425        285.7354
2017    15      6       7.067206        285.4911
2017    15      7       7.247033        284.8375
2017    16      0       7.780493        286.2094
2017    16      1       7.684577        288.255
2017    16      2       7.813914        289.7082
2017    16      3       8.328881        289.347
2017    16      4       8.201078        288.352
2017    16      5       6.643637        287.0926
2017    16      6       6.74098         285.3424
2017    16      7       7.158255        284.9388
2017    17      0       6.863132        286.6821
2017    17      1       6.970062        288.2808
2017    17      2       7.033247        288.6401
2017    17      3       6.839596        288.306
2017    17      4       6.630615        286.7167
2017    17      5       6.773973        284.7805
2017    17      6       6.535175        283.4365
2017    17      7       6.517816        282.7606
2017    18      0       6.946442        282.7028
2017    18      1       7.025346        283.8073
2017    18      2       7.088434        284.8456
2017    18      3       7.264018        284.7071
2017    18      4       6.4894          283.6163
2017    18      5       5.729754        282.2747
2017    18      6       5.947139        282.176
2017    18      7       5.680088        281.7395
2017    19      0       5.791606        282.6472
2017    19      1       4.940183        283.3668
2017    19      2       4.818955        285.0448
2017    19      3       5.056531        284.9895
2017    19      4       5.09438         283.4613
2017    19      5       3.840568        277.2824
2017    19      6       3.763555        276.6233
2017    19      7       4.618229        280.2827
2017    20      0       4.455477        281.54
2017    20      1       4.064618        282.0278
2017    20      2       4.111549        282.8238
2017    20      3       4.41998         284.0087
2017    20      4       4.724606        282.722
2017    20      5       4.616323        280.6109
2017    20      6       4.079806        277.4845
2017    20      7       4.422537        278.7905
2017    21      0       3.980737        278.7426
2017    21      1       3.428806        276.8781
2017    21      2       3.803714        280.2651
2017    21      3       4.281924        282.6614
2017    21      4       4.645665        281.9623
2017    21      5       4.281324        278.9329
2017    21      6       3.961907        276.7904
2017    21      7       4.344771        278.1994
2017    22      0       3.954827        278.8105
2017    22      1       3.811221        279.4553
2017    22      2       3.726685        279.2383
2017    22      3       3.634822        278.4541
2017    22      4       3.940667        280.3547
2017    22      5       5.354576        282.8209
2017    22      6       5.39185         282.0513
2017    22      7       5.378227        281.4998
2017    23      0       5.277267        283.3045
2017    23      1       4.852769        284.0934
2017    23      2       4.593757        284.6229
2017    23      3       4.236341        283.5349
2017    23      4       3.943847        281.745
2017    23      5       4.09849         282.1245
2017    23      6       5.556101        284.8114
2017    23      7       5.844187        284.9594
2017    24      0       5.483577        286.1973
2017    24      1       4.921854        287.1137
2017    24      2       4.650749        287.2133
2017    24      3       4.413926        286.423
2017    24      4       4.466114        286.1734
2017    24      5       5.023502        286.8346
2017    24      6       5.606884        286.7868
2017    24      7       5.787281        286.5003
2017    25      0       5.551936        288.009
2017    25      1       5.257356        289.0834
2017    25      2       5.104759        289.4123
2017    25      3       4.791661        288.6198
2017    25      4       4.752837        288.2074
2017    25      5       5.746579        287.6065
2017    25      6       5.779314        287.5826
2017    25      7       5.453379        286.6245
2017    26      0       5.45539         288.01
2017    26      1       4.945105        289.1633
2017    26      2       4.959809        290.1625
2017    26      3       4.987474        290.2267
2017    26      4       4.809732        289.8709
2017    26      5       5.963867        289.8296
2017    26      6       7.058944        288.6248
2017    26      7       7.914763        287.3971
2017    27      0       7.280701        289.54
2017    27      1       6.74716         291.76
2017    27      2       7.59441         292.6784
2017    27      3       9.041775        291.1583
2017    27      4       9.371367        290.2515
2017    27      5       9.099994        289.6045
2017    27      6       8.220188        288.457
2017    27      7       8.071863        287.6148
2017    28      0       8.409356        289.4433
2017    28      1       8.672507        291.8254
2017    28      2       9.835182        291.0419
2017    28      3       9.770719        290.143
2017    28      4       9.503359        289.8744
2017    28      5       10.71981        289.3662
2017    28      6       11.13569        288.4374
2017    28      7       10.48747        287.9316
2017    29      0       10.13842        288.0215
2017    29      1       9.770477        289.2213
2017    29      2       10.02043        290.0135
2017    29      3       10.26457        289.7663
2017    29      4       10.8259         288.9488
2017    29      5       9.397058        287.8316
2017    29      6       8.709878        288.3268
2017    29      7       8.386057        288.3751
2017    30      0       8.481031        289.4601
2017    30      1       8.440251        291.4206
2017    30      2       8.675038        292.174
2017    30      3       8.467191        291.8533
2017    30      4       8.460561        289.6526
2017    30      5       7.513801        287.7977
2017    30      6       7.17627         287.4787
2017    30      7       7.372469        287.5988
2018    1       0       4.948478        287.0554
2018    1       1       4.694593        289.189
2018    1       2       4.487636        289.5793
2018    1       3       4.303019        288.5411
2018    1       4       3.354112        280.8023
2018    1       5       3.613356        281.8992
2018    1       6       4.305216        284.7568
2018    1       7       4.828723        285.0362
2018    2       0       5.238786        285.2049
2018    2       1       3.802101        283.0308
2018    2       2       3.586242        283.4346
2018    2       3       4.509703        289.051
2018    2       4       5.584241        290.6125
2018    2       5       5.270956        289.056
2018    2       6       5.764405        288.6797
2018    2       7       5.886083        287.7788
2018    3       0       6.202704        289.4601
2018    3       1       6.326951        294.2104
2018    3       2       5.883709        295.9903
2018    3       3       5.550177        295.6609
2018    3       4       4.822832        291.8602
2018    3       5       3.757492        284.2327
2018    3       6       3.503337        281.8016
2018    3       7       3.851255        284.7247
2018    4       0       3.688039        283.6255
2018    4       1       4.009611        286.2034
2018    4       2       4.274354        287.2668
2018    4       3       3.650248        283.4576
2018    4       4       4.181214        285.3315
2018    4       5       4.219547        284.6417
2018    4       6       3.617992        281.1208
2018    4       7       4.115147        284.8466
2018    5       0       5.32495         291.7035
2018    5       1       5.686885        293.7815
2018    5       2       5.915304        295.2954
2018    5       3       5.90744         294.2527
2018    5       4       6.536333        294.7969
2018    5       5       7.017096        295.3944
2018    5       6       7.645811        295.3701
2018    5       7       8.426437        294.9929
2018    6       0       8.018257        295.5166
2018    6       1       6.516847        296.8597
2018    6       2       6.698537        298.6646
2018    6       3       9.18053         297.1961
2018    6       4       10.2078         293.6028
2018    6       5       7.832146        292.3576
2018    6       6       7.038604        295.0206
2018    6       7       7.5712          296.3604
2018    7       0       8.721056        296.1339
2018    7       1       8.446952        297.8215
2018    7       2       10.4472         293.9923
2018    7       3       11.16079        289.1525
2018    7       4       9.108016        284.6751
2018    7       5       6.655257        279.4217
2018    7       6       4.488655        276.3257
2018    7       7       2.785192        261.4922
2018    8       0       1.986832        242.2659
2018    8       1       1.532621        222.6744
2018    8       2       1.568717        225.0704
2018    8       3       1.616733        226.94
2018    8       4       1.593161        224.9366
2018    8       5       1.556372        222.6298
2018    8       6       1.675928        229.0498
2018    8       7       1.758428        232.8542
2018    9       0       2.587998        261.4059
2018    9       1       2.764826        266.9029
2018    9       2       2.689931        266.3211
2018    9       3       2.499664        261.5705
2018    9       4       2.28505         255.1399
2018    9       5       2.223981        252.1883
2018    9       6       2.160348        249.6169
2018    9       7       2.719443        263.1742
2018    10      0       3.35503         273.4867
2018    10      1       3.467262        276.5374
2018    10      2       3.506188        277.7166
2018    10      3       3.209653        274.3459
2018    10      4       2.879592        269.2774
2018    10      5       2.974615        270.6384
2018    10      6       3.502494        276.6559
2018    10      7       4.538664        282.0877
2018    11      0       4.934951        284.1063
2018    11      1       4.530487        283.8516
2018    11      2       4.332188        283.8266
2018    11      3       3.98818         282.5231
2018    11      4       3.901699        281.7828
2018    11      5       4.488585        283.1071
2018    11      6       4.61508         282.5506
2018    11      7       4.374307        281.4823
2018    12      0       4.062622        281.4127
2018    12      1       3.693557        280.9542
2018    12      2       3.497365        279.9575
2018    12      3       3.385187        278.3412
2018    12      4       3.140109        275.0608
2018    12      5       3.982018        280.2538
2018    12      6       4.01535         280.1418
2018    12      7       3.83788         279.132
2018    13      0       4.192838        282.1164
2018    13      1       3.848962        282.3232
2018    13      2       3.942514        283.4895
2018    13      3       4.153292        284.4824
2018    13      4       4.224072        284.4844
2018    13      5       5.228068        286.3726
2018    13      6       6.542078        286.3267
2018    13      7       6.520098        285.5275
2018    14      0       6.785291        286.6822
2018    14      1       6.934503        287.7058
2018    14      2       7.489666        288.0815
2018    14      3       6.969908        288.0627
2018    14      4       6.521897        288.3721
2018    14      5       6.298755        288.4636
2018    14      6       6.341793        288.3827
2018    14      7       6.581874        288.0257
2018    15      0       6.265414        288.8016
2018    15      1       5.380279        289.5005
2018    15      2       4.960637        289.5991
2018    15      3       4.846693        289.0527
2018    15      4       4.546387        287.1973
2018    15      5       4.621398        287.5003
2018    15      6       5.264045        288.4157
2018    15      7       6.193394        288.4256
2018    16      0       5.077712        288.655
2018    16      1       3.775525        284.643
2018    16      2       3.408141        281.5262
2018    16      3       3.046422        276.3666
2018    16      4       3.249963        278.5495
2018    16      5       3.626567        281.6491
2018    16      6       3.888499        283.3132
2018    16      7       5.797773        287.1508
2018    17      0       5.091806        288.015
2018    17      1       3.91198         285.5781
2018    17      2       3.413198        281.544
2018    17      3       3.341652        279.5033
2018    17      4       5.683376        288.0588
2018    17      5       5.514678        284.5316
2018    17      6       5.246801        282.9262
2018    17      7       5.066946        281.7584
2018    18      0       4.836479        284.5169
2018    18      1       5.055525        287.879
2018    18      2       5.103648        288.7574
2018    18      3       5.54183         289.1149
2018    18      4       6.338392        286.4043
2018    18      5       5.987094        283.3277
2018    18      6       6.828139        281.7759
2018    18      7       6.65127         281.0513
2018    19      0       6.782268        282.0896
2018    19      1       6.290065        284.1717
2018    19      2       5.708389        286.8029
2018    19      3       5.275023        287.1731
2018    19      4       4.960167        286.6277
2018    19      5       5.113538        285.7619
2018    19      6       5.841145        284.0994
2018    19      7       6.603982        283.9853
2018    20      0       7.359346        284.6054
2018    20      1       7.923517        288.038
2018    20      2       8.840432        291.2411
2018    20      3       8.812116        292.456
2018    20      4       7.916461        292.7429
2018    20      5       8.490259        291.2187
2018    20      6       8.452657        290.7293
2018    20      7       8.38103         289.63
2018    21      0       9.135321        290.9427
2018    21      1       11.05992        289.9667
2018    21      2       10.74032        287.9113
2018    21      3       9.033656        287.1585
2018    21      4       7.993591        286.4879
2018    21      5       8.928686        286.3965
2018    21      6       6.48907         284.7098
2018    21      7       4.733431        281.7059
2018    22      0       3.18022         272.6559
2018    22      1       2.318089        256.78
2018    22      2       1.392568        213.9372
2018    22      3       1.3952          213.2128
2018    22      4       1.315377        206.7217
2018    22      5       1.717244        231.093
2018    22      6       2.225725        250.726
2018    22      7       2.584028        258.9405
2018    23      0       2.316714        253.5892
2018    23      1       1.908775        241.3297
2018    23      2       1.814373        238.0514
2018    23      3       1.785176        235.971
2018    23      4       1.879193        237.7947
2018    23      5       2.396745        252.4279
2018    23      6       2.46572         255.1152
2018    23      7       2.61665         258.6222
2018    24      0       2.795015        264.6328
2018    24      1       2.595147        263.2286
2018    24      2       2.563998        263.075
2018    24      3       3.081472        271.3789
2018    24      4       3.652597        276.4044
2018    24      5       3.737875        276.961
2018    24      6       3.466572        273.9389
2018    24      7       3.358169        272.7135
2018    25      0       4.261932        280.182
2018    25      1       4.746391        284.4806
2018    25      2       4.078011        283.7768
2018    25      3       3.832671        282.1151
2018    25      4       3.569777        278.9611
2018    25      5       3.363191        275.3962
2018    25      6       2.868033        267.8358
2018    25      7       2.499778        260.3222
2018    26      0       2.331691        257.1977
2018    26      1       2.13134         252.6854
2018    26      2       2.128769        253.5434
2018    26      3       2.305862        258.3459
2018    26      4       2.577791        264.5755
2018    26      5       2.992206        271.1673
2018    26      6       1.363218        200.6195
2018    26      7       3.777295        277.8291
2018    27      0       4.432106        282.4093
2018    27      1       4.117588        285.8052
2018    27      2       5.073825        290.6421
2018    27      3       5.385677        291.1316
2018    27      4       5.314464        289.903
2018    27      5       5.043626        288.764
2018    27      6       6.002129        288.9119
2018    27      7       6.951286        287.6618
2018    28      0       6.58423         286.0672
2018    28      1       4.161593        281.166
2018    28      2       5.180616        284.511
2018    28      3       6.036464        285.0956
2018    28      4       6.525648        283.8568
2018    28      5       5.469435        282.4629
2018    28      6       5.722093        281.6093
2018    28      7       5.239142        280.3041
2018    29      0       4.611617        281.1235
2018    29      1       4.192431        282.4699
2018    29      2       4.177117        283.8304
2018    29      3       4.141067        283.2374
2018    29      4       3.960549        281.7854
2018    29      5       3.968661        280.8302
2018    29      6       4.025535        280.9154
2018    29      7       4.006438        281.008
2018    30      0       4.062334        282.6255
2018    30      1       4.096285        284.2053
2018    30      2       3.969293        284.5729
2018    30      3       3.780976        283.2159
2018    30      4       3.319999        278.622
2018    30      5       3.080037        275.1335
2018    30      6       2.759147        269.5726
2018    30      7       2.649761        267.109
