####################################################################################################
# Month: 09Sep                                                                                     #
# Station: YBG                                                                                     #
# Frequency: 345 GHz                                                                               #
# Columns are: year    day     segment         tau     Tb (K)                                      #
####################################################################################################
2009    1       0       1.792591        226.252
2009    1       1       1.756516        224.3602
2009    1       2       1.840948        228.7572
2009    1       3       1.849549        229.6333
2009    1       4       1.86967         230.4531
2009    1       5       1.753277        225.4856
2009    1       6       1.699924        222.757
2009    1       7       1.776362        225.0817
2009    2       0       1.959123        232.4819
2009    2       1       1.799724        226.3816
2009    2       2       1.826946        228.2124
2009    2       3       1.899335        231.8773
2009    2       4       1.885991        231.649
2009    2       5       1.698498        223.2062
2009    2       6       1.753672        224.5548
2009    2       7       1.609282        217.0236
2009    3       0       1.60466         217.069
2009    3       1       1.672187        220.6076
2009    3       2       1.835288        228.4489
2009    3       3       1.862929        230.4946
2009    3       4       1.652313        221.1723
2009    3       5       1.464066        210.615
2009    3       6       1.350217        202.8463
2009    3       7       1.326287        200.3683
2009    4       0       0.9999444       173.5317
2009    4       1       1.061457        178.978
2009    4       2       1.132804        185.6245
2009    4       3       1.30741         199.0599
2009    4       4       1.361916        202.9392
2009    4       5       1.241579        193.7818
2009    4       6       1.032478        175.2427
2009    4       7       0.8082707       150.9974
2009    5       0       1.001897        170.5417
2009    5       1       1.237654        190.862
2009    5       2       1.628455        215.8269
2009    5       3       1.76556         222.7261
2009    5       4       1.529495        211.3205
2009    5       5       1.593403        214.6674
2009    5       6       1.516598        210.1879
2009    5       7       1.34851         199.6563
2009    6       0       1.359513        200.4518
2009    6       1       1.544937        212.2289
2009    6       2       1.794354        225.2328
2009    6       3       2.112116        237.765
2009    6       4       2.058683        236.3785
2009    6       5       1.765152        224.5263
2009    6       6       1.5811          214.8975
2009    6       7       1.592031        215.3252
2009    7       0       1.554473        212.9334
2009    7       1       1.625519        217.0266
2009    7       2       1.776951        225.2508
2009    7       3       1.833519        228.3541
2009    7       4       1.877646        230.5828
2009    7       5       1.957948        232.93
2009    7       6       1.903943        229.4728
2009    7       7       1.691577        220.0229
2009    8       0       1.582662        214.6043
2009    8       1       1.568505        213.9019
2009    8       2       1.606002        216.6146
2009    8       3       1.697028        221.2808
2009    8       4       1.612845        217.3772
2009    8       5       1.728325        222.7278
2009    8       6       1.776995        224.4567
2009    8       7       1.556198        213.0924
2009    9       0       1.351557        200.5444
2009    9       1       1.344411        200.001
2009    9       2       1.492877        210.0382
2009    9       3       1.544949        213.6703
2009    9       4       1.36392         202.9018
2009    9       5       1.363162        202.8041
2009    9       6       1.460324        208.6223
2009    9       7       1.456213        208.2986
2009    10      0       1.452418        207.8651
2009    10      1       1.432506        206.5588
2009    10      2       1.485608        210.3689
2009    10      3       1.627657        218.2026
2009    10      4       1.732106        223.3269
2009    10      5       1.739079        223.4896
2009    10      6       1.883561        229.1636
2009    10      7       1.854536        227.8195
2009    11      0       1.684615        219.8173
2009    11      1       1.694344        219.9494
2009    11      2       1.820423        226.1089
2009    11      3       1.810652        226.2155
2009    11      4       1.595643        216.7451
2009    11      5       1.68147         221.3436
2009    11      6       1.773735        225.6326
2009    11      7       2.00892         235.0353
2009    12      0       1.902617        230.7875
2009    12      1       1.783824        226.0925
2009    12      2       1.815071        228.8242
2009    12      3       1.835365        230.6192
2009    12      4       1.738749        226.1189
2009    12      5       1.613208        219.3612
2009    12      6       1.591858        217.559
2009    12      7       1.542182        214.3276
2009    13      0       1.53632         213.8399
2009    13      1       1.655738        220.137
2009    13      2       1.78329         226.6509
2009    13      3       1.617499        219.2432
2009    13      4       1.255309        196.6807
2009    13      5       1.166892        189.4674
2009    13      6       1.291579        198.5715
2009    13      7       1.270259        196.6151
2009    14      0       1.504575        211.2534
2009    14      1       1.847473        227.7303
2009    14      2       1.650347        219.4408
2009    14      3       1.473654        210.3811
2009    14      4       1.228806        194.4208
2009    14      5       1.250458        195.6666
2009    14      6       1.391932        205.1028
2009    14      7       1.596499        216.1579
2009    15      0       1.962597        232.5055
2009    15      1       1.931178        230.9879
2009    15      2       1.892585        230.0794
2009    15      3       2.022901        235.6254
2009    15      4       2.021158        235.963
2009    15      5       1.914217        232.0108
2009    15      6       1.780902        226.5322
2009    15      7       1.658975        220.5517
2009    16      0       1.488456        210.7873
2009    16      1       1.473186        209.5683
2009    16      2       1.684032        221.5707
2009    16      3       1.906412        231.5161
2009    16      4       1.840296        229.0697
2009    16      5       1.63946         219.9713
2009    16      6       1.473085        210.4878
2009    16      7       1.41108         206.0725
2009    17      0       1.373922        203.471
2009    17      1       1.472603        209.5152
2009    17      2       1.500105        211.8601
2009    17      3       1.393714        205.8017
2009    17      4       1.260423        196.7708
2009    17      5       1.293459        199.3178
2009    17      6       1.209679        192.7839
2009    17      7       1.299942        199.4529
2009    18      0       1.226192        193.2609
2009    18      1       1.242809        193.9022
2009    18      2       1.457335        209.229
2009    18      3       1.910245        231.3663
2009    18      4       1.589189        217.759
2009    18      5       1.45594         209.8981
2009    18      6       1.508361        211.9031
2009    18      7       1.377855        203.7329
2009    19      0       1.272703        196.4268
2009    19      1       1.220621        192.3886
2009    19      2       1.622843        217.3549
2009    19      3       1.569304        215.7387
2009    19      4       1.597105        217.8507
2009    19      5       1.837707        228.3022
2009    19      6       1.825539        226.6908
2009    19      7       1.514946        210.6807
2009    20      0       1.300421        196.8427
2009    20      1       1.333586        198.924
2009    20      2       1.378859        202.9029
2009    20      3       1.560088        213.7372
2009    20      4       1.602212        215.7018
2009    20      5       1.40549         203.3
2009    20      6       1.244316        191.7618
2009    20      7       1.202273        188.1459
2009    21      0       1.056621        176.0465
2009    21      1       1.054461        175.5051
2009    21      2       1.1906          187.453
2009    21      3       1.33616         198.701
2009    21      4       1.356421        199.6589
2009    21      5       1.141256        183.5088
2009    21      6       1.028069        173.3216
2009    21      7       0.9536442       166.7303
2009    22      0       1.022504        173.6497
2009    22      1       1.12007         181.9192
2009    22      2       1.38808         202.2997
2009    22      3       1.83566         225.7117
2009    22      4       1.864587        228.213
2009    22      5       2.138653        238.4393
2009    22      6       1.940455        230.2983
2009    22      7       1.5113          210.3806
2009    23      0       1.323819        198.0082
2009    23      1       1.31489         196.4131
2009    23      2       1.304115        196.2713
2009    23      3       1.306977        197.6974
2009    23      4       1.453481        207.047
2009    23      5       1.463002        207.4212
2009    23      6       1.39972         203.2509
2009    23      7       1.35289         199.7908
2009    24      0       1.253476        192.8125
2009    24      1       1.336941        198.7059
2009    24      2       1.556235        212.0339
2009    24      3       1.566233        213.3265
2009    24      4       1.678073        218.86
2009    24      5       1.449886        205.9972
2009    24      6       1.185278        187.3158
2009    24      7       1.186022        187.0508
2009    25      0       1.155985        184.3719
2009    25      1       1.191889        186.0523
2009    25      2       1.319685        195.1621
2009    25      3       1.368599        198.9162
2009    25      4       1.196737        186.8606
2009    25      5       1.071426        176.3013
2009    25      6       0.8958404       159.1225
2009    25      7       0.6923739       135.6847
2009    26      0       0.4194132       95.99785
2009    26      1       0.3562249       84.60555
2009    26      2       0.3757295       88.16244
2009    26      3       0.383774        89.9979
2009    26      4       0.3451527       82.89676
2009    26      5       0.2914034       72.64112
2009    26      6       0.2505568       64.51878
2009    26      7       0.2174142       57.57512
2009    27      0       0.194793        52.83745
2009    27      1       0.1911644       52.04149
2009    27      2       0.2631974       66.9277
2009    27      3       0.3408524       81.8896
2009    27      4       0.366366        86.41384
2009    27      5       0.3711738       86.96964
2009    27      6       0.3234612       78.21059
2009    27      7       0.2675935       67.55109
2009    28      0       0.3605101       85.14881
2009    28      1       0.4905966       106.7785
2009    28      2       0.6209304       126.0306
2009    28      3       0.7020744       136.7395
2009    28      4       0.7004322       136.2006
2009    28      5       0.7020025       135.993
2009    28      6       0.9034487       159.6097
2009    28      7       1.06807         176.0863
2009    29      0       1.141587        182.3712
2009    29      1       1.185769        185.3247
2009    29      2       1.243797        189.7049
2009    29      3       1.300714        194.2321
2009    29      4       1.162972        184.5798
2009    29      5       1.24481         190.6819
2009    29      6       1.395487        200.6224
2009    29      7       1.432478        202.9437
2009    30      0       1.397257        200.901
2009    30      1       1.282607        193.0079
2009    30      2       1.229058        189.9307
2009    30      3       1.275419        194.1785
2009    30      4       1.344249        198.9981
2009    30      5       1.399618        202.2307
2009    30      6       1.380418        200.8926
2009    30      7       1.369462        200.436
2010    1       0       1.713473        222.5738
2010    1       1       1.791021        225.9321
2010    1       2       1.807331        227.363
2010    1       3       1.823696        228.9625
2010    1       4       1.785126        227.3938
2010    1       5       1.679237        222.1233
2010    1       6       1.542327        214.0027
2010    1       7       1.389848        204.3601
2010    2       0       1.284519        197.3476
2010    2       1       1.34226         201.1642
2010    2       2       1.622525        218.1189
2010    2       3       1.824544        227.7538
2010    2       4       1.867495        229.7301
2010    2       5       1.818507        227.2313
2010    2       6       1.869293        228.8413
2010    2       7       2.014698        234.3866
2010    3       0       2.094013        237.5662
2010    3       1       1.942964        232.42
2010    3       2       1.983802        234.5593
2010    3       3       2.12116         240.0061
2010    3       4       2.088082        238.8124
2010    3       5       2.315093        245.699
2010    3       6       2.084643        238.4801
2010    3       7       1.932485        231.2792
2010    4       0       2.010329        233.3339
2010    4       1       2.206683        240.9265
2010    4       2       1.925351        233.2741
2010    4       3       2.139099        241.3935
2010    4       4       2.303245        245.1882
2010    4       5       2.202753        241.5865
2010    4       6       1.918091        232.144
2010    4       7       2.051502        236.2209
2010    5       0       2.092714        236.6589
2010    5       1       1.902035        229.3555
2010    5       2       1.788533        225.8939
2010    5       3       2.110809        238.4824
2010    5       4       2.068702        236.63
2010    5       5       1.525625        212.5427
2010    5       6       1.347038        199.5411
2010    5       7       1.04018         174.1608
2010    6       0       0.8273806       151.5901
2010    6       1       0.6871189       135.3521
2010    6       2       0.7825607       147.7261
2010    6       3       1.014743        172.758
2010    6       4       1.101595        180.4715
2010    6       5       1.071751        177.655
2010    6       6       1.034691        174.1892
2010    6       7       1.124936        181.8678
2010    7       0       1.343014        198.3347
2010    7       1       1.641442        215.7923
2010    7       2       1.667378        218.9212
2010    7       3       1.914343        231.1901
2010    7       4       2.180657        240.5764
2010    7       5       1.820856        226.8783
2010    7       6       1.621252        216.8364
2010    7       7       1.676524        218.6236
2010    8       0       1.700138        219.4836
2010    8       1       1.774061        223.3991
2010    8       2       1.827272        226.2056
2010    8       3       1.839059        228.353
2010    8       4       2.170661        240.5802
2010    8       5       2.203208        240.9225
2010    8       6       1.936496        230.4956
2010    8       7       1.841303        226.7635
2010    9       0       1.487015        209.4604
2010    9       1       1.429512        205.648
2010    9       2       1.668248        219.7319
2010    9       3       1.804976        227.1188
2010    9       4       2.043139        235.7647
2010    9       5       1.927062        230.9719
2010    9       6       1.712917        221.4841
2010    9       7       1.778198        223.7839
2010    10      0       1.813486        225.419
2010    10      1       1.77249         222.7899
2010    10      2       1.80942         224.6853
2010    10      3       1.911353        229.344
2010    10      4       1.673483        218.4908
2010    10      5       1.152244        185.0794
2010    10      6       0.9623303       167.7903
2010    10      7       0.8985154       161.1889
2010    11      0       0.973567        168.434
2010    11      1       1.097527        179.9005
2010    11      2       1.437049        204.8907
2010    11      3       1.490012        208.1492
2010    11      4       1.356753        199.8419
2010    11      5       1.263539        193.7286
2010    11      6       1.393477        202.7539
2010    11      7       1.421879        204.5467
2010    12      0       1.323357        198.0699
2010    12      1       1.381422        201.8278
2010    12      2       1.478995        208.4891
2010    12      3       1.66753         218.6283
2010    12      4       1.834125        226.4532
2010    12      5       1.838461        227.2644
2010    12      6       1.732459        222.6749
2010    12      7       1.493202        209.9373
2010    13      0       1.124148        183.9625
2010    13      1       1.012527        173.4212
2010    13      2       1.080881        180.2659
2010    13      3       1.108344        183.4152
2010    13      4       1.082508        181.33
2010    13      5       1.067597        179.7308
2010    13      6       1.214818        191.6961
2010    13      7       1.480788        209.5068
2010    14      0       1.389256        203.462
2010    14      1       1.535701        212.1018
2010    14      2       1.707145        221.8832
2010    14      3       1.692951        222.3147
2010    14      4       1.608365        218.1392
2010    14      5       1.595155        217.2188
2010    14      6       1.638847        219.2591
2010    14      7       1.744972        223.9855
2010    15      0       1.582939        215.2237
2010    15      1       1.692306        220.1649
2010    15      2       1.868646        228.5804
2010    15      3       1.967976        233.0725
2010    15      4       1.92467         231.8131
2010    15      5       1.949439        233.0768
2010    15      6       1.941947        232.209
2010    15      7       1.797537        225.9308
2010    16      0       1.781493        224.7782
2010    16      1       1.708166        221.6352
2010    16      2       1.767406        225.433
2010    16      3       1.825696        228.5441
2010    16      4       1.83736         228.9693
2010    16      5       1.797601        226.6488
2010    16      6       1.809248        226.6551
2010    16      7       1.78335         224.7048
2010    17      0       1.673772        219.4681
2010    17      1       1.731367        222.5744
2010    17      2       1.780332        225.6388
2010    17      3       1.8162          227.8566
2010    17      4       1.765526        225.5702
2010    17      5       1.865639        229.6654
2010    17      6       1.967719        233.1458
2010    17      7       1.89842         230.3008
2010    18      0       1.887542        229.2365
2010    18      1       1.885669        228.6768
2010    18      2       1.896696        229.5336
2010    18      3       2.058561        236.0949
2010    18      4       1.902787        230.6826
2010    18      5       1.740887        223.5793
2010    18      6       1.780424        224.9734
2010    18      7       1.69383         220.6175
2010    19      0       1.533958        212.415
2010    19      1       1.576365        214.5391
2010    19      2       1.675634        220.1076
2010    19      3       1.826527        227.5898
2010    19      4       1.804302        226.6112
2010    19      5       1.865982        228.7035
2010    19      6       1.91149         229.8806
2010    19      7       1.787854        224.1444
2010    20      0       1.69045         219.8455
2010    20      1       1.808477        225.082
2010    20      2       1.753913        222.6778
2010    20      3       1.63729         217.7998
2010    20      4       1.58469         215.727
2010    20      5       1.613484        217.0583
2010    20      6       1.596743        216.0207
2010    20      7       1.59594         215.769
2010    21      0       1.517823        211.3967
2010    21      1       1.60812         216.4828
2010    21      2       1.816414        227.3707
2010    21      3       1.904089        231.461
2010    21      4       1.978669        234.445
2010    21      5       1.994783        235.2127
2010    21      6       2.146702        239.9238
2010    21      7       2.237803        241.9284
2010    22      0       2.122443        237.6227
2010    22      1       1.872335        228.6214
2010    22      2       1.942329        232.2078
2010    22      3       1.972424        233.9995
2010    22      4       1.888348        230.8254
2010    22      5       1.659061        220.0931
2010    22      6       1.569145        214.6322
2010    22      7       1.576735        214.7
2010    23      0       1.372275        202.0551
2010    23      1       1.244877        193.368
2010    23      2       1.259009        195.2695
2010    23      3       1.241384        194.4897
2010    23      4       1.181087        189.7235
2010    23      5       1.196487        190.8126
2010    23      6       1.315733        198.246
2010    23      7       1.327418        198.1249
2010    24      0       1.573324        212.6172
2010    24      1       1.689905        218.5099
2010    24      2       1.730657        220.8718
2010    24      3       1.872143        227.6612
2010    24      4       1.736743        222.1944
2010    24      5       1.795975        224.859
2010    24      6       1.416512        204.9286
2010    24      7       1.339177        199.8183
2010    25      0       1.164339        186.8488
2010    25      1       1.128922        183.359
2010    25      2       1.293821        196.5898
2010    25      3       1.296009        197.4978
2010    25      4       1.086913        180.9919
2010    25      5       0.830839        155.153
2010    25      6       0.8412163       156.4553
2010    25      7       0.9379966       166.4787
2010    26      0       0.874357        159.3998
2010    26      1       0.6369781       130.1235
2010    26      2       0.6639593       133.7977
2010    26      3       0.7645184       147.2373
2010    26      4       0.7558772       146.2815
2010    26      5       0.7743922       148.3737
2010    26      6       0.9444794       167.1962
2010    26      7       0.8797118       159.8792
2010    27      0       0.6780716       135.5086
2010    27      1       0.5807436       121.9205
2010    27      2       0.6103303       126.4116
2010    27      3       0.6625639       133.6891
2010    27      4       0.6532753       131.9801
2010    27      5       0.6518814       131.2461
2010    27      6       0.6875461       135.6055
2010    27      7       0.6842187       134.8068
2010    28      0       0.6148615       125.3206
2010    28      1       0.5998251       123.515
2010    28      2       0.710147        139.1844
2010    28      3       0.8125981       152.1931
2010    28      4       0.7365875       143.5177
2010    28      5       0.6325317       129.7723
2010    28      6       0.602369        125.3136
2010    28      7       0.7471493       144.864
2010    29      0       0.8725516       159.3342
2010    29      1       0.7982839       150.5595
2010    29      2       0.761497        146.417
2010    29      3       0.7502868       144.7935
2010    29      4       0.6983462       137.719
2010    29      5       0.6233615       127.4232
2010    29      6       0.5511352       116.8649
2010    29      7       0.5375566       114.6697
2010    30      0       0.5516199       117.0879
2010    30      1       0.5649223       119.2316
2010    30      2       0.6725359       134.4107
2010    30      3       0.7401806       143.3702
2010    30      4       0.6854572       136.2605
2010    30      5       0.6203725       127.0124
2010    30      6       0.6081845       124.8314
2010    30      7       0.649248        130.8997
2011    1       0       0.6257421       129.1971
2011    1       1       0.6888984       137.6092
2011    1       2       0.8635485       159.5704
2011    1       3       0.9865631       173.1775
2011    1       4       0.9720133       172.1672
2011    1       5       1.045872        178.8724
2011    1       6       1.18907         190.6234
2011    1       7       1.31852         200.0607
2011    2       0       1.373042        203.5952
2011    2       1       1.357936        202.4808
2011    2       2       1.604783        218.256
2011    2       3       1.874485        230.8964
2011    2       4       1.771052        226.6196
2011    2       5       1.699477        223.3903
2011    2       6       1.374358        204.4043
2011    2       7       1.055318        178.7588
2011    3       0       0.9314852       165.7847
2011    3       1       0.9930465       171.7326
2011    3       2       1.148222        186.5122
2011    3       3       1.361824        203.2921
2011    3       4       1.463382        210.1644
2011    3       5       1.553856        215.3142
2011    3       6       1.644563        219.0714
2011    3       7       1.518952        211.624
2011    4       0       1.177019        188.1413
2011    4       1       1.007885        173.6521
2011    4       2       1.023166        175.6954
2011    4       3       1.285774        198.0408
2011    4       4       1.369853        204.2858
2011    4       5       1.403838        206.576
2011    4       6       1.387919        204.6948
2011    4       7       1.314402        199.0407
2011    5       0       1.193191        189.9374
2011    5       1       1.123292        184.2892
2011    5       2       1.215577        192.2794
2011    5       3       1.342458        201.9929
2011    5       4       1.237954        194.7815
2011    5       5       1.231749        193.6047
2011    5       6       1.38671         204.3727
2011    5       7       1.566167        214.3089
2011    6       0       1.576973        214.3278
2011    6       1       1.663759        218.5865
2011    6       2       1.665146        219.1008
2011    6       3       1.698499        220.9904
2011    6       4       1.625448        217.3621
2011    6       5       1.706763        221.3136
2011    6       6       1.775897        224.296
2011    6       7       1.779614        223.7621
2011    7       0       1.59641         214.0532
2011    7       1       1.479204        207.3508
2011    7       2       1.505055        209.7147
2011    7       3       1.632699        217.0547
2011    7       4       1.412734        204.3364
2011    7       5       0.9677504       168.2515
2011    7       6       0.6058771       125.5585
2011    7       7       0.4879763       107.8869
2011    8       0       0.4604922       103.57
2011    8       1       0.4869723       107.9237
2011    8       2       0.5889401       124.0166
2011    8       3       0.7448647       145.3914
2011    8       4       0.7373019       144.8127
2011    8       5       0.6767586       136.9241
2011    8       6       0.6831584       137.5271
2011    8       7       0.7538639       146.7933
2011    9       0       0.8641054       160.0981
2011    9       1       0.9023702       164.3215
2011    9       2       0.9641106       170.864
2011    9       3       1.040551        178.9437
2011    9       4       1.001583        175.355
2011    9       5       1.071832        181.2642
2011    9       6       1.505164        213.1414
2011    9       7       1.959599        233.842
2011    10      0       1.98124         234.1422
2011    10      1       1.898162        230.947
2011    10      2       1.80633         227.9215
2011    10      3       1.845367        230.2583
2011    10      4       2.066531        238.4743
2011    10      5       2.110256        239.7418
2011    10      6       2.188759        241.3959
2011    10      7       2.278707        243.129
2011    11      0       2.237399        241.4573
2011    11      1       2.057338        236.0372
2011    11      2       1.897977        231.1747
2011    11      3       2.052445        237.0573
2011    11      4       2.06194         237.8008
2011    11      5       2.16942         241.2397
2011    11      6       2.498861        249.6129
2011    11      7       2.35379         245.3458
2011    12      0       1.981797        233.4214
2011    12      1       1.844931        228.3787
2011    12      2       2.014751        235.8655
2011    12      3       1.96939         234.7167
2011    12      4       2.120786        239.3861
2011    12      5       2.06566         237.0767
2011    12      6       1.850098        229.0375
2011    12      7       1.679919        220.5194
2011    13      0       1.399691        204.4017
2011    13      1       1.317311        198.6108
2011    13      2       1.275372        196.2527
2011    13      3       1.238724        193.7683
2011    13      4       1.121903        184.1996
2011    13      5       0.9763835       170.2831
2011    13      6       0.8327582       154.4662
2011    13      7       0.6542336       132.2284
2011    14      0       0.4804554       106.6533
2011    14      1       0.4265933       97.55219
2011    14      2       0.4714438       105.0723
2011    14      3       0.5761793       121.491
2011    14      4       0.6195686       127.6994
2011    14      5       0.6528381       131.7674
2011    14      6       0.7296622       141.2851
2011    14      7       1.018367        173.43
2011    15      0       1.361504        201.4477
2011    15      1       1.599791        214.5791
2011    15      2       1.739468        222.4238
2011    15      3       1.805479        225.9146
2011    15      4       1.781502        225.5388
2011    15      5       1.969273        232.6709
2011    15      6       1.731816        222.654
2011    15      7       1.703072        221.3941
2011    16      0       1.561736        213.8569
2011    16      1       1.490794        210.0985
2011    16      2       1.601551        217.4486
2011    16      3       1.709395        223.7493
2011    16      4       1.727491        224.1686
2011    16      5       1.728351        224.5213
2011    16      6       1.683398        221.5231
2011    16      7       1.676002        220.2776
2011    17      0       1.810521        225.6525
2011    17      1       1.742679        222.8074
2011    17      2       1.764551        224.8877
2011    17      3       1.770191        225.9869
2011    17      4       1.823017        228.2032
2011    17      5       1.879424        229.9276
2011    17      6       2.081404        236.3664
2011    17      7       1.670578        219.0627
2011    18      0       1.490332        209.0127
2011    18      1       1.456465        206.8985
2011    18      2       1.596994        215.6318
2011    18      3       1.846682        227.8576
2011    18      4       2.002832        233.8856
2011    18      5       1.876505        228.9401
2011    18      6       1.519649        211.0011
2011    18      7       1.386955        202.2737
2011    19      0       1.392841        202.5106
2011    19      1       1.505444        209.3588
2011    19      2       1.601746        215.4239
2011    19      3       1.766456        224.2784
2011    19      4       1.797409        225.8066
2011    19      5       1.733416        223.1038
2011    19      6       1.658621        218.5389
2011    19      7       1.49859         209.0174
2011    20      0       1.445645        205.8357
2011    20      1       1.413113        204.3166
2011    20      2       1.51544         211.2417
2011    20      3       1.533359        212.2856
2011    20      4       1.40811         204.8282
2011    20      5       1.361225        201.6338
2011    20      6       1.248401        193.6281
2011    20      7       1.305298        196.9136
2011    21      0       1.225504        191.4988
2011    21      1       1.396868        202.8271
2011    21      2       1.503553        209.6062
2011    21      3       1.551047        213.134
2011    21      4       1.544096        212.6721
2011    21      5       1.471846        208.6511
2011    21      6       1.525651        211.5124
2011    21      7       1.443871        206.0079
2011    22      0       1.410505        203.7402
2011    22      1       1.525003        210.3317
2011    22      2       1.59505         214.9434
2011    22      3       1.761306        223.4239
2011    22      4       1.799963        225.3972
2011    22      5       1.886537        229.4147
2011    22      6       1.85571         227.0
2011    22      7       1.723846        220.0573
2011    23      0       1.559365        211.8926
2011    23      1       1.56081         212.0826
2011    23      2       1.529743        211.3012
2011    23      3       1.635244        217.9171
2011    23      4       1.749533        223.626
2011    23      5       1.843223        227.547
2011    23      6       1.558125        212.8712
2011    23      7       1.603194        214.9192
2011    24      0       1.652388        217.5237
2011    24      1       1.647885        217.2226
2011    24      2       1.705211        220.5951
2011    24      3       1.932761        230.3761
2011    24      4       2.040655        234.6735
2011    24      5       1.745891        222.5707
2011    24      6       1.660212        217.9211
2011    24      7       1.507032        209.6418
2011    25      0       1.459465        206.6989
2011    25      1       1.606287        214.6379
2011    25      2       1.845044        225.9721
2011    25      3       2.022663        233.3872
2011    25      4       2.031629        234.551
2011    25      5       1.642329        218.9104
2011    25      6       1.487044        209.0584
2011    25      7       1.71091         220.3018
2011    26      0       1.828708        225.244
2011    26      1       1.851024        226.2747
2011    26      2       1.876057        228.1473
2011    26      3       2.043025        235.6182
2011    26      4       2.165793        239.5811
2011    26      5       1.774293        224.9492
2011    26      6       1.63434         217.863
2011    26      7       1.58636         213.6354
2011    27      0       1.401645        202.0796
2011    27      1       1.066933        177.4945
2011    27      2       1.063945        178.266
2011    27      3       0.9939431       172.4214
2011    27      4       0.9207332       164.492
2011    27      5       0.7003068       138.5211
2011    27      6       0.7255066       141.371
2011    27      7       0.7442141       143.0891
2011    28      0       0.7631768       145.1812
2011    28      1       0.8527007       155.5209
2011    28      2       0.8565614       156.4389
2011    28      3       0.8510305       156.1317
2011    28      4       0.8337874       154.4059
2011    28      5       0.8396194       155.4697
2011    28      6       0.9635654       168.4452
2011    28      7       1.042451        175.2971
2011    29      0       1.029311        173.8847
2011    29      1       1.071505        177.5493
2011    29      2       1.142603        184.1384
2011    29      3       1.162574        186.8042
2011    29      4       1.15979         186.6783
2011    29      5       1.086441        180.3878
2011    29      6       1.088955        179.9722
2011    29      7       1.158591        185.5232
2011    30      0       1.225176        190.4235
2011    30      1       1.209744        189.5253
2011    30      2       1.26692         194.3509
2011    30      3       1.397924        204.0783
2011    30      4       1.476368        209.0408
2011    30      5       1.34778         200.9427
2011    30      6       1.259378        193.8893
2011    30      7       1.282388        195.0257
2012    1       0       0.9681719       166.0066
2012    1       1       0.851717        154.3151
2012    1       2       0.8817928       158.4146
2012    1       3       0.9991199       171.0012
2012    1       4       0.9834475       168.8162
2012    1       5       0.9264294       162.455
2012    1       6       0.9038594       160.1226
2012    1       7       0.9455458       163.844
2012    2       0       1.002847        168.7106
2012    2       1       1.012697        169.5945
2012    2       2       1.135167        180.9905
2012    2       3       1.040415        174.2303
2012    2       4       0.8262716       153.2759
2012    2       5       0.6068413       125.2693
2012    2       6       0.510351        110.6803
2012    2       7       0.4493332       100.8774
2012    3       0       0.3777249       88.56233
2012    3       1       0.3699754       87.16915
2012    3       2       0.4951064       108.3059
2012    3       3       0.6356126       129.283
2012    3       4       0.6675769       133.6087
2012    3       5       0.6367717       129.1293
2012    3       6       0.6243695       126.9874
2012    3       7       0.5826728       121.1328
2012    4       0       0.5597185       117.6135
2012    4       1       0.5371703       114.4874
2012    4       2       0.5511659       117.0144
2012    4       3       0.6778553       134.7024
2012    4       4       0.6472335       130.9649
2012    4       5       0.6176318       126.7517
2012    4       6       0.6360469       129.2253
2012    4       7       0.7367949       142.8937
2012    5       0       0.8858999       159.9415
2012    5       1       1.023349        173.17
2012    5       2       1.025724        173.9597
2012    5       3       1.072692        178.9525
2012    5       4       0.9846544       171.2182
2012    5       5       0.8806          160.417
2012    5       6       0.8844318       160.6707
2012    5       7       0.928286        165.5272
2012    6       0       0.8905043       161.712
2012    6       1       1.180207        187.6828
2012    6       2       1.338901        199.9491
2012    6       3       1.617709        216.8152
2012    6       4       1.571471        214.8791
2012    6       5       1.478503        209.5894
2012    6       6       1.349674        201.6146
2012    6       7       1.638982        217.8839
2012    7       0       1.63128         217.1886
2012    7       1       1.434389        205.7231
2012    7       2       1.528793        212.3811
2012    7       3       1.538819        213.6995
2012    7       4       1.518785        212.8071
2012    7       5       1.448474        208.8641
2012    7       6       1.523867        213.0483
2012    7       7       1.518068        212.3091
2012    8       0       1.502867        210.72
2012    8       1       1.53566         212.3211
2012    8       2       1.523029        212.2532
2012    8       3       1.581698        216.1657
2012    8       4       1.598721        217.2445
2012    8       5       1.565026        215.4552
2012    8       6       1.707613        222.5012
2012    8       7       1.685573        221.153
2012    9       0       1.579446        215.3154
2012    9       1       1.502678        211.1138
2012    9       2       1.696265        221.4502
2012    9       3       1.761053        224.7975
2012    9       4       1.795975        227.4652
2012    9       5       1.692417        222.15
2012    9       6       1.576301        215.4128
2012    9       7       1.493339        209.9949
2012    10      0       1.426028        205.8704
2012    10      1       1.461983        208.3846
2012    10      2       1.691721        220.9457
2012    10      3       1.645285        219.4397
2012    10      4       1.663495        221.1405
2012    10      5       1.610086        218.5084
2012    10      6       1.655285        220.0615
2012    10      7       1.679797        221.1027
2012    11      0       1.821069        227.2557
2012    11      1       1.949197        231.9779
2012    11      2       1.779287        225.2878
2012    11      3       1.650936        220.0454
2012    11      4       1.903153        230.9944
2012    11      5       1.903151        231.277
2012    11      6       1.618138        218.0405
2012    11      7       1.488972        209.3911
2012    12      0       1.078631        178.4808
2012    12      1       0.9158197       162.7532
2012    12      2       0.8745112       159.2088
2012    12      3       0.8354997       155.4225
2012    12      4       0.7586516       145.9235
2012    12      5       0.7065275       139.3961
2012    12      6       0.7181498       140.1349
2012    12      7       0.7212489       140.2532
2012    13      0       0.5850212       122.3746
2012    13      1       0.5761833       121.1194
2012    13      2       0.7099004       139.784
2012    13      3       0.9700033       169.3129
2012    13      4       1.105067        181.8858
2012    13      5       1.264588        194.1894
2012    13      6       1.297421        196.8999
2012    13      7       1.367326        201.8312
2012    14      0       1.563831        213.2905
2012    14      1       1.902333        228.5226
2012    14      2       1.967653        231.0442
2012    14      3       2.044929        235.0969
2012    14      4       2.189185        240.4001
2012    14      5       2.053383        235.8277
2012    14      6       1.662618        219.3837
2012    14      7       1.585126        215.1493
2012    15      0       1.58445         214.7655
2012    15      1       1.748725        222.7976
2012    15      2       1.910355        230.634
2012    15      3       1.955577        233.0826
2012    15      4       2.197098        241.1861
2012    15      5       1.904579        231.3999
2012    15      6       1.865421        229.5993
2012    15      7       1.875292        229.1277
2012    16      0       1.817057        226.2
2012    16      1       1.583534        214.5612
2012    16      2       1.635651        217.1863
2012    16      3       1.929363        229.5511
2012    16      4       1.836937        226.7788
2012    16      5       1.976836        232.6856
2012    16      6       1.921291        230.3029
2012    16      7       1.721028        221.685
2012    17      0       1.529251        211.6883
2012    17      1       1.603201        214.8733
2012    17      2       1.771041        223.4351
2012    17      3       1.913321        229.3984
2012    17      4       1.779014        224.0384
2012    17      5       1.764468        223.6442
2012    17      6       1.704957        220.6034
2012    17      7       1.514809        210.6958
2012    18      0       1.482077        208.6432
2012    18      1       1.471092        207.9725
2012    18      2       1.594917        215.5989
2012    18      3       1.723025        222.7399
2012    18      4       1.66503         220.1154
2012    18      5       1.414419        206.1956
2012    18      6       1.321188        199.9587
2012    18      7       1.477272        209.7747
2012    19      0       1.4203          205.9203
2012    19      1       1.404006        204.6812
2012    19      2       1.554231        214.6152
2012    19      3       1.73069         224.0465
2012    19      4       1.601902        217.7655
2012    19      5       1.372201        204.41
2012    19      6       1.79054         226.4723
2012    19      7       1.700864        221.6021
2012    20      0       1.410103        204.9228
2012    20      1       1.338071        199.8692
2012    20      2       1.509102        211.319
2012    20      3       1.600701        217.515
2012    20      4       1.804836        227.6645
2012    20      5       1.673062        221.4615
2012    20      6       1.713833        223.4453
2012    20      7       1.535842        214.1386
2012    21      0       1.473013        209.8027
2012    21      1       1.380266        203.433
2012    21      2       1.43424         207.7147
2012    21      3       1.558209        215.4473
2012    21      4       1.552514        215.0628
2012    21      5       1.689701        222.4962
2012    21      6       1.756638        225.2933
2012    21      7       1.715351        222.6386
2012    22      0       1.568289        214.3001
2012    22      1       1.514152        211.0775
2012    22      2       1.471856        209.8462
2012    22      3       1.32612         200.7675
2012    22      4       1.073199        180.775
2012    22      5       1.136724        186.8173
2012    22      6       1.182599        190.5816
2012    22      7       1.104102        183.448
2012    23      0       1.064021        178.9665
2012    23      1       1.111735        182.2975
2012    23      2       1.026584        175.5776
2012    23      3       0.8801092       160.0588
2012    23      4       0.7911015       149.5563
2012    23      5       0.9033403       162.3772
2012    23      6       1.034837        175.9301
2012    23      7       0.6452287       130.4889
2012    24      0       0.5720743       120.3062
2012    24      1       0.5048701       109.8411
2012    24      2       0.5309031       113.9451
2012    24      3       0.6166835       126.6099
2012    24      4       0.6460574       130.5121
2012    24      5       0.792853        149.1509
2012    24      6       1.020483        174.0868
2012    24      7       0.6582405       132.6518
2012    25      0       0.6272434       128.2946
2012    25      1       0.5404191       115.4873
2012    25      2       0.5107747       110.9993
2012    25      3       0.5014157       109.7844
2012    25      4       0.4905325       108.1304
2012    25      5       0.4756223       105.6148
2012    25      6       0.5578604       118.6154
2012    25      7       0.6131422       126.6704
2012    26      0       0.6259976       128.2794
2012    26      1       0.7279523       141.3803
2012    26      2       0.9126042       162.9784
2012    26      3       0.8806873       160.1215
2012    26      4       0.8081753       151.8628
2012    26      5       0.8822249       159.755
2012    26      6       1.032523        175.0176
2012    26      7       0.9866819       170.655
2012    27      0       0.9186755       163.462
2012    27      1       0.8857485       159.859
2012    27      2       0.8854377       160.4135
2012    27      3       0.9319987       165.774
2012    27      4       0.9498928       167.2366
2012    27      5       0.9599843       167.877
2012    27      6       0.9128961       163.6425
2012    27      7       0.8921661       161.4523
2012    28      0       0.8955238       161.6795
2012    28      1       0.8977134       161.5353
2012    28      2       1.10425         181.4035
2012    28      3       1.182434        188.4656
2012    28      4       1.179733        188.0863
2012    28      5       1.210979        190.2993
2012    28      6       1.190368        188.9392
2012    28      7       1.064748        178.3948
2012    29      0       0.9987844       172.3273
2012    29      1       0.9836319       169.8551
2012    29      2       1.016915        173.4781
2012    29      3       1.059133        177.7671
2012    29      4       1.129307        183.6099
2012    29      5       1.303028        196.384
2012    29      6       1.215879        189.967
2012    29      7       1.04501         175.9883
2012    30      0       0.9954051       171.3856
2012    30      1       0.9987717       171.7338
2012    30      2       1.035726        175.6154
2012    30      3       1.113879        182.8148
2012    30      4       1.114269        182.928
2012    30      5       1.032915        175.6328
2012    30      6       1.006352        173.0499
2012    30      7       1.096564        181.0267
2013    1       0       2.018807        236.9093
2013    1       1       2.144513        241.3577
2013    1       2       2.285055        246.0186
2013    1       3       2.360855        248.2851
2013    1       4       2.369007        248.4437
2013    1       5       2.32541         247.416
2013    1       6       2.677028        253.8066
2013    1       7       2.245309        242.7776
2013    2       0       2.046749        236.4116
2013    2       1       1.886569        230.6064
2013    2       2       1.894024        233.0749
2013    2       3       2.145897        242.4917
2013    2       4       2.38041         248.5707
2013    2       5       2.264598        245.298
2013    2       6       2.315265        246.1444
2013    2       7       2.311735        244.9867
2013    3       0       2.076402        237.5172
2013    3       1       1.875232        229.9512
2013    3       2       1.976859        234.9451
2013    3       3       2.160926        241.6911
2013    3       4       2.113735        239.9303
2013    3       5       2.269617        244.4534
2013    3       6       2.015171        234.8621
2013    3       7       1.792758        225.8815
2013    4       0       1.745431        223.4424
2013    4       1       1.919567        230.6488
2013    4       2       1.940268        232.5087
2013    4       3       2.124851        240.3281
2013    4       4       2.224053        243.5983
2013    4       5       2.374909        247.3393
2013    4       6       2.403365        247.8387
2013    4       7       1.967725        232.9473
2013    5       0       1.383967        203.3807
2013    5       1       1.48915         208.6564
2013    5       2       1.810805        225.7963
2013    5       3       1.7937          226.7695
2013    5       4       1.645955        221.0202
2013    5       5       1.520908        213.9104
2013    5       6       1.346163        201.7252
2013    5       7       0.9351715       166.3023
2013    6       0       0.9338793       166.1516
2013    6       1       1.224054        191.7141
2013    6       2       1.172858        189.168
2013    6       3       0.9544753       169.9184
2013    6       4       0.8680579       159.6809
2013    6       5       0.8902762       161.9079
2013    6       6       0.9269837       165.2734
2013    6       7       0.7855641       148.7371
2013    7       0       0.7729308       146.7362
2013    7       1       0.9534787       165.608
2013    7       2       1.248664        191.6137
2013    7       3       1.412365        204.0688
2013    7       4       1.657133        217.5579
2013    7       5       1.523952        209.9036
2013    7       6       1.378328        200.3436
2013    7       7       1.23462         189.8566
2013    8       0       1.121353        180.5802
2013    8       1       1.209595        187.5463
2013    8       2       1.362329        199.2912
2013    8       3       1.472779        207.1259
2013    8       4       1.409441        203.0921
2013    8       5       1.304412        195.9939
2013    8       6       1.252525        191.7681
2013    8       7       1.133908        181.9729
2013    9       0       1.207493        187.1174
2013    9       1       1.163898        183.8788
2013    9       2       1.276985        192.7967
2013    9       3       1.294318        194.412
2013    9       4       1.37351         200.0217
2013    9       5       1.380116        200.5072
2013    9       6       1.387048        200.4245
2013    9       7       1.296086        194.1229
2013    10      0       1.369074        198.5459
2013    10      1       1.373958        198.7752
2013    10      2       1.488771        206.1442
2013    10      3       1.56471         211.0673
2013    10      4       1.553279        210.7419
2013    10      5       1.368753        199.276
2013    10      6       1.011034        170.8367
2013    10      7       0.952363        165.1245
2013    11      0       0.9627001       165.8402
2013    11      1       1.038369        172.6471
2013    11      2       1.131374        181.4648
2013    11      3       1.282171        194.028
2013    11      4       1.086559        178.8566
2013    11      5       0.7935776       149.303
2013    11      6       0.5977757       123.8624
2013    11      7       0.5210858       112.4062
2013    12      0       0.4536698       101.7012
2013    12      1       0.4285164       97.64633
2013    12      2       0.5355833       115.1291
2013    12      3       0.6731563       135.2026
2013    12      4       0.7150854       140.6318
2013    12      5       0.6909181       137.3216
2013    12      6       0.7625915       146.2057
2013    12      7       1.116637        181.8686
2013    13      0       1.214544        189.389
2013    13      1       1.310579        195.9959
2013    13      2       1.479103        207.5809
2013    13      3       1.471777        208.3278
2013    13      4       1.424897        205.4511
2013    13      5       1.612141        216.1985
2013    13      6       1.881596        228.6784
2013    13      7       1.818746        225.9611
2013    14      0       1.785626        223.4844
2013    14      1       1.580708        213.8488
2013    14      2       1.447808        207.1298
2013    14      3       1.357783        201.9906
2013    14      4       1.213948        192.0327
2013    14      5       1.207237        191.4601
2013    14      6       1.298338        197.655
2013    14      7       1.20849         190.0336
2013    15      0       1.046128        176.5218
2013    15      1       1.074166        179.4988
2013    15      2       1.327848        199.6248
2013    15      3       1.381983        202.0815
2013    15      4       1.354952        200.5626
2013    15      5       1.529797        213.0114
2013    15      6       1.59701         216.1765
2013    15      7       1.295037        195.2211
2013    16      0       1.244869        193.363
2013    16      1       1.286949        196.3677
2013    16      2       1.33379         200.1213
2013    16      3       1.190719        188.6311
2013    16      4       0.9885991       172.4518
2013    16      5       0.936382        166.8936
2013    16      6       0.9619979       170.064
2013    16      7       1.401389        204.4066
2013    17      0       1.486904        209.6696
2013    17      1       1.316898        198.367
2013    17      2       1.206704        191.2165
2013    17      3       1.297101        197.2356
2013    17      4       1.495358        211.4675
2013    17      5       1.762355        225.1943
2013    17      6       1.474506        210.5356
2013    17      7       1.954372        232.0718
2013    18      0       1.655126        219.1765
2013    18      1       1.600805        216.2249
2013    18      2       1.692515        221.7286
2013    18      3       1.681746        222.2792
2013    18      4       1.716101        224.5626
2013    18      5       2.11483         239.3919
2013    18      6       2.159488        239.8935
2013    18      7       1.864247        229.8856
2013    19      0       1.66022         220.5912
2013    19      1       1.685304        221.1681
2013    19      2       1.866101        230.1367
2013    19      3       2.036846        237.4573
2013    19      4       2.421605        248.0665
2013    19      5       2.384854        246.8337
2013    19      6       2.372857        246.2946
2013    19      7       2.276543        243.0709
2013    20      0       2.067322        236.4117
2013    20      1       1.831149        227.1651
2013    20      2       1.857025        229.7162
2013    20      3       2.070974        237.9441
2013    20      4       2.0052          236.0146
2013    20      5       1.828499        229.2532
2013    20      6       1.685791        221.8706
2013    20      7       1.516968        211.7204
2013    21      0       1.456745        207.828
2013    21      1       1.525146        212.2835
2013    21      2       1.769302        225.6918
2013    21      3       1.878869        230.7806
2013    21      4       1.816576        228.033
2013    21      5       1.659762        220.579
2013    21      6       1.493239        211.2074
2013    21      7       1.441171        207.3489
2013    22      0       1.379228        202.975
2013    22      1       1.359562        201.8588
2013    22      2       1.564611        215.0684
2013    22      3       1.694944        222.6555
2013    22      4       1.857625        229.5529
2013    22      5       1.788433        226.4849
2013    22      6       1.742641        224.0142
2013    22      7       1.584522        215.7888
2013    23      0       1.478832        209.7199
2013    23      1       1.57905         215.3586
2013    23      2       1.800148        226.8929
2013    23      3       2.074417        237.3488
2013    23      4       1.957468        233.7845
2013    23      5       1.836277        228.9979
2013    23      6       1.791029        226.6625
2013    23      7       1.638519        219.2144
2013    24      0       1.731554        223.3171
2013    24      1       2.08315         236.0992
2013    24      2       1.950805        232.2093
2013    24      3       1.830328        228.3671
2013    24      4       1.601131        218.0852
2013    24      5       1.542463        214.423
2013    24      6       1.602323        216.3213
2013    24      7       1.642882        217.5641
2013    25      0       1.518965        210.7363
2013    25      1       1.591147        215.0397
2013    25      2       1.745845        223.7929
2013    25      3       1.899204        231.2098
2013    25      4       2.004063        235.2302
2013    25      5       1.953081        233.1626
2013    25      6       1.752491        224.394
2013    25      7       1.668237        220.0197
2013    26      0       1.75839         223.5484
2013    26      1       1.443968        206.2231
2013    26      2       1.162094        186.2809
2013    26      3       1.088264        180.6679
2013    26      4       0.8146519       152.7065
2013    26      5       0.566444        120.0885
2013    26      6       0.4443238       100.7904
2013    26      7       0.3659805       87.01983
2013    27      0       0.2731589       69.3165
2013    27      1       0.2570438       66.17413
2013    27      2       0.3202623       78.95487
2013    27      3       0.4425505       101.122
2013    27      4       0.4641078       104.6016
2013    27      5       0.4459797       101.3506
2013    27      6       0.4568631       102.9174
2013    27      7       0.5355414       115.42
2013    28      0       0.5922663       123.8198
2013    28      1       0.6841678       136.1354
2013    28      2       0.7365963       143.3359
2013    28      3       0.7726876       147.8142
2013    28      4       0.7855975       148.8648
2013    28      5       0.925663        163.5395
2013    28      6       1.56405         213.6113
2013    28      7       1.833376        225.9233
2013    29      0       1.737312        221.0584
2013    29      1       1.78995         223.1449
2013    29      2       1.64226         217.9179
2013    29      3       1.918426        229.1169
2013    29      4       1.944292        231.9572
2013    29      5       1.696404        221.1623
2013    29      6       1.811299        225.2768
2013    29      7       1.874449        227.4179
2013    30      0       1.521446        211.167
2013    30      1       1.436756        206.1357
2013    30      2       1.437426        206.1605
2013    30      3       1.522863        212.1118
2013    30      4       1.694021        220.6343
2013    30      5       1.651022        217.5476
2013    30      6       1.609843        215.0297
2013    30      7       1.696045        219.3194
2014    1       0       1.654697        219.4357
2014    1       1       1.59299         216.1313
2014    1       2       1.785961        226.5481
2014    1       3       2.053694        237.3175
2014    1       4       2.445555        248.1254
2014    1       5       2.068355        236.1966
2014    1       6       1.893029        229.7628
2014    1       7       1.836394        227.6446
2014    2       0       1.743014        223.4988
2014    2       1       1.734208        222.7727
2014    2       2       1.888562        230.6219
2014    2       3       1.928055        233.2898
2014    2       4       1.892462        231.9643
2014    2       5       1.750927        226.0805
2014    2       6       1.909213        231.9776
2014    2       7       1.945727        232.2906
2014    3       0       1.802055        225.3646
2014    3       1       1.738011        223.1214
2014    3       2       1.817351        227.5842
2014    3       3       1.972879        233.9258
2014    3       4       1.886764        230.9798
2014    3       5       1.941723        232.9081
2014    3       6       2.095432        237.9548
2014    3       7       2.049821        236.5318
2014    4       0       2.092041        238.0042
2014    4       1       1.854922        229.1024
2014    4       2       1.888997        230.9881
2014    4       3       1.896941        231.2387
2014    4       4       1.822199        228.8325
2014    4       5       1.777183        226.9336
2014    4       6       2.021279        235.9278
2014    4       7       1.949823        232.9497
2014    5       0       1.716793        222.8155
2014    5       1       1.803974        226.8824
2014    5       2       1.77651         226.6437
2014    5       3       1.843564        230.1534
2014    5       4       1.805251        228.4958
2014    5       5       1.720981        224.636
2014    5       6       1.815066        228.2666
2014    5       7       1.903023        231.3052
2014    6       0       1.726637        223.3006
2014    6       1       1.786937        226.1793
2014    6       2       1.849766        229.7963
2014    6       3       1.947263        234.1591
2014    6       4       1.864777        230.714
2014    6       5       1.799709        227.7554
2014    6       6       1.795208        227.3698
2014    6       7       1.916978        231.7224
2014    7       0       1.849491        228.6772
2014    7       1       1.766209        225.0115
2014    7       2       1.831301        228.2947
2014    7       3       1.957448        233.6619
2014    7       4       1.878462        230.5716
2014    7       5       1.79249         227.021
2014    7       6       1.757345        225.3833
2014    7       7       1.862477        229.3949
2014    8       0       1.737819        223.4674
2014    8       1       1.786771        225.677
2014    8       2       1.989306        234.1659
2014    8       3       2.021482        235.9902
2014    8       4       1.848963        229.9587
2014    8       5       1.773866        226.9983
2014    8       6       1.86384         230.3903
2014    8       7       1.841891        229.3554
2014    9       0       1.84399         229.2064
2014    9       1       2.040653        236.4362
2014    9       2       2.0208          236.5175
2014    9       3       2.117977        240.3542
2014    9       4       2.090588        239.8242
2014    9       5       1.974148        236.2371
2014    9       6       2.264018        244.4266
2014    9       7       2.291703        244.8585
2014    10      0       2.124392        239.0678
2014    10      1       1.960558        233.615
2014    10      2       2.067062        238.5977
2014    10      3       2.236235        244.648
2014    10      4       2.451163        249.8697
2014    10      5       2.376133        246.6939
2014    10      6       2.114603        238.5133
2014    10      7       2.007175        234.5091
2014    11      0       1.86014         228.7255
2014    11      1       1.660986        219.763
2014    11      2       1.928039        232.602
2014    11      3       2.120653        240.4251
2014    11      4       2.07083         239.0411
2014    11      5       1.875201        231.9671
2014    11      6       1.915034        232.8028
2014    11      7       2.121087        239.2563
2014    12      0       1.978539        234.1137
2014    12      1       1.902734        231.5855
2014    12      2       1.970263        235.2499
2014    12      3       2.148574        242.082
2014    12      4       2.220708        244.2321
2014    12      5       2.200103        243.4014
2014    12      6       2.160728        242.0064
2014    12      7       2.08594         238.6721
2014    13      0       1.771178        225.6896
2014    13      1       1.758882        225.1773
2014    13      2       1.992761        235.7998
2014    13      3       2.116982        238.2865
2014    13      4       2.212169        243.5427
2014    13      5       2.254479        244.3461
2014    13      6       1.697272        223.3345
2014    13      7       1.72173         223.1161
2014    14      0       1.69576         221.2817
2014    14      1       1.70634         221.6439
2014    14      2       1.796125        226.6796
2014    14      3       1.919715        232.122
2014    14      4       1.878588        230.722
2014    14      5       1.795575        227.3082
2014    14      6       1.603195        216.1979
2014    14      7       1.485899        208.8169
2014    15      0       1.492531        209.0555
2014    15      1       1.525998        211.1191
2014    15      2       1.67419         219.9999
2014    15      3       1.861036        229.0646
2014    15      4       1.996424        234.3522
2014    15      5       1.927213        231.4018
2014    15      6       1.594937        216.1661
2014    15      7       1.568164        214.1919
2014    16      0       1.501276        210.0396
2014    16      1       1.513208        210.5886
2014    16      2       1.465301        208.6863
2014    16      3       1.593144        216.2629
2014    16      4       1.649068        218.9702
2014    16      5       1.678237        220.356
2014    16      6       1.860875        228.1338
2014    16      7       1.773614        223.1714
2014    17      0       1.624586        215.2447
2014    17      1       1.452855        205.5004
2014    17      2       1.423435        205.5459
2014    17      3       1.525906        213.0231
2014    17      4       1.502827        211.565
2014    17      5       1.421573        205.8094
2014    17      6       1.376035        201.7152
2014    17      7       1.398095        202.8052
2014    18      0       1.338997        199.1771
2014    18      1       1.380967        201.8761
2014    18      2       1.656088        218.7296
2014    18      3       1.656163        219.7111
2014    18      4       1.514396        212.7735
2014    18      5       1.426877        207.5213
2014    18      6       1.446963        208.5953
2014    18      7       1.410458        206.0175
2014    19      0       1.461044        208.7347
2014    19      1       1.590578        215.9772
2014    19      2       1.81562         226.9975
2014    19      3       1.699136        222.3333
2014    19      4       1.856706        229.029
2014    19      5       2.086161        237.1812
2014    19      6       2.161206        239.1917
2014    19      7       2.039043        235.254
2014    20      0       1.974309        232.4109
2014    20      1       2.056321        235.1196
2014    20      2       1.970983        233.3056
2014    20      3       1.992315        235.0888
2014    20      4       2.223068        242.1925
2014    20      5       2.302007        244.071
2014    20      6       2.033564        235.6689
2014    20      7       1.830673        227.9553
2014    21      0       2.058355        236.2375
2014    21      1       1.953215        232.1588
2014    21      2       1.989462        234.9236
2014    21      3       2.281378        242.9361
2014    21      4       2.055421        236.0256
2014    21      5       1.966769        233.2828
2014    21      6       2.130756        238.4326
2014    21      7       2.035189        234.8076
2014    22      0       2.095807        236.6771
2014    22      1       2.053789        235.1625
2014    22      2       1.962168        231.4665
2014    22      3       1.781588        224.1665
2014    22      4       1.644783        219.607
2014    22      5       1.809278        226.148
2014    22      6       1.822574        225.4745
2014    22      7       1.379617        200.4728
2014    23      0       1.043249        173.7942
2014    23      1       0.903645        160.5272
2014    23      2       0.9749121       168.7555
2014    23      3       1.308656        196.6277
2014    23      4       1.413938        203.8067
2014    23      5       1.409289        203.4356
2014    23      6       1.277573        194.7574
2014    23      7       1.260354        193.5095
2014    24      0       1.346108        199.8236
2014    24      1       1.562249        212.8455
2014    24      2       1.587993        215.3075
2014    24      3       1.640158        218.7825
2014    24      4       1.492724        211.2251
2014    24      5       1.569274        215.3419
2014    24      6       1.776238        225.0086
2014    24      7       1.495687        210.579
2014    25      0       1.398805        204.1535
2014    25      1       1.350273        200.4613
2014    25      2       1.505634        210.0618
2014    25      3       1.346129        201.1742
2014    25      4       1.353363        201.9322
2014    25      5       1.723005        222.8742
2014    25      6       1.370548        202.7004
2014    25      7       0.9861727       171.0305
2014    26      0       0.692326        137.1915
2014    26      1       0.8059393       150.5172
2014    26      2       0.9710603       168.0046
2014    26      3       0.8536513       155.9838
2014    26      4       0.7565631       144.546
2014    26      5       0.7628166       145.0574
2014    26      6       0.9331619       163.3486
2014    26      7       1.104284        178.0119
2014    27      0       0.7977266       146.7615
2014    27      1       0.6699004       131.2013
2014    27      2       0.671731        132.0057
2014    27      3       0.7389837       140.8302
2014    27      4       0.6910435       135.0902
2014    27      5       0.5031974       109.0555
2014    27      6       0.4761184       104.3197
2014    27      7       0.5043524       108.1118
2014    28      0       0.5328642       111.9268
2014    28      1       0.5862851       119.4276
2014    28      2       0.7595256       142.3709
2014    28      3       0.9678996       165.3978
2014    28      4       0.9127371       160.5578
2014    28      5       0.8430652       153.1239
2014    28      6       0.9867304       167.0765
2014    28      7       1.152748        181.8535
2014    29      0       1.099213        177.9863
2014    29      1       1.099583        178.8011
2014    29      2       1.37486         199.9868
2014    29      3       1.573504        212.2114
2014    29      4       1.702893        219.2129
2014    29      5       1.761307        222.3685
2014    29      6       1.812823        224.5119
2014    29      7       1.71338         219.3918
2014    30      0       1.570111        211.9425
2014    30      1       1.451691        205.0245
2014    30      2       1.452984        205.4862
2014    30      3       1.562526        211.5037
2014    30      4       1.309806        194.5233
2014    30      5       0.861243        153.9759
2014    30      6       0.7538333       142.005
2014    30      7       0.7726242       143.7476
2015    1       0       1.944632        232.601
2015    1       1       1.888919        229.6456
2015    1       2       1.863169        229.696
2015    1       3       1.936267        234.0024
2015    1       4       2.092234        239.2184
2015    1       5       1.831186        228.701
2015    1       6       1.693994        222.5419
2015    1       7       1.940937        232.9062
2015    2       0       1.853304        228.6507
2015    2       1       2.096388        237.017
2015    2       2       2.00942         234.6992
2015    2       3       2.25866         243.2449
2015    2       4       2.236018        243.421
2015    2       5       2.060442        237.6317
2015    2       6       1.83494         228.6198
2015    2       7       1.989123        234.2298
2015    3       0       1.9504          232.6932
2015    3       1       1.878854        230.0284
2015    3       2       1.948347        233.3443
2015    3       3       1.765474        227.0128
2015    3       4       1.786222        228.8644
2015    3       5       2.130645        241.0868
2015    3       6       2.528943        251.1097
2015    3       7       2.330294        245.0399
2015    4       0       2.190411        240.5769
2015    4       1       2.167544        239.8516
2015    4       2       2.077222        237.9905
2015    4       3       2.157292        241.4163
2015    4       4       2.266555        244.575
2015    4       5       2.297187        245.071
2015    4       6       2.301013        244.8003
2015    4       7       2.33335         245.3038
2015    5       0       2.279784        243.3443
2015    5       1       2.225999        241.3394
2015    5       2       2.176591        239.4958
2015    5       3       2.178169        240.2739
2015    5       4       2.216209        241.6877
2015    5       5       2.049498        236.7842
2015    5       6       2.180011        240.8214
2015    5       7       2.074198        237.3819
2015    6       0       1.992107        234.3596
2015    6       1       1.991463        233.6868
2015    6       2       1.811384        227.9441
2015    6       3       1.834072        229.063
2015    6       4       1.739967        224.8544
2015    6       5       1.616007        218.7098
2015    6       6       1.531575        213.3657
2015    6       7       1.383272        203.349
2015    7       0       1.350562        200.9261
2015    7       1       1.460337        208.2203
2015    7       2       1.368123        203.4448
2015    7       3       1.246811        195.3401
2015    7       4       1.185415        190.0389
2015    7       5       1.138484        186.0071
2015    7       6       0.9559355       169.1856
2015    7       7       0.8280722       154.8679
2015    8       0       0.784287        149.454
2015    8       1       0.8026253       151.5773
2015    8       2       0.8108164       152.9778
2015    8       3       0.8371379       155.9941
2015    8       4       0.7931231       150.8823
2015    8       5       0.8539214       157.9168
2015    8       6       1.083721        181.2231
2015    8       7       0.9146847       164.5002
2015    9       0       0.9424593       166.6887
2015    9       1       0.9993879       172.3349
2015    9       2       1.239656        193.0968
2015    9       3       1.374998        201.6642
2015    9       4       1.144623        184.685
2015    9       5       1.106727        182.3683
2015    9       6       1.364012        201.8959
2015    9       7       1.40317         203.9404
2015    10      0       1.417549        204.7488
2015    10      1       1.459533        207.0841
2015    10      2       1.490258        208.9077
2015    10      3       1.618141        216.0315
2015    10      4       1.635841        217.3783
2015    10      5       1.497235        210.4473
2015    10      6       1.639886        217.7281
2015    10      7       1.821188        225.8242
2015    11      0       1.780009        222.9665
2015    11      1       1.40487         203.1361
2015    11      2       1.559935        212.2129
2015    11      3       1.666982        218.1283
2015    11      4       1.604931        214.9848
2015    11      5       1.44066         205.8667
2015    11      6       1.456948        206.4101
2015    11      7       1.604511        214.3005
2015    12      0       1.738396        220.8843
2015    12      1       1.675866        218.1774
2015    12      2       1.65995         217.9231
2015    12      3       1.799501        225.6082
2015    12      4       1.950593        231.4674
2015    12      5       1.683767        219.6891
2015    12      6       1.75337         221.5555
2015    12      7       1.500423        208.54
2015    13      0       1.289176        195.1962
2015    13      1       1.328265        197.8917
2015    13      2       1.468429        206.9249
2015    13      3       1.510942        210.2094
2015    13      4       1.518141        210.5794
2015    13      5       1.323726        198.1116
2015    13      6       1.315969        196.5218
2015    13      7       1.241402        191.0765
2015    14      0       1.255939        192.1978
2015    14      1       1.295356        195.0243
2015    14      2       1.410505        203.1383
2015    14      3       1.396698        203.2953
2015    14      4       1.465255        207.6631
2015    14      5       1.435497        205.7757
2015    14      6       1.592706        214.7
2015    14      7       1.459367        207.5327
2015    15      0       1.485015        208.0382
2015    15      1       1.753098        221.3205
2015    15      2       1.694129        218.6475
2015    15      3       1.7626          222.3366
2015    15      4       1.879444        227.7997
2015    15      5       1.759084        222.9937
2015    15      6       1.390346        202.8912
2015    15      7       1.319019        197.4688
2015    16      0       1.170114        186.2132
2015    16      1       1.239364        191.1285
2015    16      2       1.465699        206.3858
2015    16      3       1.576           213.089
2015    16      4       1.634314        216.8428
2015    16      5       1.587619        215.0875
2015    16      6       1.837485        226.3822
2015    16      7       1.430893        205.7977
2015    17      0       1.064801        178.3698
2015    17      1       1.184298        187.7876
2015    17      2       1.570377        213.624
2015    17      3       1.542885        213.8657
2015    17      4       1.556387        214.8222
2015    17      5       1.639163        219.2137
2015    17      6       1.915903        230.2014
2015    17      7       1.151358        186.0388
2015    18      0       1.171629        187.4465
2015    18      1       1.245108        192.4574
2015    18      2       1.484401        208.7989
2015    18      3       1.527074        212.3222
2015    18      4       1.649743        218.6928
2015    18      5       1.59518         215.6915
2015    18      6       1.733119        222.0752
2015    18      7       1.736577        222.0541
2015    19      0       1.673856        218.4822
2015    19      1       1.535436        210.367
2015    19      2       1.442502        205.6347
2015    19      3       1.394868        203.8642
2015    19      4       1.553651        212.8963
2015    19      5       1.54543         212.1522
2015    19      6       1.498458        209.4555
2015    19      7       1.589739        214.2192
2015    20      0       1.494681        209.0531
2015    20      1       1.602015        214.4725
2015    20      2       1.662878        217.5675
2015    20      3       1.85734         227.2512
2015    20      4       1.825601        226.4203
2015    20      5       1.70173         220.9165
2015    20      6       1.611157        216.2331
2015    20      7       1.664549        219.4317
2015    21      0       1.813574        225.5297
2015    21      1       1.530824        210.9859
2015    21      2       1.919992        229.5945
2015    21      3       2.120904        237.3182
2015    21      4       2.00544         234.0959
2015    21      5       1.836087        227.6101
2015    21      6       1.763956        224.0401
2015    21      7       1.729342        222.0342
2015    22      0       1.57912         214.6851
2015    22      1       1.61371         216.6831
2015    22      2       1.807156        226.4862
2015    22      3       1.849572        228.8462
2015    22      4       1.707178        222.9274
2015    22      5       1.71205         223.7874
2015    22      6       2.293923        244.6063
2015    22      7       2.098013        237.3501
2015    23      0       1.619107        217.7232
2015    23      1       1.417222        205.702
2015    23      2       1.608976        217.1977
2015    23      3       1.568912        215.407
2015    23      4       1.566263        215.6123
2015    23      5       1.913328        231.2324
2015    23      6       2.109937        238.0173
2015    23      7       1.72777         224.3083
2015    24      0       1.510594        212.954
2015    24      1       1.358641        203.4525
2015    24      2       1.393738        206.5716
2015    24      3       1.559624        217.2258
2015    24      4       1.381234        206.7954
2015    24      5       1.254712        197.4857
2015    24      6       1.646291        222.5607
2015    24      7       1.177004        190.8905
2015    25      0       0.7739163       149.4072
2015    25      1       1.0907          183.153
2015    25      2       1.198304        193.3454
2015    25      3       1.191862        192.5318
2015    25      4       1.237008        195.5233
2015    25      5       1.356683        204.815
2015    25      6       1.389382        206.209
2015    25      7       1.231037        194.5695
2015    26      0       1.224604        193.6486
2015    26      1       1.247808        195.1434
2015    26      2       1.330453        202.0051
2015    26      3       1.192224        191.143
2015    26      4       1.128837        186.2757
2015    26      5       1.232284        194.8153
2015    26      6       1.360695        203.8357
2015    26      7       1.349404        202.0972
2015    27      0       1.231647        193.2853
2015    27      1       1.245552        194.0711
2015    27      2       1.255317        195.3292
2015    27      3       1.259479        196.1261
2015    27      4       1.210154        192.1357
2015    27      5       1.257874        195.7085
2015    27      6       1.097284        182.2407
2015    27      7       1.04054         176.4562
2015    28      0       0.9577087       168.3128
2015    28      1       0.8868516       160.9935
2015    28      2       0.8112826       152.6719
2015    28      3       0.7554541       145.9017
2015    28      4       0.866158        158.4381
2015    28      5       1.026295        175.0142
2015    28      6       1.000146        172.6668
2015    28      7       0.9037581       162.7872
2015    29      0       0.8836756       160.9125
2015    29      1       0.7552344       146.0673
2015    29      2       0.6743396       136.2068
2015    29      3       0.660172        134.4664
2015    29      4       0.6301508       130.1894
2015    29      5       0.606613        126.6918
2015    29      6       0.7109141       141.6242
2015    29      7       0.8280115       155.8501
2015    30      0       0.8795233       161.2623
2015    30      1       0.8356962       155.9779
2015    30      2       0.8073987       152.9214
2015    30      3       0.8434241       157.0979
2015    30      4       0.893609        162.2721
2015    30      5       0.8975721       162.635
2015    30      6       1.064677        179.9779
2015    30      7       1.406567        206.0865
2016    1       0       1.85678         228.8814
2016    1       1       1.82491         226.8798
2016    1       2       1.778461        225.2668
2016    1       3       1.801585        226.5706
2016    1       4       1.699706        222.2675
2016    1       5       1.618711        218.3515
2016    1       6       1.635051        218.9408
2016    1       7       1.85435         229.085
2016    2       0       1.705395        221.8222
2016    2       1       1.664251        220.2465
2016    2       2       1.841579        229.0882
2016    2       3       2.014966        236.6358
2016    2       4       2.209837        242.1211
2016    2       5       2.003029        234.4708
2016    2       6       1.789738        225.7779
2016    2       7       1.668751        219.9658
2016    3       0       1.603257        216.6931
2016    3       1       1.70672         221.629
2016    3       2       1.931089        231.9026
2016    3       3       2.164135        240.2087
2016    3       4       2.222109        242.3214
2016    3       5       1.795847        227.7715
2016    3       6       1.863428        230.0711
2016    3       7       1.570447        214.5307
2016    4       0       1.468499        208.4584
2016    4       1       1.656678        218.8305
2016    4       2       1.903463        230.5533
2016    4       3       2.02775         236.3037
2016    4       4       2.323966        245.4574
2016    4       5       2.255496        243.2603
2016    4       6       2.00047         233.8623
2016    4       7       1.651166        217.3353
2016    5       0       1.142977        183.4878
2016    5       1       1.150053        184.5057
2016    5       2       1.43088         205.5216
2016    5       3       1.654121        218.7395
2016    5       4       1.710166        221.5417
2016    5       5       1.623689        217.5297
2016    5       6       2.042948        234.9173
2016    5       7       2.047788        235.1687
2016    6       0       1.589639        214.8922
2016    6       1       1.358796        201.288
2016    6       2       1.682577        219.9881
2016    6       3       1.892157        230.5376
2016    6       4       1.998189        234.5522
2016    6       5       1.725057        223.6603
2016    6       6       1.981836        233.2158
2016    6       7       1.943001        230.88
2016    7       0       1.369096        200.8979
2016    7       1       1.17562         186.6866
2016    7       2       1.623078        216.0893
2016    7       3       2.026302        233.8377
2016    7       4       2.11259         237.5035
2016    7       5       1.900133        230.3079
2016    7       6       2.026254        234.5887
2016    7       7       1.752441        222.4996
2016    8       0       1.084972        179.046
2016    8       1       1.152735        184.5288
2016    8       2       1.509033        209.7714
2016    8       3       1.816761        225.6593
2016    8       4       1.870892        228.6989
2016    8       5       1.677348        219.8397
2016    8       6       1.207472        189.4754
2016    8       7       1.050676        175.3979
2016    9       0       0.8786745       158.4265
2016    9       1       0.8019292       150.1727
2016    9       2       0.8790339       159.0137
2016    9       3       1.089647        179.3603
2016    9       4       0.9694456       168.6189
2016    9       5       0.8196717       152.2996
2016    9       6       0.7206158       139.7456
2016    9       7       0.5869268       121.8561
2016    10      0       0.484087        106.3864
2016    10      1       0.4771152       105.4511
2016    10      2       0.6304824       128.2979
2016    10      3       0.8003918       150.0756
2016    10      4       0.8090637       151.4332
2016    10      5       0.7383568       143.5622
2016    10      6       0.7988357       150.3899
2016    10      7       0.9048467       162.7613
2016    11      0       1.035712        175.3334
2016    11      1       1.311553        196.9855
2016    11      2       1.544866        212.295
2016    11      3       1.815075        226.4376
2016    11      4       1.65979         219.1971
2016    11      5       1.614282        216.1026
2016    11      6       1.875471        228.0638
2016    11      7       1.715929        220.7116
2016    12      0       1.382354        201.5172
2016    12      1       1.492653        207.421
2016    12      2       1.544107        210.7257
2016    12      3       1.75619         221.2519
2016    12      4       1.681892        218.6862
2016    12      5       1.790903        223.8775
2016    12      6       1.789444        223.7249
2016    12      7       1.690477        218.8728
2016    13      0       1.321497        198.1233
2016    13      1       1.472466        206.9153
2016    13      2       1.8218          224.5512
2016    13      3       1.856703        227.2338
2016    13      4       1.919139        229.935
2016    13      5       1.916126        229.8774
2016    13      6       1.97462         232.4505
2016    13      7       1.909063        229.6457
2016    14      0       1.837929        226.2683
2016    14      1       1.699566        220.2893
2016    14      2       1.802248        225.7924
2016    14      3       1.894439        231.0337
2016    14      4       2.214435        241.6313
2016    14      5       2.162774        239.5566
2016    14      6       2.143756        238.6913
2016    14      7       1.988347        232.8869
2016    15      0       1.77129         224.1873
2016    15      1       1.484354        210.2137
2016    15      2       1.603756        217.883
2016    15      3       1.688395        222.7516
2016    15      4       1.781026        226.6966
2016    15      5       1.772462        226.3394
2016    15      6       2.057328        236.9371
2016    15      7       2.06854         237.2519
2016    16      0       1.814788        227.4465
2016    16      1       1.785264        225.6886
2016    16      2       1.973102        233.0404
2016    16      3       2.0083          234.889
2016    16      4       1.995953        234.6363
2016    16      5       2.034232        235.8909
2016    16      6       2.16035         238.954
2016    16      7       2.084148        236.2748
2016    17      0       1.907912        229.5349
2016    17      1       1.645712        217.842
2016    17      2       1.78189         224.3154
2016    17      3       2.090763        236.5366
2016    17      4       1.985186        233.8022
2016    17      5       2.100208        237.6887
2016    17      6       2.052325        235.4612
2016    17      7       1.897249        229.1021
2016    18      0       1.584313        213.9831
2016    18      1       1.419392        203.8653
2016    18      2       1.525076        210.8198
2016    18      3       1.601689        215.8307
2016    18      4       1.581062        214.2528
2016    18      5       1.342135        199.3902
2016    18      6       1.258836        193.1854
2016    18      7       1.278111        194.0807
2016    19      0       1.258901        192.208
2016    19      1       1.011535        172.38
2016    19      2       1.036773        175.3959
2016    19      3       1.072353        179.1289
2016    19      4       1.042388        176.1049
2016    19      5       0.98399         170.2576
2016    19      6       0.8664512       157.4529
2016    19      7       0.701036        137.3907
2016    20      0       0.6158101       126.0163
2016    20      1       0.5704024       119.4837
2016    20      2       0.6419279       130.0389
2016    20      3       0.7310327       142.4853
2016    20      4       0.7730378       147.5316
2016    20      5       0.7809694       148.1256
2016    20      6       0.826171        152.9407
2016    20      7       0.9922661       170.4498
2016    21      0       1.266741        193.3998
2016    21      1       1.605191        214.537
2016    21      2       1.857105        226.2428
2016    21      3       1.932106        229.7551
2016    21      4       1.807188        225.2335
2016    21      5       1.709583        220.9636
2016    21      6       1.622901        217.2299
2016    21      7       1.718277        222.2555
2016    22      0       1.708692        221.1238
2016    22      1       1.774016        222.6697
2016    22      2       1.839631        225.7384
2016    22      3       1.890871        229.0097
2016    22      4       2.101399        236.8957
2016    22      5       2.025573        234.4768
2016    22      6       1.702651        220.6544
2016    22      7       1.366385        201.6694
2016    23      0       1.134031        183.8717
2016    23      1       1.311542        196.9918
2016    23      2       1.462804        207.7034
2016    23      3       1.455446        207.6599
2016    23      4       1.37244         202.2784
2016    23      5       1.609457        215.9211
2016    23      6       1.65191         217.8833
2016    23      7       1.235441        191.9297
2016    24      0       1.142798        183.869
2016    24      1       1.271341        192.9377
2016    24      2       1.544735        210.665
2016    24      3       1.781032        223.7449
2016    24      4       1.865232        227.7585
2016    24      5       1.607681        215.91
2016    24      6       1.489829        209.1193
2016    24      7       1.534845        210.9597
2016    25      0       1.615766        214.5328
2016    25      1       1.820558        224.2625
2016    25      2       2.014411        232.0045
2016    25      3       2.093742        236.106
2016    25      4       2.001601        233.4057
2016    25      5       1.753301        223.8866
2016    25      6       1.706993        220.6082
2016    25      7       1.881156        227.8199
2016    26      0       1.559908        212.4311
2016    26      1       1.49242         208.4208
2016    26      2       1.56049         212.8736
2016    26      3       1.614666        215.7991
2016    26      4       1.370597        202.5994
2016    26      5       1.421015        205.9896
2016    26      6       1.461247        207.9593
2016    26      7       1.513255        210.4635
2016    27      0       1.430501        205.3982
2016    27      1       1.323217        197.903
2016    27      2       1.385978        202.494
2016    27      3       1.427804        206.1511
2016    27      4       1.399901        205.0216
2016    27      5       1.548763        214.0782
2016    27      6       1.636006        218.9046
2016    27      7       1.469018        209.2154
2016    28      0       1.298416        197.5837
2016    28      1       1.250721        193.8726
2016    28      2       1.434477        206.7303
2016    28      3       1.473814        209.4584
2016    28      4       1.490088        209.8537
2016    28      5       1.605851        215.9865
2016    28      6       1.862039        227.838
2016    28      7       1.991787        232.5449
2016    29      0       1.684014        219.3198
2016    29      1       1.459333        207.193
2016    29      2       1.592061        215.0485
2016    29      3       1.647134        218.6408
2016    29      4       1.515878        211.7962
2016    29      5       1.360896        201.471
2016    29      6       1.207788        190.6158
2016    29      7       1.276431        195.1196
2016    30      0       1.173978        187.2082
2016    30      1       1.120281        182.0589
2016    30      2       1.272415        193.7061
2016    30      3       1.320959        197.8272
2016    30      4       1.289965        195.4698
2016    30      5       1.016746        172.8473
2016    30      6       0.7688527       146.2127
2016    30      7       0.6501513       131.2031
2017    1       0       1.792372        224.3433
2017    1       1       1.831996        226.3365
2017    1       2       1.830587        228.1627
2017    1       3       1.883148        231.475
2017    1       4       1.976083        235.2929
2017    1       5       1.79856         227.9278
2017    1       6       1.987202        234.5957
2017    1       7       1.661139        220.5612
2017    2       0       1.698167        221.8238
2017    2       1       1.975573        233.3788
2017    2       2       2.040385        236.4973
2017    2       3       2.21192         242.7731
2017    2       4       2.368602        246.7804
2017    2       5       2.048441        237.3761
2017    2       6       2.173639        241.2527
2017    2       7       1.906001        230.0124
2017    3       0       1.656714        219.2569
2017    3       1       1.80787         226.4818
2017    3       2       2.052513        236.7466
2017    3       3       2.081674        238.8939
2017    3       4       1.982818        235.8196
2017    3       5       1.914153        232.9281
2017    3       6       1.798369        227.674
2017    3       7       1.674149        220.931
2017    4       0       1.544938        213.6599
2017    4       1       1.708371        221.8365
2017    4       2       1.822915        227.4488
2017    4       3       1.998959        235.5245
2017    4       4       2.024373        236.3213
2017    4       5       2.04877         236.566
2017    4       6       2.047083        235.1611
2017    4       7       1.464808        206.4502
2017    5       0       1.09006         178.8881
2017    5       1       1.020988        173.2061
2017    5       2       1.192948        189.0494
2017    5       3       1.387843        204.4331
2017    5       4       1.532272        213.0068
2017    5       5       1.369875        203.4094
2017    5       6       1.314072        199.4773
2017    5       7       1.46745         208.9619
2017    6       0       1.444101        207.4331
2017    6       1       1.526563        212.5118
2017    6       2       1.760326        225.4749
2017    6       3       1.902524        231.8024
2017    6       4       1.931029        233.167
2017    6       5       1.782903        227.6762
2017    6       6       1.715276        224.2895
2017    6       7       1.311005        199.9994
2017    7       0       1.047301        178.2988
2017    7       1       1.031445        176.3357
2017    7       2       1.169288        189.6902
2017    7       3       1.588951        218.2381
2017    7       4       1.635475        221.0433
2017    7       5       1.548325        216.6519
2017    7       6       1.559091        216.773
2017    7       7       1.431526        208.3753
2017    8       0       1.353448        202.8906
2017    8       1       1.303952        199.4472
2017    8       2       1.691011        222.896
2017    8       3       1.74718         226.5016
2017    8       4       1.623038        220.7945
2017    8       5       1.806998        229.1083
2017    8       6       1.870712        230.6253
2017    8       7       1.531523        213.5076
2017    9       0       1.319281        199.5845
2017    9       1       1.16406         187.4378
2017    9       2       1.372794        202.1367
2017    9       3       1.297714        196.8487
2017    9       4       0.9022542       161.4172
2017    9       5       0.5951494       123.1721
2017    9       6       0.4287215       97.03362
2017    9       7       0.3763359       88.24486
2017    10      0       0.3363067       80.96765
2017    10      1       0.3667498       86.39509
2017    10      2       0.4370126       98.71739
2017    10      3       0.6354767       128.2611
2017    10      4       0.6573028       130.899
2017    10      5       0.6572912       130.3883
2017    10      6       0.8459781       152.8192
2017    10      7       1.066746        175.1423
2017    11      0       1.180315        185.9911
2017    11      1       1.220122        189.6709
2017    11      2       1.388446        202.6384
2017    11      3       1.612653        216.2179
2017    11      4       1.57035         214.6902
2017    11      5       1.60957         216.6273
2017    11      6       1.584923        215.5774
2017    11      7       1.478           209.7599
2017    12      0       1.483447        209.8914
2017    12      1       1.288279        196.6465
2017    12      2       1.498176        210.0553
2017    12      3       1.817354        225.9481
2017    12      4       1.863989        228.4285
2017    12      5       1.798837        225.8832
2017    12      6       1.754299        224.1525
2017    12      7       1.745371        223.1306
2017    13      0       1.695658        220.038
2017    13      1       1.767709        222.6196
2017    13      2       1.789246        224.0324
2017    13      3       1.84703         227.4283
2017    13      4       1.975173        232.9272
2017    13      5       1.998291        233.6671
2017    13      6       1.889199        229.4321
2017    13      7       1.756523        223.3778
2017    14      0       1.272377        195.9041
2017    14      1       1.139954        184.8301
2017    14      2       1.371276        202.0451
2017    14      3       1.646078        218.3464
2017    14      4       1.712994        222.2606
2017    14      5       1.761547        224.3872
2017    14      6       1.580319        215.7245
2017    14      7       1.657054        219.5023
2017    15      0       1.616016        217.3893
2017    15      1       1.718657        222.1766
2017    15      2       1.775977        225.0644
2017    15      3       1.826679        227.7377
2017    15      4       1.798582        226.6407
2017    15      5       1.798021        226.9116
2017    15      6       1.967073        232.6572
2017    15      7       1.66253         219.1649
2017    16      0       1.489235        209.9752
2017    16      1       1.579487        214.6354
2017    16      2       1.681117        220.372
2017    16      3       1.558251        214.7442
2017    16      4       1.434689        207.8496
2017    16      5       1.419082        206.6879
2017    16      6       1.510054        211.5824
2017    16      7       1.492018        210.1426
2017    17      0       1.376244        202.8936
2017    17      1       1.349186        201.2808
2017    17      2       1.560939        213.824
2017    17      3       1.568607        214.5047
2017    17      4       1.447767        207.8067
2017    17      5       1.419627        206.2643
2017    17      6       1.576425        215.2244
2017    17      7       1.5817          215.2514
2017    18      0       1.590673        215.5453
2017    18      1       1.453174        207.5884
2017    18      2       1.51214         212.4082
2017    18      3       1.583938        217.1177
2017    18      4       1.680942        221.7615
2017    18      5       1.734756        224.0622
2017    18      6       1.667624        220.5038
2017    18      7       1.728206        222.6991
2017    19      0       1.887339        229.2314
2017    19      1       1.848748        227.0933
2017    19      2       1.813653        226.3909
2017    19      3       1.989778        233.8645
2017    19      4       1.985506        233.827
2017    19      5       1.934862        231.9281
2017    19      6       1.837017        227.9458
2017    19      7       1.645615        218.6641
2017    20      0       1.435911        206.431
2017    20      1       1.499494        210.2713
2017    20      2       1.741277        223.0347
2017    20      3       1.828424        227.5897
2017    20      4       2.032426        235.4854
2017    20      5       2.160807        239.4609
2017    20      6       1.782174        225.0025
2017    20      7       1.657409        218.2515
2017    21      0       1.497926        209.4612
2017    21      1       1.470309        208.2865
2017    21      2       1.679259        220.5304
2017    21      3       1.730705        223.8398
2017    21      4       1.874748        229.9123
2017    21      5       2.0315          235.5814
2017    21      6       1.937675        231.4852
2017    21      7       1.486943        209.2237
2017    22      0       1.370172        202.237
2017    22      1       1.491149        209.6972
2017    22      2       1.601772        216.1745
2017    22      3       1.770673        224.7227
2017    22      4       1.709674        222.0494
2017    22      5       1.487346        210.6201
2017    22      6       1.475901        210.3016
2017    22      7       1.452478        207.9966
2017    23      0       1.146711        186.0218
2017    23      1       1.120825        183.855
2017    23      2       1.44897         207.9154
2017    23      3       1.646986        218.6758
2017    23      4       1.423102        206.7031
2017    23      5       1.286431        197.8157
2017    23      6       1.44695         207.8925
2017    23      7       1.463488        208.5723
2017    24      0       1.372854        202.4047
2017    24      1       1.473591        208.1155
2017    24      2       1.616598        216.2202
2017    24      3       1.658196        218.9779
2017    24      4       1.37883         203.1377
2017    24      5       1.163098        187.0088
2017    24      6       0.9986989       172.1004
2017    24      7       0.9939657       171.6338
2017    25      0       1.016189        174.0016
2017    25      1       1.054163        177.4126
2017    25      2       1.244056        193.7782
2017    25      3       1.482521        209.6859
2017    25      4       1.432459        207.0899
2017    25      5       1.238185        194.3579
2017    25      6       1.293798        198.0125
2017    25      7       1.386264        203.7402
2017    26      0       1.247141        194.2949
2017    26      1       1.270846        195.2089
2017    26      2       1.341945        200.6565
2017    26      3       1.509738        211.5203
2017    26      4       1.374579        203.6414
2017    26      5       1.15107         187.1582
2017    26      6       1.214122        191.8795
2017    26      7       1.219213        192.107
2017    27      0       1.224024        192.7042
2017    27      1       1.215521        191.1053
2017    27      2       1.426965        205.9953
2017    27      3       1.616497        217.2558
2017    27      4       1.600496        216.5301
2017    27      5       1.439155        207.6667
2017    27      6       1.474687        209.657
2017    27      7       1.628215        217.4671
2017    28      0       1.34893         200.9975
2017    28      1       1.306778        197.6225
2017    28      2       1.717494        221.3946
2017    28      3       2.032531        234.3441
2017    28      4       1.809003        226.3506
2017    28      5       1.752469        225.2843
2017    28      6       2.019487        235.1467
2017    28      7       1.864236        228.7582
2017    29      0       1.537947        212.7275
2017    29      1       1.640971        217.6361
2017    29      2       1.849258        228.1478
2017    29      3       2.099925        237.4538
2017    29      4       1.991272        234.0212
2017    29      5       1.872465        229.5109
2017    29      6       1.958486        232.7616
2017    29      7       1.724958        222.5499
2017    30      0       1.778983        224.2854
2017    30      1       1.938693        230.2439
2017    30      2       1.921553        230.3391
2017    30      3       1.670715        220.2433
2017    30      4       1.595989        216.6089
2017    30      5       1.629451        218.5715
2017    30      6       1.715318        221.8874
2017    30      7       1.697588        220.382
