####################################################################################################
# Month: 03Mar                                                                                     #
# Station: ALMA                                                                                    #
# Frequency: 345 GHz                                                                               #
# Columns are: year    day     tau     Tb (K)                                                      #
####################################################################################################
2009    1       0.55013545      113.3822375
2009    2       0.51613222      108.2309825
2009    3       0.83139724      149.6341625
2009    4       0.51164526      107.5797925
2009    5       0.4399709       97.39510125
2009    6       0.29496588      70.8210275
2009    7       0.39651936      89.50407625
2009    8       0.41128334      91.29714125
2009    9       0.1240606       36.21661
2009    10      0.05450831      19.67581375
2009    11      0.05908293      20.73967625
2009    12      0.1494159       41.17842125
2009    13      0.30008762      70.712795
2009    14      0.15787305      42.55684625
2009    15      0.2009809       52.33402375
2009    16      0.22086261      56.4361
2009    17      0.18222352      47.1715275
2009    18      0.37632014      84.4169025
2009    19      0.3346964       77.57037125
2009    20      0.49032135      101.88701375
2009    21      0.39103755      87.1032875
2009    22      0.18234001      48.7968325
2009    23      0.15594281      43.32465875
2009    24      0.13900592      39.49757125
2009    25      0.16121415      44.61499375
2009    26      0.08949349      28.11162375
2009    27      0.05440645      19.65025125
2009    28      0.06926602      23.1841775
2009    29      0.08432748      26.89430625
2009    30      0.12549356      36.606715
2009    31      0.17031961      45.94183125
2010    1       0.31632238      76.42386875
2010    2       0.1660446       46.0915525
2010    3       0.07511231      24.986555
2010    4       0.08292442      26.729765
2010    5       0.09472093      28.82956
2010    6       0.19159078      50.63740625
2010    7       0.29330521      70.95827875
2010    8       0.28170208      69.34912375
2010    9       0.342863        80.866625
2010    10      0.26406162      66.2751575
2010    11      0.15539132      43.66035125
2010    12      0.13566972      39.07918
2010    13      0.10100047      31.07662
2010    14      0.08958783      28.2700525
2010    15      0.09816749      30.453885
2010    16      0.21605621      56.41532625
2010    17      0.170395        47.01033625
2010    18      0.18495891      49.7290225
2010    19      0.36999444      86.3637425
2010    20      0.20981721      54.9498275
2010    21      0.0960648       29.53536625
2010    22      0.09807235      29.85744625
2010    23      0.07372565      24.3123675
2010    24      0.06227858      21.63362875
2010    25      0.1252948       36.11312375
2010    26      0.17876538      48.44971
2010    27      0.1853384       49.72335
2010    28      0.157492        42.947045
2010    29      0.15216191      42.23839875
2010    30      0.36977656      82.07244625
2010    31      0.23962862      58.61714625
2011    1       0.38949598      86.89154375
2011    2       0.57077292      117.8508125
2011    3       0.62019218      124.1390125
2011    4       0.63767404      125.312775
2011    5       0.79987652      145.5578875
2011    6       0.50316586      106.873015
2011    7       0.31083384      74.08759625
2011    8       0.281825        66.5234025
2011    9       0.37774418      85.6860725
2011    10      0.10228003      31.21802
2011    11      0.11514217      34.39235625
2011    12      0.13659363      39.28237625
2011    13      0.10951366      32.92378375
2011    14      0.15793764      43.49617875
2011    15      0.3789258       86.05624375
2011    16      0.42758821      95.05910625
2011    17      0.08574858      27.05609
2011    18      0.1188689       34.820685
2011    19      0.11271528      33.5693625
2011    20      0.06894782      23.322535
2011    21      0.05260586      19.2009175
2011    22      0.13167298      37.9809325
2011    23      0.18061646      48.65419125
2011    24      0.26721436      66.39832
2011    25      0.23430532      59.48150125
2011    26      0.15019945      42.17086
2011    27      0.26839015      66.91278375
2011    28      0.11895235      35.020675
2011    29      0.0889229       27.72195625
2011    30      0.12768915      36.25752125
2011    31      0.16327016      44.63441125
2012    1       0.44709476      94.19371875
2012    2       0.63835886      126.1319875
2012    3       0.76573815      141.8671625
2012    4       0.63421614      126.7845625
2012    5       0.28066876      68.81356125
2012    6       0.43431514      93.9282775
2012    7       0.45948786      99.99714125
2012    8       0.49591134      103.37420625
2012    9       0.39238721      86.48455375
2012    10      0.59507822      119.15816125
2012    11      0.65737286      127.3614125
2012    12      0.54109091      111.4673
2012    13      0.33456602      78.6918125
2012    14      0.33322136      78.40285875
2012    15      0.47851855      102.46868625
2012    16      0.22036736      57.02300375
2012    17      0.17674208      47.13003875
2012    18      0.25441215      63.0576275
2012    19      0.11692751      34.52637375
2012    20      0.11956502      34.99187625
2012    21      0.12553225      36.528655
2012    22      0.1533751       42.58678
2012    23      0.09205871      28.79783125
2012    24      0.14575226      41.0000025
2012    25      0.15342308      42.57703625
2012    26      0.11762704      34.59654375
2012    27      0.12314466      35.38998875
2012    28      0.20403901      53.20149125
2012    29      0.21639108      55.32203875
2012    30      0.33839162      78.8121725
2012    31      0.2712591       66.72797875
2013    1       0.29294411      70.6617925
2013    2       0.43048633      94.789475
2013    3       0.51008306      108.9160975
2013    4       0.36842404      85.161215
2013    5       0.25831749      64.45942375
2013    6       0.15856875      43.764025
2013    7       0.45327119      97.1648175
2013    8       0.87042501      153.4499
2013    9       0.61526684      123.048275
2013    10      0.2222953       57.100975
2013    11      0.07306126      24.435685
2013    12      0.06690608      22.80759375
2013    13      0.06044894      21.1271
2013    14      0.09338042      28.93162625
2013    15      0.10391547      31.1697925
2013    16      0.10025253      30.18543125
2013    17      0.15206181      41.86825875
2013    18      0.17911376      47.91956125
2013    19      0.11454507      33.730225
2013    20      0.11218873      32.5926825
2013    21      0.20478249      52.6833075
2013    22      0.20232534      52.29456625
2013    23      0.06144525      21.342095
2013    24      0.0602032       20.92575125
2013    25      0.08794506      27.46472625
2013    26      0.1761795       46.51821875
2013    27      0.18384465      48.31725
2013    28      0.08862078      27.89166625
2013    29      0.06660808      22.6340725
2013    30      0.05170996      18.92452375
2013    31      0.05889591      20.47796625
2014    1       0.20181116      52.55245375
2014    2       0.18675119      48.96963125
2014    3       0.0948694       28.918335
2014    4       0.08575406      26.9314475
2014    5       0.07895253      25.04535625
2014    6       0.12013819      34.53700375
2014    7       0.14935896      40.94665625
2014    8       0.18393738      48.9198
2014    9       0.21227889      54.360325
2014    10      0.17559398      46.54111625
2014    11      0.09033056      28.15459625
2014    12      0.04904178      18.40075
2014    13      0.06478013      22.338905
2014    14      0.07311366      24.29138
2014    15      0.06470808      22.085135
2014    16      0.08034743      26.0295625
2014    17      0.10810438      32.1777275
2014    18      0.19664122      52.03263625
2014    19      0.0590237       20.8288125
2014    20      0.07678068      25.10572125
2014    21      0.09762773      29.974425
2014    22      0.14717642      41.0302775
2014    23      0.18671581      49.70333875
2014    24      0.07923842      25.591975
2014    25      0.06992738      23.25551625
2014    26      0.1062421       31.67231375
2014    27      0.08770354      27.5235275
2014    28      0.17447448      45.741205
2014    29      0.17116126      45.76791
2014    30      0.10512304      31.4835275
2014    31      0.07026499      23.4465675
2015    1       0.13686535      39.220215
2015    2       0.12916917      37.46579375
2015    3       0.07800006      25.65296625
2015    4       0.25522229      64.16996125
2015    5       0.20765414      54.08011
2015    6       0.28718369      70.37379
2015    7       0.34583241      80.16130625
2015    8       0.4115768       92.0309525
2015    9       0.44551634      98.0690325
2015    10      0.48219521      104.6338775
2015    11      0.47716164      103.66463875
2015    12      0.43944673      97.1815775
2015    13      0.42639098      95.58789125
2015    14      0.36959058      85.21718625
2015    15      0.31230399      74.1615425
2015    16      0.50592941      105.46413125
2015    17      0.67126024      130.103125
2015    18      0.86940241      153.4312875
2015    19      0.87499461      154.3803625
2015    20      0.37926841      86.09787125
2015    21      0.49593157      105.17326
2015    22      0.2687852       62.72230875
2015    23      0.21463906      53.19424625
2015    24      0.71130872      133.603825
2015    25      0.45452138      97.65426125
2015    26      0.153764        42.04488
2015    27      0.08052403      25.8652075
2015    28      0.06084468      21.0910225
2015    29      0.06488395      22.12402125
2015    30      0.07943185      25.6846175
2015    31      0.07456661      24.53773125
2016    1       0.12479916      36.24644625
2016    2       0.14649119      41.3180875
2016    3       0.13688569      39.00037125
2016    4       0.16647692      45.54452375
2016    5       0.10900429      32.6613625
2016    6       0.17725259      47.71822375
2016    7       0.15499072      42.6768575
2016    8       0.11889499      34.36577375
2016    9       0.07950707      25.99358625
2016    10      0.0863207       27.6022175
2016    11      0.09603489      29.65487375
2016    12      0.10859298      32.57891
2016    13      0.0823788       26.1747025
2016    14      0.09056779      27.93661625
2016    15      0.23831994      59.6544875
2016    16      0.35359811      80.56170625
2016    17      0.2848778       68.82794
2016    18      0.28826401      69.24429375
2016    19      0.33709776      78.99493375
2016    20      0.14763885      41.2770375
2016    21      0.12361938      35.70534125
2016    22      0.13686816      38.73302625
2016    23      0.24834271      61.65442375
2016    24      0.06049969      21.2260925
2016    25      0.06610138      22.46329375
2016    26      0.13766583      38.61611125
2016    27      0.1134874       33.6995
2016    28      0.10852853      32.25086125
2016    29      0.1464269       40.437705
2016    30      0.11878732      34.7617575
2016    31      0.16854829      45.20512
2017    1       0.31903039      73.35818625
2017    2       0.85102269      152.6097625
2017    3       0.6926294       134.179975
2017    4       0.15547181      43.161045
2017    5       0.24918819      62.87411625
2017    6       0.39349886      89.28406125
2017    7       0.63558501      127.25075
2017    8       0.55232102      114.32788875
2017    9       0.52499039      110.87948375
2017    10      0.45675202      100.50695125
2017    11      0.53870015      112.73485
2017    12      0.47568511      100.1365875
2017    13      0.6041704       121.5497625
2017    14      0.57604363      116.96414875
2017    15      0.26637144      65.710965
2017    16      0.2717067       65.26671625
2017    17      0.14128971      39.992615
2017    18      0.09122874      28.595145
2017    19      0.16905396      46.035995
2017    20      0.24348106      61.52768
2017    21      0.32685944      77.49666125
2017    22      0.24564889      62.52747875
2017    23      0.2414889       60.21179375
2017    24      0.20916109      54.10680125
2017    25      0.26023895      64.0441825
2017    26      0.12245729      35.63761
2017    27      0.14652186      40.921875
2017    28      0.3541024       81.51326625
2017    29      0.72596525      137.33395
2017    30      0.565941        116.2224725
2017    31      0.58295225      118.69869625
2018    1       0.07306738      24.12453875
2018    2       0.15702807      43.60388
2018    3       0.19652886      51.6848475
2018    4       0.08011958      26.228845
2018    5       0.08458721      27.2063425
2018    6       0.23555246      57.834555
2018    7       0.46200666      100.3277825
2018    8       0.07471108      24.46334375
2018    9       0.04164566      16.4477725
2018    10      0.11663219      33.814395
2018    11      0.2447473       61.62675875
2018    12      0.28963695      71.44339375
2018    13      0.3071415       74.3851325
2018    14      0.46777084      102.22394375
2018    15      0.33592358      79.0313575
2018    16      0.38442895      88.10010625
2018    17      0.70246566      135.7019375
2018    18      0.70308469      134.9743125
2018    19      0.89931735      157.361775
2018    20      0.27911146      66.67001125
2018    21      0.35451468      83.165815
2018    22      0.19258265      50.81138875
2018    23      0.19958145      52.580255
2018    24      0.18610948      50.0265125
2018    25      0.12327926      36.14431875
2018    26      0.13263019      37.8402325
2018    27      0.21381595      55.4078475
2018    28      0.15526306      41.93790625
2018    29      0.45550392      97.9763275
2018    30      0.44966459      96.65799
2018    31      0.31882485      75.025455
