####################################################################################################
# Month: 08Aug                                                                                     #
# Station: LAS                                                                                     #
# Frequency: 345 GHz                                                                               #
# Columns are: year    day     segment         tau     Tb (K)                                      #
####################################################################################################
2009    1       0       0.9789523       166.7845
2009    1       1       0.9812583       167.9007
2009    1       2       0.9583944       166.4457
2009    1       3       0.9445045       165.5604
2009    1       4       0.898816        161.9488
2009    1       5       0.8114616       153.1497
2009    1       6       0.7772491       149.2966
2009    1       7       0.7560512       147.0721
2009    2       0       0.7517865       146.5607
2009    2       1       0.769599        148.5497
2009    2       2       0.7229045       142.9217
2009    2       3       0.6570456       134.2236
2009    2       4       0.6287003       130.5412
2009    2       5       0.6748554       137.2009
2009    2       6       0.6638316       136.5958
2009    2       7       0.6524594       135.652
2009    3       0       0.5797317       125.274
2009    3       1       0.5906745       127.0301
2009    3       2       0.5434923       119.7437
2009    3       3       0.4395004       102.5959
2009    3       4       0.4210743       99.31067
2009    3       5       0.3922746       94.09389
2009    3       6       0.3968353       95.01073
2009    3       7       0.4615389       106.5793
2009    4       0       0.4886561       110.4936
2009    4       1       0.4951231       110.809
2009    4       2       0.432897        99.83565
2009    4       3       0.4026086       94.6233
2009    4       4       0.4006871       93.92218
2009    4       5       0.4739423       106.6425
2009    4       6       0.5763192       122.8498
2009    4       7       0.5730179       122.0535
2009    5       0       0.4724111       105.5596
2009    5       1       0.4327793       98.92766
2009    5       2       0.4979685       109.2385
2009    5       3       0.4725208       104.8636
2009    5       4       0.37967         89.37531
2009    5       5       0.2815883       70.85197
2009    5       6       0.2950602       73.29173
2009    5       7       0.3242531       79.08224
2009    6       0       0.2661859       67.44744
2009    6       1       0.3007902       73.67236
2009    6       2       0.4139584       94.37897
2009    6       3       0.5085885       110.0764
2009    6       4       0.528093        113.3897
2009    6       5       0.6077171       124.6637
2009    6       6       0.7691088       145.4713
2009    6       7       0.8515534       154.5112
2009    7       0       0.7603075       143.1154
2009    7       1       0.7331867       138.891
2009    7       2       0.7354703       139.2897
2009    7       3       0.6946954       134.3502
2009    7       4       0.9127883       158.6888
2009    7       5       0.992305        167.5345
2009    7       6       0.9189072       160.3894
2009    7       7       0.9456166       163.4186
2009    8       0       0.8777198       156.218
2009    8       1       0.9633087       164.8826
2009    8       2       1.081973        175.3104
2009    8       3       1.021067        169.7673
2009    8       4       0.8182407       149.8129
2009    8       5       0.8410204       153.4734
2009    8       6       0.9500916       165.844
2009    8       7       0.944781        165.8219
2009    9       0       0.8141542       152.4243
2009    9       1       0.7010974       138.5233
2009    9       2       0.5886832       122.6099
2009    9       3       0.5706435       118.9206
2009    9       4       0.5082472       109.6947
2009    9       5       0.3174359       78.41369
2009    9       6       0.3523157       85.66387
2009    9       7       0.3603695       87.24602
2009    10      0       0.3182699       78.78181
2009    10      1       0.379413        88.52791
2009    10      2       0.5271375       111.5861
2009    10      3       0.472296        104.2418
2009    10      4       0.3899234       90.95636
2009    10      5       0.3817877       89.51886
2009    10      6       0.4347278       98.40082
2009    10      7       0.4878299       106.7691
2009    11      0       0.513193        110.2132
2009    11      1       0.5566731       117.0837
2009    11      2       0.5892711       121.4631
2009    11      3       0.6621407       130.7019
2009    11      4       0.6538137       129.462
2009    11      5       0.5884145       121.4118
2009    11      6       0.5258036       113.4283
2009    11      7       0.5416167       115.8659
2009    12      0       0.4885015       106.7481
2009    12      1       0.5003999       107.4997
2009    12      2       0.549645        115.0201
2009    12      3       0.471386        103.5382
2009    12      4       0.4914693       108.3345
2009    12      5       0.4775081       106.3266
2009    12      6       0.5153592       112.2086
2009    12      7       0.5395836       116.6567
2009    13      0       0.4365961       97.94686
2009    13      1       0.4658579       102.2775
2009    13      2       0.5653239       117.2336
2009    13      3       0.6380843       127.5353
2009    13      4       0.754671        142.4751
2009    13      5       0.827003        151.4151
2009    13      6       0.7643238       146.0944
2009    13      7       0.8000518       151.3022
2009    14      0       0.7002886       138.9387
2009    14      1       0.5821794       122.7211
2009    14      2       0.4832194       106.9415
2009    14      3       0.4935912       107.5438
2009    14      4       0.467619        104.2313
2009    14      5       0.5299936       114.0224
2009    14      6       0.6604177       132.8237
2009    14      7       0.6708287       133.9385
2009    15      0       0.6855104       136.2068
2009    15      1       0.7575607       145.7984
2009    15      2       0.8066653       151.3033
2009    15      3       1.061481        177.3149
2009    15      4       1.316778        197.1428
2009    15      5       1.274539        194.2153
2009    15      6       1.504414        210.5651
2009    15      7       2.007227        233.7602
2009    16      0       2.108684        236.3778
2009    16      1       1.919863        229.8989
2009    16      2       1.763809        223.3288
2009    16      3       1.555892        212.2543
2009    16      4       1.364897        200.2434
2009    16      5       1.155697        184.8656
2009    16      6       0.8843699       160.2221
2009    16      7       0.7121779       140.238
2009    17      0       0.4106395       94.11821
2009    17      1       0.394758        90.76221
2009    17      2       0.5937604       121.2478
2009    17      3       0.769554        143.9293
2009    17      4       0.8295187       151.177
2009    17      5       0.8725803       155.6773
2009    17      6       1.07412         175.7415
2009    17      7       1.145556        181.8657
2009    18      0       0.9017215       159.7997
2009    18      1       0.9955057       168.4334
2009    18      2       1.076852        176.3876
2009    18      3       1.271225        192.9183
2009    18      4       1.284475        194.8113
2009    18      5       1.302662        196.556
2009    18      6       1.290399        195.8268
2009    18      7       1.355916        200.6274
2009    19      0       1.412886        204.2019
2009    19      1       1.238113        192.0329
2009    19      2       0.9965363       170.5413
2009    19      3       0.7878249       148.3937
2009    19      4       0.6488351       130.462
2009    19      5       0.6062003       124.3331
2009    19      6       0.666478        132.9098
2009    19      7       0.6836075       135.2604
2009    20      0       0.4507976       99.93066
2009    20      1       0.4553205       99.07948
2009    20      2       0.4503796       98.58279
2009    20      3       0.3301287       78.56077
2009    20      4       0.2832513       69.89044
2009    20      5       0.2837227       70.35267
2009    20      6       0.3585317       84.44673
2009    20      7       0.4355702       97.88633
2009    21      0       0.4278238       96.64461
2009    21      1       0.379107        88.82147
2009    21      2       0.3358894       81.38112
2009    21      3       0.3822876       90.03507
2009    21      4       0.4305848       98.27396
2009    21      5       0.4233738       97.01087
2009    21      6       0.5370318       115.1197
2009    21      7       0.667537        133.3542
2009    22      0       0.627874        126.9934
2009    22      1       0.6875315       134.9925
2009    22      2       0.7521352       143.0838
2009    22      3       0.75464         143.6948
2009    22      4       0.7586135       144.0005
2009    22      5       0.8347038       152.9775
2009    22      6       0.9426644       165.9965
2009    22      7       0.9906948       171.3027
2009    23      0       0.7914667       150.0244
2009    23      1       0.6919229       137.9017
2009    23      2       0.600517        125.5721
2009    23      3       0.5458215       117.4167
2009    23      4       0.445093        101.5397
2009    23      5       0.4643753       104.8153
2009    23      6       0.5998323       125.8714
2009    23      7       0.7283061       142.397
2009    24      0       0.6842979       136.4182
2009    24      1       0.6632426       133.4262
2009    24      2       0.6916156       136.6426
2009    24      3       0.656545        132.6872
2009    24      4       0.6039725       125.4862
2009    24      5       0.5853684       123.2232
2009    24      6       0.6309702       129.8308
2009    24      7       0.7041143       139.89
2009    25      0       0.7786346       148.9195
2009    25      1       0.7846648       149.8489
2009    25      2       0.7399757       145.3153
2009    25      3       0.7057151       141.3953
2009    25      4       0.8045439       153.8082
2009    25      5       0.8515268       159.3353
2009    25      6       0.8705356       161.1715
2009    25      7       0.7712477       149.8732
2009    26      0       0.6693288       135.4444
2009    26      1       0.5894467       124.7274
2009    26      2       0.449834        103.1457
2009    26      3       0.3685714       88.62215
2009    26      4       0.3304411       81.45785
2009    26      5       0.3582194       87.05378
2009    26      6       0.363211        88.45675
2009    26      7       0.357663        87.56281
2009    27      0       0.271484        70.43183
2009    27      1       0.2019736       55.64995
2009    27      2       0.1691503       47.61944
2009    27      3       0.1667693       46.68604
2009    27      4       0.1968185       52.84265
2009    27      5       0.2817095       70.47844
2009    27      6       0.372711        89.68256
2009    27      7       0.4356316       102.3161
2009    28      0       0.3568423       87.48105
2009    28      1       0.3116594       78.08555
2009    28      2       0.3379814       83.54883
2009    28      3       0.3390028       83.82939
2009    28      4       0.319924        80.2006
2009    28      5       0.3402838       84.30389
2009    28      6       0.3832302       92.46365
2009    28      7       0.3602524       87.86608
2009    29      0       0.3082793       77.69895
2009    29      1       0.2386422       63.1722
2009    29      2       0.1844813       51.23352
2009    29      3       0.1756855       49.13622
2009    29      4       0.1801411       49.78455
2009    29      5       0.217227        58.02386
2009    29      6       0.3670066       88.55121
2009    29      7       0.4666169       106.2485
2009    30      0       0.4434649       101.4941
2009    30      1       0.486521        107.9174
2009    30      2       0.5295573       114.327
2009    30      3       0.5482833       117.2658
2009    30      4       0.5399313       116.395
2009    30      5       0.5727367       121.2664
2009    30      6       0.6766124       136.2997
2009    30      7       0.6764575       136.5358
2009    31      0       0.5851086       123.6528
2009    31      1       0.6138414       127.043
2009    31      2       0.5351844       114.9535
2009    31      3       0.5146147       111.5807
2009    31      4       0.4706882       104.7151
2009    31      5       0.5289355       114.482
2009    31      6       0.5794918       122.5035
2009    31      7       0.6290015       129.6332
2010    1       0       0.7068504       136.8182
2010    1       1       0.6788329       133.0294
2010    1       2       0.7280945       139.1927
2010    1       3       0.7155026       138.2471
2010    1       4       0.6936894       135.8548
2010    1       5       0.685285        135.3665
2010    1       6       0.6955096       136.8709
2010    1       7       0.6522008       131.292
2010    2       0       0.5521699       117.1621
2010    2       1       0.4680214       104.1929
2010    2       2       0.4063159       93.97894
2010    2       3       0.3881812       90.59859
2010    2       4       0.3241283       78.98956
2010    2       5       0.3088236       76.11287
2010    2       6       0.3712224       87.73326
2010    2       7       0.3653636       86.76922
2010    3       0       0.2861103       71.69487
2010    3       1       0.2484529       63.92887
2010    3       2       0.2503248       64.19493
2010    3       3       0.3090055       75.82105
2010    3       4       0.4010142       92.75378
2010    3       5       0.483635        106.8593
2010    3       6       0.5721765       120.5161
2010    3       7       0.4883405       107.442
2010    4       0       0.2987077       74.51161
2010    4       1       0.2488673       64.88149
2010    4       2       0.2418726       63.57995
2010    4       3       0.2457169       64.10088
2010    4       4       0.2092278       55.6128
2010    4       5       0.2668334       66.588
2010    4       6       0.4091458       91.99939
2010    4       7       0.3897854       88.968
2010    5       0       0.3420095       79.9583
2010    5       1       0.3982695       90.34409
2010    5       2       0.4409994       97.98201
2010    5       3       0.4065769       91.98955
2010    5       4       0.3291185       79.42657
2010    5       5       0.350317        84.16249
2010    5       6       0.3651005       87.36311
2010    5       7       0.3299685       81.15077
2010    6       0       0.3158864       77.7895
2010    6       1       0.2815816       71.31587
2010    6       2       0.2590973       66.74293
2010    6       3       0.3216466       78.98804
2010    6       4       0.3772979       89.33396
2010    6       5       0.4533023       103.0865
2010    6       6       0.4310083       99.2584
2010    6       7       0.3771641       89.49242
2010    7       0       0.3501503       83.95307
2010    7       1       0.3600847       85.47844
2010    7       2       0.4839319       105.3393
2010    7       3       0.4595027       102.4483
2010    7       4       0.4901644       107.2626
2010    7       5       0.5045947       109.2504
2010    7       6       0.5190002       111.9049
2010    7       7       0.4945373       108.6861
2010    8       0       0.3973366       92.78116
2010    8       1       0.3259963       79.60867
2010    8       2       0.2752521       69.32875
2010    8       3       0.2054041       54.19299
2010    8       4       0.1928935       51.09891
2010    8       5       0.2417076       61.13921
2010    8       6       0.3200307       76.76543
2010    8       7       0.3428584       81.17367
2010    9       0       0.3137205       75.18009
2010    9       1       0.3180496       76.24512
2010    9       2       0.2874963       70.10086
2010    9       3       0.2367896       59.93637
2010    9       4       0.2549168       63.79649
2010    9       5       0.2951038       72.24239
2010    9       6       0.33482         80.32378
2010    9       7       0.342971        81.83107
2010    10      0       0.3175542       76.98123
2010    10      1       0.2952833       72.78958
2010    10      2       0.3116016       76.43638
2010    10      3       0.3717069       87.76561
2010    10      4       0.457563        102.7909
2010    10      5       0.5458582       117.2391
2010    10      6       0.6360438       130.2258
2010    10      7       0.696027        137.2969
2010    11      0       0.7525975       142.3003
2010    11      1       0.9250584       160.8807
2010    11      2       1.474735        205.9789
2010    11      3       1.920589        227.7087
2010    11      4       1.735889        219.8167
2010    11      5       1.420913        203.0021
2010    11      6       1.363062        198.4129
2010    11      7       1.101675        177.5614
2010    12      0       0.7963563       147.5617
2010    12      1       0.6514846       129.3147
2010    12      2       0.541913        113.2605
2010    12      3       0.4469278       98.2714
2010    12      4       0.3839249       87.80142
2010    12      5       0.4335564       97.24833
2010    12      6       0.486427        107.2474
2010    12      7       0.4945286       109.0375
2010    13      0       0.3543028       84.79373
2010    13      1       0.3047334       75.18034
2010    13      2       0.2944663       73.09751
2010    13      3       0.3047432       75.02745
2010    13      4       0.3108607       76.1594
2010    13      5       0.3258851       79.31512
2010    13      6       0.3637073       86.42028
2010    13      7       0.3366736       81.79228
2010    14      0       0.2768238       70.10025
2010    14      1       0.2432132       63.39873
2010    14      2       0.257269        66.62313
2010    14      3       0.2639829       67.99119
2010    14      4       0.2680766       68.92198
2010    14      5       0.2677236       68.84457
2010    14      6       0.313809        78.03182
2010    14      7       0.3302424       81.13066
2010    15      0       0.3168539       78.52582
2010    15      1       0.3219343       79.49465
2010    15      2       0.2825519       71.72778
2010    15      3       0.2797928       70.88797
2010    15      4       0.3561778       85.54307
2010    15      5       0.5529052       118.2837
2010    15      6       0.6048153       125.7946
2010    15      7       0.4302496       98.05255
2010    16      0       0.3272643       79.53753
2010    16      1       0.2893191       72.57471
2010    16      2       0.2525765       65.10355
2010    16      3       0.2957829       72.52538
2010    16      4       0.3894397       89.12343
2010    16      5       0.3724084       86.15844
2010    16      6       0.3931149       90.10255
2010    16      7       0.3567519       83.55859
2010    17      0       0.3113464       74.88016
2010    17      1       0.3012423       72.74915
2010    17      2       0.2958205       72.13352
2010    17      3       0.3243477       77.69406
2010    17      4       0.402235        91.02897
2010    17      5       0.475077        103.4145
2010    17      6       0.5172504       110.9337
2010    17      7       0.4831866       105.8139
2010    18      0       0.4222704       96.15314
2010    18      1       0.414947        95.31602
2010    18      2       0.4435793       99.9191
2010    18      3       0.4724983       104.5249
2010    18      4       0.4645476       103.1821
2010    18      5       0.4952421       108.2188
2010    18      6       0.4980844       109.1495
2010    18      7       0.4533698       102.0745
2010    19      0       0.3541559       84.88988
2010    19      1       0.2958009       74.48512
2010    19      2       0.2588422       67.28781
2010    19      3       0.2407784       63.42931
2010    19      4       0.250038        65.15313
2010    19      5       0.256546        66.83841
2010    19      6       0.272641        70.58205
2010    19      7       0.2971771       75.88872
2010    20      0       0.2959904       75.75125
2010    20      1       0.2959628       75.97931
2010    20      2       0.2781904       72.39417
2010    20      3       0.2864194       73.88168
2010    20      4       0.3027715       76.93138
2010    20      5       0.3319804       82.44582
2010    20      6       0.3848175       92.54227
2010    20      7       0.3930556       94.20832
2010    21      0       0.3019513       76.60267
2010    21      1       0.2879257       73.70516
2010    21      2       0.2465209       64.83096
2010    21      3       0.2290221       60.97786
2010    21      4       0.2049709       55.64291
2010    21      5       0.2454203       64.5584
2010    21      6       0.3082011       77.62919
2010    21      7       0.2917786       74.45057
2010    22      0       0.2411964       63.74014
2010    22      1       0.2793216       71.58236
2010    22      2       0.3245846       80.64822
2010    22      3       0.3639906       88.22067
2010    22      4       0.391661        93.23124
2010    22      5       0.4799873       108.5259
2010    22      6       0.5017619       111.9872
2010    22      7       0.3789046       90.38165
2010    23      0       0.3037913       75.43959
2010    23      1       0.3864292       90.48899
2010    23      2       0.4792693       106.3882
2010    23      3       0.527113        113.7917
2010    23      4       0.6071406       125.5912
2010    23      5       0.6941196       137.7551
2010    23      6       0.6595744       133.2103
2010    23      7       0.5438448       116.543
2010    24      0       0.3898135       91.37416
2010    24      1       0.3173519       78.23761
2010    24      2       0.2849912       72.27288
2010    24      3       0.2738169       70.02475
2010    24      4       0.2594016       67.12304
2010    24      5       0.2912992       73.41416
2010    24      6       0.4020573       94.17348
2010    24      7       0.3514179       84.62825
2010    25      0       0.2801974       70.20365
2010    25      1       0.3061078       75.24141
2010    25      2       0.2711413       68.45519
2010    25      3       0.2205666       57.89372
2010    25      4       0.1939162       52.18125
2010    25      5       0.2145473       56.79933
2010    25      6       0.2889466       72.67736
2010    25      7       0.2727397       69.67943
2010    26      0       0.1886453       51.58661
2010    26      1       0.1787753       49.40741
2010    26      2       0.1954053       53.10859
2010    26      3       0.2030636       54.67598
2010    26      4       0.2291335       60.24654
2010    26      5       0.2529746       65.45338
2010    26      6       0.2553916       66.4783
2010    26      7       0.2540663       66.30972
2010    27      0       0.1832247       50.50453
2010    27      1       0.1427477       41.05379
2010    27      2       0.1568333       44.06716
2010    27      3       0.2536022       64.1861
2010    27      4       0.3546462       83.81805
2010    27      5       0.4553949       102.1497
2010    27      6       0.5061978       111.1582
2010    27      7       0.5187088       113.7737
2010    28      0       0.4652012       105.2209
2010    28      1       0.4896086       109.101
2010    28      2       0.5572681       119.4498
2010    28      3       0.6075674       126.553
2010    28      4       0.574429        121.6902
2010    28      5       0.5564142       118.9737
2010    28      6       0.6073144       126.6573
2010    28      7       0.6587674       133.8519
2010    29      0       0.5761721       121.6154
2010    29      1       0.5444771       117.183
2010    29      2       0.5094454       112.0959
2010    29      3       0.4636888       104.9428
2010    29      4       0.3976603       93.90092
2010    29      5       0.3564543       86.56307
2010    29      6       0.33144         81.8534
2010    29      7       0.2987296       75.45092
2010    30      0       0.2279599       60.63782
2010    30      1       0.2519918       65.3719
2010    30      2       0.3247989       79.7372
2010    30      3       0.4152545       95.88889
2010    30      4       0.4738597       105.5919
2010    30      5       0.5121443       111.8535
2010    30      6       0.5734455       121.398
2010    30      7       0.589439        123.8197
2010    31      0       0.5341827       115.2569
2010    31      1       0.5829749       122.3992
2010    31      2       0.6672528       133.917
2010    31      3       0.7773059       147.4502
2010    31      4       0.7466091       143.2979
2010    31      5       0.7722249       146.7037
2010    31      6       0.9909826       170.7308
2010    31      7       0.9158438       163.446
2011    1       0       0.9322471       160.4424
2011    1       1       0.7754075       143.791
2011    1       2       0.7202176       137.3852
2011    1       3       0.6442308       128.2591
2011    1       4       0.5148205       110.4872
2011    1       5       0.4385035       98.89753
2011    1       6       0.4829153       105.876
2011    1       7       0.6382017       127.5539
2011    2       0       0.6499014       129.1891
2011    2       1       0.7361796       140.891
2011    2       2       0.6692142       131.6657
2011    2       3       0.4783715       104.5982
2011    2       4       0.3203505       77.76848
2011    2       5       0.2204069       58.13162
2011    2       6       0.1808119       49.45725
2011    2       7       0.1931625       51.87715
2011    3       0       0.1367408       39.34863
2011    3       1       0.1304642       37.83187
2011    3       2       0.1165456       34.90596
2011    3       3       0.1144276       34.40782
2011    3       4       0.1244492       36.90699
2011    3       5       0.1437347       41.01788
2011    3       6       0.2186076       57.14728
2011    3       7       0.2730974       68.08581
2011    4       0       0.2687566       67.77574
2011    4       1       0.2867402       71.52123
2011    4       2       0.3058606       75.18533
2011    4       3       0.3332116       80.29431
2011    4       4       0.326857        79.17911
2011    4       5       0.3457051       82.51671
2011    4       6       0.4471891       100.4094
2011    4       7       0.5127152       110.7696
2011    5       0       0.5705509       118.7976
2011    5       1       0.7069531       136.0246
2011    5       2       0.7696354       143.9083
2011    5       3       0.8092355       149.2458
2011    5       4       1.005384        170.4203
2011    5       5       0.9006073       161.4425
2011    5       6       0.9403252       166.2033
2011    5       7       1.109441        181.3415
2011    6       0       1.214174        189.9829
2011    6       1       1.155111        185.9542
2011    6       2       1.185414        188.3691
2011    6       3       1.319945        197.7124
2011    6       4       1.321869        197.9729
2011    6       5       1.312672        197.3103
2011    6       6       1.374044        201.6948
2011    6       7       1.263201        194.1423
2011    7       0       1.037505        175.3026
2011    7       1       0.9903683       169.6558
2011    7       2       1.140896        182.2867
2011    7       3       1.378099        200.1238
2011    7       4       1.187332        186.0491
2011    7       5       1.043234        173.1789
2011    7       6       1.106301        178.4733
2011    7       7       1.289352        193.3665
2011    8       0       1.512375        208.5975
2011    8       1       1.17132         185.5029
2011    8       2       1.310633        195.9715
2011    8       3       1.432243        204.4243
2011    8       4       1.036566        175.2905
2011    8       5       0.9359407       165.5099
2011    8       6       1.08091         179.5838
2011    8       7       1.288268        196.3386
2011    9       0       1.271035        195.7156
2011    9       1       1.209524        191.8792
2011    9       2       1.128157        185.6047
2011    9       3       1.137023        186.7593
2011    9       4       1.161386        189.5564
2011    9       5       1.127493        187.8892
2011    9       6       1.017459        178.9057
2011    9       7       0.9406953       171.7446
2011    10      0       0.9299308       170.2798
2011    10      1       0.8727386       164.2286
2011    10      2       0.6949791       142.6919
2011    10      3       0.5780124       125.8586
2011    10      4       0.4973707       112.8396
2011    10      5       0.4514425       104.7691
2011    10      6       0.4417499       102.8304
2011    10      7       0.4047289       95.94182
2011    11      0       0.3282598       81.3516
2011    11      1       0.2731288       70.24628
2011    11      2       0.2357575       62.41621
2011    11      3       0.221435        59.32955
2011    11      4       0.1910405       52.55363
2011    11      5       0.2107878       57.07116
2011    11      6       0.2954708       75.14946
2011    11      7       0.2665493       69.16536
2011    12      0       0.2584508       67.27894
2011    12      1       0.3085189       77.22001
2011    12      2       0.319975        79.47141
2011    12      3       0.3139163       78.86827
2011    12      4       0.3392674       83.69778
2011    12      5       0.426723        99.86192
2011    12      6       0.5263956       116.7833
2011    12      7       0.5200022       116.0043
2011    13      0       0.4167431       98.47743
2011    13      1       0.3546539       86.89463
2011    13      2       0.3001525       76.13351
2011    13      3       0.2234936       60.01848
2011    13      4       0.2495603       65.82078
2011    13      5       0.2951444       75.46751
2011    13      6       0.305746        77.52422
2011    13      7       0.2922078       74.89799
2011    14      0       0.2349442       62.7115
2011    14      1       0.2786085       71.86104
2011    14      2       0.2490621       65.42462
2011    14      3       0.2302569       61.35722
2011    14      4       0.3227943       80.44215
2011    14      5       0.4635141       106.3371
2011    14      6       0.5629555       122.6173
2011    14      7       0.483656        109.8036
2011    15      0       0.3685339       88.37035
2011    15      1       0.3921805       91.69199
2011    15      2       0.4847198       106.5218
2011    15      3       0.5303712       113.0076
2011    15      4       0.5634025       117.9979
2011    15      5       0.6667812       133.0781
2011    15      6       0.8399492       155.302
2011    15      7       0.98099         170.2691
2011    16      0       0.8951182       160.5486
2011    16      1       1.276128        192.5219
2011    16      2       1.259757        190.8541
2011    16      3       1.115066        179.2083
2011    16      4       0.8395063       152.8988
2011    16      5       0.5370789       114.0787
2011    16      6       0.4236617       95.64935
2011    16      7       0.371163        85.98419
2011    17      0       0.3249543       77.10871
2011    17      1       0.3481231       81.07953
2011    17      2       0.4079128       91.33832
2011    17      3       0.4740933       102.5568
2011    17      4       0.6089029       122.9853
2011    17      5       0.7048364       136.7133
2011    17      6       0.7947835       148.4618
2011    17      7       0.8115105       150.8792
2011    18      0       0.9383237       163.0592
2011    18      1       1.055752        173.7698
2011    18      2       0.8066785       149.2031
2011    18      3       0.8041527       148.2953
2011    18      4       0.8937015       157.6787
2011    18      5       1.074195        175.7009
2011    18      6       1.228807        189.1792
2011    18      7       1.013633        171.3499
2011    19      0       0.8083658       150.1757
2011    19      1       0.608237        124.5652
2011    19      2       0.444241        99.1498
2011    19      3       0.3667765       85.67698
2011    19      4       0.2754795       68.67082
2011    19      5       0.2517581       64.1658
2011    19      6       0.3654348       86.09344
2011    19      7       0.4001426       92.72647
2011    20      0       0.2942633       73.44322
2011    20      1       0.245591        63.631
2011    20      2       0.2380913       62.14191
2011    20      3       0.2386374       62.30259
2011    20      4       0.2613284       66.94239
2011    20      5       0.3094948       76.44072
2011    20      6       0.4137782       95.78705
2011    20      7       0.4166654       96.50903
2011    21      0       0.2447996       63.8382
2011    21      1       0.2141276       57.06478
2011    21      2       0.2005722       53.57881
2011    21      3       0.2300734       59.7395
2011    21      4       0.3326939       80.34741
2011    21      5       0.3770732       88.60554
2011    21      6       0.495823        108.9758
2011    21      7       0.5354592       115.072
2011    22      0       0.4138459       94.8633
2011    22      1       0.379811        89.0007
2011    22      2       0.3593097       86.0487
2011    22      3       0.3153072       78.016
2011    22      4       0.2443051       63.78463
2011    22      5       0.2601312       66.8194
2011    22      6       0.3810597       89.57521
2011    22      7       0.4656133       104.7474
2011    23      0       0.4035477       93.55069
2011    23      1       0.4108375       94.18322
2011    23      2       0.5007836       108.076
2011    23      3       0.5937051       122.1194
2011    23      4       0.6189714       125.9632
2011    23      5       0.621805        126.7377
2011    23      6       0.6335869       128.5641
2011    23      7       0.5584214       118.0043
2011    24      0       0.385962        89.57528
2011    24      1       0.4025231       92.11242
2011    24      2       0.4029492       91.83425
2011    24      3       0.5105803       109.8871
2011    24      4       0.5274516       112.0563
2011    24      5       0.5351397       114.1564
2011    24      6       0.6360421       129.3902
2011    24      7       0.5800041       122.0016
2011    25      0       0.3007803       74.59914
2011    25      1       0.1667199       46.58793
2011    25      2       0.1729321       47.76919
2011    25      3       0.1767144       48.31232
2011    25      4       0.2200807       56.78317
2011    25      5       0.2938436       72.17656
2011    25      6       0.4016351       91.98756
2011    25      7       0.4420873       99.22722
2011    26      0       0.4237781       96.07834
2011    26      1       0.4666286       102.4988
2011    26      2       0.5729279       118.1782
2011    26      3       0.7639614       142.6847
2011    26      4       0.9049799       157.7174
2011    26      5       0.7898318       144.5015
2011    26      6       0.8024671       146.169
2011    26      7       0.8488609       151.6414
2011    27      0       0.8406395       151.6514
2011    27      1       0.8372641       152.2132
2011    27      2       0.6736503       132.5976
2011    27      3       0.8902448       158.7562
2011    27      4       0.8937319       159.7957
2011    27      5       0.5911084       122.9994
2011    27      6       0.601104        124.0901
2011    27      7       0.7377358       141.4841
2011    28      0       0.7288619       140.35
2011    28      1       0.5816909       120.5919
2011    28      2       0.4930912       107.1182
2011    28      3       0.5603107       117.5703
2011    28      4       0.6268328       127.1712
2011    28      5       0.6612128       132.0736
2011    28      6       0.6446543       130.0571
2011    28      7       0.6060002       124.4235
2011    29      0       0.538261        113.9517
2011    29      1       0.4724343       104.1292
2011    29      2       0.4859407       106.6366
2011    29      3       0.3659447       85.98895
2011    29      4       0.3398276       80.92599
2011    29      5       0.3011188       73.60605
2011    29      6       0.3303083       79.43714
2011    29      7       0.3257703       78.21641
2011    30      0       0.26715         66.82786
2011    30      1       0.2624834       65.63985
2011    30      2       0.3491783       81.72258
2011    30      3       0.4390445       97.33932
2011    30      4       0.4480332       99.61873
2011    30      5       0.4677504       104.2788
2011    30      6       0.5117134       112.4622
2011    30      7       0.5375735       117.0158
2011    31      0       0.4571458       103.6483
2011    31      1       0.4707489       105.0558
2011    31      2       0.4152274       96.58614
2011    31      3       0.3589513       86.78322
2011    31      4       0.3036716       76.31091
2011    31      5       0.2661813       68.89338
2011    31      6       0.2741347       70.752
2011    31      7       0.2524873       66.28827
2012    1       0       0.483154        108.1871
2012    1       1       0.4612013       104.2888
2012    1       2       0.4270134       98.18328
2012    1       3       0.4714407       105.1624
2012    1       4       0.4715642       104.8512
2012    1       5       0.5341924       114.3441
2012    1       6       0.6255851       127.6681
2012    1       7       0.592046        122.5915
2012    2       0       0.5665709       118.6012
2012    2       1       0.5998178       123.5829
2012    2       2       0.687098        135.6078
2012    2       3       0.7877439       147.9567
2012    2       4       0.8266506       152.4229
2012    2       5       0.9095818       161.4043
2012    2       6       1.007311        171.0733
2012    2       7       0.8406348       154.0143
2012    3       0       0.7214146       139.8152
2012    3       1       0.6013941       123.8467
2012    3       2       0.5949439       122.8829
2012    3       3       0.6431152       129.3057
2012    3       4       0.6060681       124.0097
2012    3       5       0.5922493       121.8104
2012    3       6       0.5700374       118.9439
2012    3       7       0.5707202       119.403
2012    4       0       0.5178101       111.5801
2012    4       1       0.5753013       120.3797
2012    4       2       0.590553        122.5298
2012    4       3       0.5032736       109.477
2012    4       4       0.4341907       98.29465
2012    4       5       0.4326575       98.24825
2012    4       6       0.4520489       101.652
2012    4       7       0.4075505       94.26013
2012    5       0       0.3014433       74.48017
2012    5       1       0.2825301       70.6252
2012    5       2       0.3125968       76.71663
2012    5       3       0.3420365       82.23411
2012    5       4       0.3562572       84.71685
2012    5       5       0.3962511       91.71309
2012    5       6       0.4429497       100.1191
2012    5       7       0.4572304       102.2642
2012    6       0       0.4323502       97.94608
2012    6       1       0.5198932       112.6164
2012    6       2       0.6157633       126.5569
2012    6       3       0.6070671       124.676
2012    6       4       0.6134149       125.6109
2012    6       5       0.594234        122.944
2012    6       6       0.6009314       123.7856
2012    6       7       0.6150988       125.2519
2012    7       0       0.5555289       116.4291
2012    7       1       0.430011        96.50149
2012    7       2       0.3519035       83.32132
2012    7       3       0.3191811       77.36536
2012    7       4       0.3235057       78.1929
2012    7       5       0.2882932       71.63641
2012    7       6       0.4923921       107.724
2012    7       7       0.5029124       110.6961
2012    8       0       0.4762341       106.7918
2012    8       1       0.404849        95.19408
2012    8       2       0.3597129       87.17076
2012    8       3       0.3412537       83.8175
2012    8       4       0.3261227       80.83788
2012    8       5       0.2810056       72.28677
2012    8       6       0.283954        72.6723
2012    8       7       0.2605484       67.62736
2012    9       0       0.199851        54.47715
2012    9       1       0.1899099       52.18443
2012    9       2       0.215153        57.34818
2012    9       3       0.2891937       72.6156
2012    9       4       0.3971844       92.41665
2012    9       5       0.5350892       114.7591
2012    9       6       0.7510655       145.2226
2012    9       7       0.9461619       168.0508
2012    10      0       0.8312137       155.8146
2012    10      1       0.7410762       145.789
2012    10      2       0.7911589       152.356
2012    10      3       0.875286        161.731
2012    10      4       0.8361537       157.7108
2012    10      5       0.7439838       146.9808
2012    10      6       0.7130913       142.7445
2012    10      7       0.659231        135.3355
2012    11      0       0.6892292       139.3359
2012    11      1       0.6957399       140.1855
2012    11      2       0.8791507       161.7032
2012    11      3       0.8962397       162.8618
2012    11      4       0.8237091       154.1602
2012    11      5       0.8796968       160.3066
2012    11      6       0.7541945       145.953
2012    11      7       0.5263355       114.9832
2012    12      0       0.3840523       91.1419
2012    12      1       0.296175        74.37357
2012    12      2       0.32162         78.79743
2012    12      3       0.3757045       89.26651
2012    12      4       0.245427        64.04748
2012    12      5       0.2248775       59.89633
2012    12      6       0.2891169       72.88269
2012    12      7       0.2728332       68.55014
2012    13      0       0.1731659       48.58462
2012    13      1       0.2379055       62.37869
2012    13      2       0.2551199       64.62228
2012    13      3       0.2443888       62.36758
2012    13      4       0.2787946       69.13642
2012    13      5       0.3988716       90.99965
2012    13      6       0.6295804       125.0651
2012    13      7       1.025186        169.8865
2012    14      0       1.534875        209.1297
2012    14      1       1.421326        205.4374
2012    14      2       1.214315        190.8135
2012    14      3       1.459281        205.8226
2012    14      4       1.753032        220.1822
2012    14      5       1.676939        218.1486
2012    14      6       1.66153         217.6199
2012    14      7       1.33485         199.6069
2012    15      0       1.331495        200.4407
2012    15      1       1.008551        173.336
2012    15      2       1.026796        173.7577
2012    15      3       1.218776        189.2391
2012    15      4       1.391084        201.9086
2012    15      5       1.567467        212.8041
2012    15      6       1.557249        212.3611
2012    15      7       1.39326         202.5981
2012    16      0       1.37914         200.92
2012    16      1       1.529528        210.0928
2012    16      2       1.608599        214.9385
2012    16      3       1.475696        207.8059
2012    16      4       1.585894        213.5709
2012    16      5       1.785344        223.1121
2012    16      6       1.800819        223.8361
2012    16      7       1.762192        221.8256
2012    17      0       1.778167        222.1406
2012    17      1       1.839081        224.9347
2012    17      2       1.751145        221.4997
2012    17      3       1.650192        216.8044
2012    17      4       1.553522        211.2201
2012    17      5       1.390418        201.6458
2012    17      6       1.277667        193.7404
2012    17      7       1.249242        191.4217
2012    18      0       0.9326608       163.7171
2012    18      1       0.6266681       127.4008
2012    18      2       0.4627982       102.9684
2012    18      3       0.2725719       68.35518
2012    18      4       0.1956355       52.3128
2012    18      5       0.2483346       63.28581
2012    18      6       0.3371118       81.20944
2012    18      7       0.371714        87.66306
2012    19      0       0.3360148       79.78744
2012    19      1       0.3609533       84.55555
2012    19      2       0.3836377       87.9483
2012    19      3       0.3908687       89.62895
2012    19      4       0.4704723       103.0479
2012    19      5       0.6177385       125.7902
2012    19      6       0.8874495       159.8512
2012    19      7       1.062151        177.7695
2012    20      0       0.8002317       151.6002
2012    20      1       0.4472682       102.0383
2012    20      2       0.3932052       92.04654
2012    20      3       0.3918799       90.68033
2012    20      4       0.393048        90.56506
2012    20      5       0.3891995       89.32168
2012    20      6       0.4570807       101.6535
2012    20      7       0.4790072       105.3671
2012    21      0       0.4404828       98.97994
2012    21      1       0.532021        114.3787
2012    21      2       0.5472056       117.0656
2012    21      3       0.4784797       106.4184
2012    21      4       0.4476678       101.6035
2012    21      5       0.4862146       108.1766
2012    21      6       0.4939368       109.5876
2012    21      7       0.4919231       108.9803
2012    22      0       0.5003144       110.0312
2012    22      1       0.5613543       119.3529
2012    22      2       0.6507139       131.9076
2012    22      3       0.7209487       140.8585
2012    22      4       0.7363243       142.6441
2012    22      5       0.7569705       145.1147
2012    22      6       0.8594021       156.9121
2012    22      7       0.8396012       154.7148
2012    23      0       0.729174        142.2535
2012    23      1       0.755247        144.7687
2012    23      2       0.8679296       157.0332
2012    23      3       0.9900389       168.7326
2012    23      4       0.9351991       162.6718
2012    23      5       0.8888674       156.8479
2012    23      6       0.7311778       139.7256
2012    23      7       0.5425867       114.7389
2012    24      0       0.3013776       73.956
2012    24      1       0.1676431       46.45852
2012    24      2       0.1368863       39.73512
2012    24      3       0.08568694      27.70797
2012    24      4       0.06688264      22.94093
2012    24      5       0.1049674       32.31771
2012    24      6       0.1476435       42.70928
2012    24      7       0.1425365       41.76881
2012    25      0       0.1314397       38.77656
2012    25      1       0.1471351       41.92527
2012    25      2       0.1452421       41.49245
2012    25      3       0.1298128       38.07284
2012    25      4       0.123707        36.68166
2012    25      5       0.1595445       44.86145
2012    25      6       0.2320528       61.04977
2012    25      7       0.2611681       67.0783
2012    26      0       0.2011295       53.79419
2012    26      1       0.2351554       60.85198
2012    26      2       0.1844364       50.47589
2012    26      3       0.1435206       41.56821
2012    26      4       0.1417261       41.18496
2012    26      5       0.1683381       47.23837
2012    26      6       0.2174583       58.09166
2012    26      7       0.2783958       70.42695
2012    27      0       0.1972787       53.25615
2012    27      1       0.2398711       61.21853
2012    27      2       0.370481        85.91066
2012    27      3       0.5461129       115.8706
2012    27      4       0.6860304       135.6804
2012    27      5       0.8344455       154.1981
2012    27      6       0.8161754       154.0437
2012    27      7       0.7657638       148.6384
2012    28      0       0.6835683       138.9319
2012    28      1       0.6238716       130.6584
2012    28      2       0.6628976       135.3889
2012    28      3       0.7341023       144.1332
2012    28      4       0.6601825       135.2884
2012    28      5       0.6499322       134.385
2012    28      6       0.6595769       136.2589
2012    28      7       0.6551704       135.7474
2012    29      0       0.6105199       129.2058
2012    29      1       0.5234959       115.7138
2012    29      2       0.4641303       105.8935
2012    29      3       0.4227546       98.64613
2012    29      4       0.3897375       92.34671
2012    29      5       0.3644519       87.59738
2012    29      6       0.4011613       95.26915
2012    29      7       0.4836562       110.2508
2012    30      0       0.3784906       91.26682
2012    30      1       0.3591806       87.16482
2012    30      2       0.4546314       103.9494
2012    30      3       0.6550129       133.4278
2012    30      4       0.7478132       145.5862
2012    30      5       0.8670182       159.695
2012    30      6       1.067941        179.7665
2012    30      7       1.140941        185.5139
2012    31      0       1.44089         206.7883
2012    31      1       1.868727        230.4637
2012    31      2       2.102002        241.1669
2012    31      3       2.141777        242.5231
2012    31      4       2.033006        239.2112
2012    31      5       1.922055        235.8594
2012    31      6       1.843963        232.1222
2012    31      7       1.772708        229.2875
2013    1       0       0.3084939       74.10642
2013    1       1       0.3449312       81.72869
2013    1       2       0.3643438       85.71852
2013    1       3       0.3268008       79.07763
2013    1       4       0.248193        64.2666
2013    1       5       0.2817673       71.02141
2013    1       6       0.3816024       89.56054
2013    1       7       0.3604179       85.58828
2013    2       0       0.2584013       65.80339
2013    2       1       0.1614554       45.1646
2013    2       2       0.1846301       49.34817
2013    2       3       0.2073692       53.94285
2013    2       4       0.2353006       59.92512
2013    2       5       0.3315986       78.80965
2013    2       6       0.3989022       91.25402
2013    2       7       0.3904375       89.79979
2013    3       0       0.3233854       77.55607
2013    3       1       0.3591422       84.54886
2013    3       2       0.4273259       96.10037
2013    3       3       0.4521128       99.18064
2013    3       4       0.2506694       63.70021
2013    3       5       0.2814534       68.36843
2013    3       6       0.5416419       111.6582
2013    3       7       0.679558        132.8224
2013    4       0       0.8031022       149.4522
2013    4       1       0.8079002       150.7856
2013    4       2       0.9056681       161.0759
2013    4       3       1.020912        173.5387
2013    4       4       1.10794         182.2519
2013    4       5       1.193856        190.5555
2013    4       6       1.092036        182.4042
2013    4       7       0.9500685       168.9764
2013    5       0       0.8133762       153.7895
2013    5       1       0.7242476       142.5082
2013    5       2       0.6434553       131.2709
2013    5       3       0.6122181       126.3144
2013    5       4       0.6530139       131.8742
2013    5       5       0.676123        135.1249
2013    5       6       0.5786381       121.3445
2013    5       7       0.5109431       112.1305
2013    6       0       0.472577        106.7059
2013    6       1       0.4894999       109.6038
2013    6       2       0.4871631       109.0228
2013    6       3       0.5220344       114.1606
2013    6       4       0.5583288       120.1563
2013    6       5       0.6255264       129.6247
2013    6       6       0.8817259       160.5401
2013    6       7       0.8926546       163.1893
2013    7       0       0.8174309       154.7968
2013    7       1       0.8231819       154.7466
2013    7       2       0.9009725       162.8452
2013    7       3       0.9823575       170.551
2013    7       4       1.41903         204.894
2013    7       5       1.490163        208.4745
2013    7       6       1.712979        220.8254
2013    7       7       1.879966        228.733
2013    8       0       1.888744        229.079
2013    8       1       1.748345        223.1103
2013    8       2       1.418763        205.0612
2013    8       3       1.061021        178.0044
2013    8       4       0.9253717       163.9833
2013    8       5       0.9816904       169.5399
2013    8       6       0.9810083       169.4305
2013    8       7       0.8619482       156.7526
2013    9       0       0.5773332       120.8126
2013    9       1       0.4190064       96.1506
2013    9       2       0.3887297       90.7892
2013    9       3       0.2904254       72.38871
2013    9       4       0.1673175       46.80645
2013    9       5       0.1620334       45.5871
2013    9       6       0.2956002       74.02452
2013    9       7       0.3065315       75.95631
2013    10      0       0.2896726       73.05924
2013    10      1       0.2632348       67.69492
2013    10      2       0.3189844       78.16802
2013    10      3       0.4263468       97.71802
2013    10      4       0.4298426       98.81234
2013    10      5       0.4914997       108.5549
2013    10      6       0.4720867       105.8769
2013    10      7       0.4403034       100.0383
2013    11      0       0.3439812       83.7084
2013    11      1       0.3119764       77.51315
2013    11      2       0.2929323       73.95783
2013    11      3       0.4680041       104.836
2013    11      4       0.5912796       123.4005
2013    11      5       0.6480041       132.4596
2013    11      6       0.6139351       127.8709
2013    11      7       0.6639208       135.496
2013    12      0       0.836719        156.5805
2013    12      1       1.111833        184.5077
2013    12      2       1.164742        188.5482
2013    12      3       1.220101        192.7891
2013    12      4       1.172308        189.1032
2013    12      5       1.152377        187.9211
2013    12      6       0.9736803       171.1854
2013    12      7       0.6806475       137.3983
2013    13      0       0.5298905       116.2268
2013    13      1       0.5478194       119.2723
2013    13      2       0.4866273       109.6313
2013    13      3       0.4269787       99.29799
2013    13      4       0.4384435       101.2662
2013    13      5       0.334003        82.245
2013    13      6       0.2854529       72.81315
2013    13      7       0.2648597       69.08879
2013    14      0       0.2983251       76.20344
2013    14      1       0.3182267       80.2418
2013    14      2       0.3476941       85.63487
2013    14      3       0.3629874       88.26863
2013    14      4       0.3654625       88.61561
2013    14      5       0.3689917       89.65631
2013    14      6       0.3620144       88.72328
2013    14      7       0.3811496       93.00408
2013    15      0       0.3950887       95.40097
2013    15      1       0.3701859       90.70125
2013    15      2       0.3390933       84.48247
2013    15      3       0.3109068       78.53865
2013    15      4       0.295423        75.27728
2013    15      5       0.2882839       73.84485
2013    15      6       0.3577223       87.83559
2013    15      7       0.4074989       97.15444
2013    16      0       0.3286033       82.14202
2013    16      1       0.2987699       75.96637
2013    16      2       0.2724559       70.40208
2013    16      3       0.2658094       68.8791
2013    16      4       0.2562118       66.83818
2013    16      5       0.2631278       68.3544
2013    16      6       0.3076199       77.62603
2013    16      7       0.2965538       75.4742
2013    17      0       0.2525661       66.3163
2013    17      1       0.2457672       64.28032
2013    17      2       0.2135034       56.89314
2013    17      3       0.1700035       47.33052
2013    17      4       0.1624237       45.91116
2013    17      5       0.1499062       43.15408
2013    17      6       0.1662495       47.49422
2013    17      7       0.1732389       49.27139
2013    18      0       0.1550169       44.83409
2013    18      1       0.1545175       44.47909
2013    18      2       0.1430118       41.55783
2013    18      3       0.1451349       41.92376
2013    18      4       0.1455526       41.95796
2013    18      5       0.1621333       45.67692
2013    18      6       0.2198809       58.66149
2013    18      7       0.2828946       72.12352
2013    19      0       0.2627765       67.66907
2013    19      1       0.2792378       70.96861
2013    19      2       0.3502257       84.75349
2013    19      3       0.4047135       94.93388
2013    19      4       0.38828         92.50583
2013    19      5       0.3612523       87.93985
2013    19      6       0.4009415       95.42124
2013    19      7       0.4362938       101.8451
2013    20      0       0.3784229       91.32331
2013    20      1       0.3750749       90.60607
2013    20      2       0.361317        87.6753
2013    20      3       0.3798809       90.35074
2013    20      4       0.4095863       95.40157
2013    20      5       0.4418151       101.272
2013    20      6       0.4830947       109.0893
2013    20      7       0.4555678       105.0892
2013    21      0       0.3754194       90.28407
2013    21      1       0.325626        80.73533
2013    21      2       0.3346627       81.96397
2013    21      3       0.4000705       94.19156
2013    21      4       0.5029518       110.6341
2013    21      5       0.5921516       123.9672
2013    21      6       0.7201252       140.7966
2013    21      7       0.8451685       155.3892
2013    22      0       0.8782703       158.5293
2013    22      1       0.8913643       160.6835
2013    22      2       0.7422541       144.2798
2013    22      3       0.660269        133.956
2013    22      4       0.5947539       124.8571
2013    22      5       0.5929664       124.8733
2013    22      6       0.7460259       145.5816
2013    22      7       0.935086        165.2164
2013    23      0       1.20968         188.7425
2013    23      1       1.062393        177.4582
2013    23      2       1.103747        181.178
2013    23      3       1.192585        188.6221
2013    23      4       1.203797        189.4792
2013    23      5       1.249757        193.1652
2013    23      6       1.251198        193.5097
2013    23      7       1.213578        190.4722
2013    24      0       1.087522        179.7248
2013    24      1       1.041118        175.0579
2013    24      2       1.126387        182.3304
2013    24      3       1.299356        195.1643
2013    24      4       1.28461         193.6387
2013    24      5       1.207363        188.5333
2013    24      6       1.197511        188.4025
2013    24      7       1.120985        182.4483
2013    25      0       0.8993693       161.6341
2013    25      1       0.8350508       154.5033
2013    25      2       0.8795813       159.3418
2013    25      3       0.9360667       165.0133
2013    25      4       0.9698403       168.1121
2013    25      5       0.9851343       169.2411
2013    25      6       1.245557        191.0744
2013    25      7       1.175255        185.188
2013    26      0       0.6955575       136.8542
2013    26      1       0.5496047       116.813
2013    26      2       0.4337282       97.65443
2013    26      3       0.4375689       97.44371
2013    26      4       0.3994131       90.82726
2013    26      5       0.4213132       94.90636
2013    26      6       0.4982195       108.6062
2013    26      7       0.5653283       119.9764
2013    27      0       0.5891271       123.5094
2013    27      1       0.5913855       124.6658
2013    27      2       0.5131189       113.6488
2013    27      3       0.4156584       97.61492
2013    27      4       0.3861177       92.04615
2013    27      5       0.4013044       94.28756
2013    27      6       0.3606671       87.23371
2013    27      7       0.3324503       82.03797
2013    28      0       0.3298831       81.56074
2013    28      1       0.2958809       75.0819
2013    28      2       0.2732505       70.55981
2013    28      3       0.2713707       70.05514
2013    28      4       0.264391        68.59945
2013    28      5       0.2616705       68.12694
2013    28      6       0.2731681       70.68377
2013    28      7       0.3121872       78.84591
2013    29      0       0.2188331       59.3266
2013    29      1       0.2347462       63.10285
2013    29      2       0.2749505       71.25168
2013    29      3       0.2746958       71.2287
2013    29      4       0.3316816       82.95892
2013    29      5       0.3321503       83.28965
2013    29      6       0.3613147       88.75845
2013    29      7       0.4178917       98.20847
2013    30      0       0.3467827       84.38375
2013    30      1       0.3917699       93.0041
2013    30      2       0.5440261       118.8636
2013    30      3       0.6351628       132.3018
2013    30      4       0.5850096       125.3905
2013    30      5       0.6118979       129.6619
2013    30      6       0.6067205       128.5934
2013    30      7       0.495878        111.2996
2013    31      0       0.3972929       93.71747
2013    31      1       0.4436263       100.8063
2013    31      2       0.4915637       109.5602
2013    31      3       0.5661101       120.9678
2013    31      4       0.5291521       114.7701
2013    31      5       0.4856606       108.5561
2013    31      6       0.5436904       118.0552
2013    31      7       0.549259        118.332
2014    1       0       0.5905108       126.2616
2014    1       1       0.506692        113.4068
2014    1       2       0.4013751       95.30283
2014    1       3       0.3591936       87.11318
2014    1       4       0.3252429       80.05532
2014    1       5       0.4001865       93.6882
2014    1       6       0.4221769       97.69781
2014    1       7       0.3947654       92.64674
2014    2       0       0.4916277       108.2094
2014    2       1       0.6344064       129.8924
2014    2       2       0.6469736       131.7058
2014    2       3       0.6002401       125.0348
2014    2       4       0.679339        136.4432
2014    2       5       0.7800518       149.7133
2014    2       6       0.7855811       151.0765
2014    2       7       0.7892511       151.5869
2014    3       0       0.7717997       149.4557
2014    3       1       0.7518203       146.9293
2014    3       2       0.6884569       138.6912
2014    3       3       0.6593875       134.9314
2014    3       4       0.6806455       138.2117
2014    3       5       0.7313018       145.2546
2014    3       6       0.7129587       142.5712
2014    3       7       0.5940643       125.8016
2014    4       0       0.4943273       110.2075
2014    4       1       0.4485785       102.7975
2014    4       2       0.4187395       97.87255
2014    4       3       0.4121707       96.72212
2014    4       4       0.3893378       92.51201
2014    4       5       0.3719642       88.84372
2014    4       6       0.3609661       87.2144
2014    4       7       0.3382431       82.989
2014    5       0       0.2887956       73.49015
2014    5       1       0.2617231       68.024
2014    5       2       0.2428516       63.73843
2014    5       3       0.2282865       60.61125
2014    5       4       0.2236875       59.72085
2014    5       5       0.2737458       69.98364
2014    5       6       0.3220901       79.70996
2014    5       7       0.3477741       83.38973
2014    6       0       0.3811249       88.76881
2014    6       1       0.43435         97.99408
2014    6       2       0.5030946       109.4196
2014    6       3       0.5990716       123.5795
2014    6       4       0.6052302       124.7521
2014    6       5       0.5464968       116.649
2014    6       6       0.4370207       98.56481
2014    6       7       0.3270383       78.31619
2014    7       0       0.262766        64.25412
2014    7       1       0.2261003       57.73982
2014    7       2       0.2122796       55.74341
2014    7       3       0.2010501       53.42114
2014    7       4       0.2087307       54.83885
2014    7       5       0.2597843       65.89209
2014    7       6       0.3343313       80.89054
2014    7       7       0.3709395       88.03602
2014    8       0       0.3612629       86.47682
2014    8       1       0.36627         87.55036
2014    8       2       0.3492876       84.56706
2014    8       3       0.2908556       73.71207
2014    8       4       0.2508609       65.72781
2014    8       5       0.2495959       65.36222
2014    8       6       0.2968475       74.98249
2014    8       7       0.3197521       79.62001
2014    9       0       0.2794693       71.58306
2014    9       1       0.2866287       73.0907
2014    9       2       0.3219613       80.03021
2014    9       3       0.4315248       100.3541
2014    9       4       0.4453265       102.9736
2014    9       5       0.4622586       105.5032
2014    9       6       0.4900494       109.827
2014    9       7       0.4157726       97.23348
2014    10      0       0.3849491       91.37577
2014    10      1       0.4546895       102.9129
2014    10      2       0.4486054       101.737
2014    10      3       0.372875        88.71633
2014    10      4       0.3751954       89.00535
2014    10      5       0.4069357       94.82792
2014    10      6       0.4590173       104.0616
2014    10      7       0.4761958       107.0991
2014    11      0       0.4545176       103.1776
2014    11      1       0.470872        105.7493
2014    11      2       0.4990724       110.1157
2014    11      3       0.547237        117.4697
2014    11      4       0.529418        114.9119
2014    11      5       0.4812228       107.9171
2014    11      6       0.4898093       109.624
2014    11      7       0.4912968       109.9064
2014    12      0       0.4125513       96.19056
2014    12      1       0.4238229       97.68297
2014    12      2       0.4240391       97.01353
2014    12      3       0.409042        94.23548
2014    12      4       0.3697562       87.44859
2014    12      5       0.3382059       81.7433
2014    12      6       0.3041186       75.92262
2014    12      7       0.2508385       65.10368
2014    13      0       0.1974962       53.5977
2014    13      1       0.1903447       52.08356
2014    13      2       0.1840042       50.565
2014    13      3       0.1757286       48.42435
2014    13      4       0.1963609       52.85374
2014    13      5       0.2256151       59.23253
2014    13      6       0.2573826       66.13499
2014    13      7       0.2638501       67.82175
2014    14      0       0.2264517       59.96251
2014    14      1       0.1845996       50.68392
2014    14      2       0.1674644       46.53459
2014    14      3       0.2199549       56.10717
2014    14      4       0.3322886       76.81738
2014    14      5       0.4876679       102.6153
2014    14      6       0.8172631       147.6116
2014    14      7       0.8051609       147.6778
2014    15      0       0.7115815       136.8582
2014    15      1       0.6747482       133.3407
2014    15      2       0.7332907       141.9506
2014    15      3       0.8383567       155.5615
2014    15      4       0.8751372       160.5283
2014    15      5       0.8828706       161.9986
2014    15      6       0.8971384       164.3155
2014    15      7       0.857251        160.2333
2014    16      0       0.8264863       156.4461
2014    16      1       0.7975359       152.8215
2014    16      2       0.8024782       153.2699
2014    16      3       0.8492537       158.5496
2014    16      4       0.8399473       157.4972
2014    16      5       0.7973587       152.7599
2014    16      6       0.7621547       149.0613
2014    16      7       0.7572619       148.5767
2014    17      0       0.6837905       138.9141
2014    17      1       0.625266        131.0574
2014    17      2       0.5530949       120.563
2014    17      3       0.4692084       107.3815
2014    17      4       0.3571239       87.72326
2014    17      5       0.3253677       81.93365
2014    17      6       0.3586186       88.52082
2014    17      7       0.4241626       100.8291
2014    18      0       0.4142977       99.19496
2014    18      1       0.3842832       93.56378
2014    18      2       0.3491615       86.99671
2014    18      3       0.3037623       78.12855
2014    18      4       0.2756128       72.39037
2014    18      5       0.2471691       66.44307
2014    18      6       0.2589306       69.17048
2014    18      7       0.3257331       83.06207
2014    19      0       0.3103264       79.79832
2014    19      1       0.3092999       79.61836
2014    19      2       0.3163163       80.79413
2014    19      3       0.2986171       77.09559
2014    19      4       0.29734         76.84982
2014    19      5       0.2885696       75.06754
2014    19      6       0.3021904       78.05738
2014    19      7       0.3070208       79.01596
2014    20      0       0.2713969       71.28744
2014    20      1       0.2965768       76.17446
2014    20      2       0.3125252       78.79588
2014    20      3       0.3979771       94.31473
2014    20      4       0.497181        111.2799
2014    20      5       0.4371446       101.8871
2014    20      6       0.3883442       93.46636
2014    20      7       0.3544576       86.91036
2014    21      0       0.3461947       85.46709
2014    21      1       0.3770869       91.40489
2014    21      2       0.4450253       103.4891
2014    21      3       0.45614         105.4815
2014    21      4       0.4407343       102.7972
2014    21      5       0.4510253       104.63
2014    21      6       0.4592012       106.3111
2014    21      7       0.4592544       106.5143
2014    22      0       0.4626184       106.3871
2014    22      1       0.58017         124.6454
2014    22      2       0.7496754       147.3505
2014    22      3       0.835539        156.9918
2014    22      4       0.8726793       161.2268
2014    22      5       0.904503        164.734
2014    22      6       1.004212        175.0105
2014    22      7       1.017364        176.1647
2014    23      0       0.8336221       156.9158
2014    23      1       0.8447761       157.6601
2014    23      2       0.7666516       148.0475
2014    23      3       0.7477476       145.0456
2014    23      4       0.6698617       134.2898
2014    23      5       0.5997103       124.2938
2014    23      6       0.5460711       116.3554
2014    23      7       0.5150224       111.7344
2014    24      0       0.4732892       104.9329
2014    24      1       0.5069459       110.4934
2014    24      2       0.5462333       116.3191
2014    24      3       0.4196199       95.53649
2014    24      4       0.2552537       65.04066
2014    24      5       0.2374954       61.39244
2014    24      6       0.2375874       61.47322
2014    24      7       0.1871714       50.65175
2014    25      0       0.1545782       43.40745
2014    25      1       0.1557964       43.78768
2014    25      2       0.17324         47.79289
2014    25      3       0.1849351       50.30835
2014    25      4       0.1926366       51.95393
2014    25      5       0.2285229       59.6715
2014    25      6       0.2788695       70.00118
2014    25      7       0.3438625       82.91327
2014    26      0       0.3342012       81.0308
2014    26      1       0.3432012       82.56549
2014    26      2       0.337249        81.10547
2014    26      3       0.379953        88.83307
2014    26      4       0.5015557       109.5421
2014    26      5       0.6349459       129.7564
2014    26      6       0.6106192       127.1772
2014    26      7       0.5744396       122.3277
2014    27      0       0.4916718       108.9488
2014    27      1       0.4623288       103.9575
2014    27      2       0.4514045       101.6576
2014    27      3       0.5164573       111.5112
2014    27      4       0.5689052       118.6981
2014    27      5       0.6012497       124.057
2014    27      6       0.5874423       122.744
2014    27      7       0.5426495       115.5101
2014    28      0       0.5709525       117.6776
2014    28      1       0.8655367       153.8676
2014    28      2       1.015823        170.0246
2014    28      3       0.8790944       156.7243
2014    28      4       0.7241978       140.0067
2014    28      5       0.7377592       142.3897
2014    28      6       0.8554494       157.7856
2014    28      7       0.9263319       165.6724
2014    29      0       0.9194601       164.2578
2014    29      1       0.91894         164.4156
2014    29      2       0.870498        159.0534
2014    29      3       0.8489742       156.5415
2014    29      4       0.8900965       161.9023
2014    29      5       1.037711        177.532
2014    29      6       1.145885        187.2702
2014    29      7       1.122345        184.808
2014    30      0       1.102934        182.3305
2014    30      1       1.124452        183.1762
2014    30      2       1.107206        180.7039
2014    30      3       0.7415646       144.1022
2014    30      4       0.6478332       132.1834
2014    30      5       0.5959066       124.6725
2014    30      6       0.6222022       128.1157
2014    30      7       0.5998816       125.091
2014    31      0       0.5131449       111.2321
2014    31      1       0.4625838       103.2105
2014    31      2       0.6700579       134.2467
2014    31      3       0.8182607       151.345
2014    31      4       0.9476992       165.5107
2014    31      5       1.01364         173.5925
2014    31      6       1.1247          183.8468
2014    31      7       1.12609         184.1672
2015    1       0       0.551896        115.2597
2015    1       1       0.5166591       110.7167
2015    1       2       0.526066        113.1375
2015    1       3       0.5815169       122.0598
2015    1       4       0.6552031       133.001
2015    1       5       0.7962832       150.7509
2015    1       6       1.014327        174.8212
2015    1       7       1.015076        174.4404
2015    2       0       0.9973696       172.6427
2015    2       1       0.9091853       163.7429
2015    2       2       0.8976691       161.8771
2015    2       3       0.9326773       165.3586
2015    2       4       0.9360283       165.6858
2015    2       5       1.191639        188.4931
2015    2       6       1.308086        196.7265
2015    2       7       1.174042        187.8865
2015    3       0       1.129818        182.386
2015    3       1       0.9303528       164.0151
2015    3       2       0.8430301       154.7322
2015    3       3       0.8804127       158.4059
2015    3       4       1.015953        171.9563
2015    3       5       1.041157        174.788
2015    3       6       0.8582291       157.0997
2015    3       7       0.7520162       145.2309
2015    4       0       0.848309        156.2595
2015    4       1       0.9873711       170.3152
2015    4       2       1.048877        175.5717
2015    4       3       1.113454        180.8133
2015    4       4       1.064308        177.436
2015    4       5       0.9722322       170.1409
2015    4       6       1.01805         174.8697
2015    4       7       1.100461        182.1731
2015    5       0       1.129468        183.7467
2015    5       1       1.404866        203.2301
2015    5       2       1.677311        218.7503
2015    5       3       1.759711        223.2467
2015    5       4       1.751538        222.1837
2015    5       5       1.843781        226.5691
2015    5       6       1.611437        215.8295
2015    5       7       1.453193        205.8001
2015    6       0       1.449692        205.9546
2015    6       1       1.595868        215.0244
2015    6       2       1.745893        223.4719
2015    6       3       1.968218        233.4751
2015    6       4       2.117134        238.8856
2015    6       5       2.672264        253.0593
2015    6       6       2.239402        242.1267
2015    6       7       2.231527        242.6353
2015    7       0       2.212019        242.3867
2015    7       1       1.849056        229.2689
2015    7       2       1.62256         218.2173
2015    7       3       1.468671        209.786
2015    7       4       1.1371          185.2904
2015    7       5       1.234354        192.0005
2015    7       6       1.354845        200.4066
2015    7       7       1.629813        216.6532
2015    8       0       1.649862        217.9176
2015    8       1       1.945177        231.446
2015    8       2       2.049434        234.8526
2015    8       3       2.0373          233.3024
2015    8       4       2.084109        235.4256
2015    8       5       1.916361        228.8226
2015    8       6       1.857748        226.4183
2015    8       7       1.851624        225.9608
2015    9       0       1.756913        221.7857
2015    9       1       1.713138        219.9863
2015    9       2       1.714171        219.9805
2015    9       3       1.619926        215.0439
2015    9       4       1.585056        212.826
2015    9       5       1.529738        208.9765
2015    9       6       1.415929        201.1852
2015    9       7       1.174814        184.5447
2015    10      0       0.8975596       158.8548
2015    10      1       1.031129        171.7772
2015    10      2       1.409462        199.8403
2015    10      3       1.442838        202.3383
2015    10      4       1.149869        182.2687
2015    10      5       0.9847855       167.367
2015    10      6       1.010513        169.3316
2015    10      7       1.355631        195.9069
2015    11      0       1.502958        205.1775
2015    11      1       1.544925        208.0187
2015    11      2       1.61163         212.0167
2015    11      3       1.649749        214.2639
2015    11      4       1.634137        213.5373
2015    11      5       1.615851        212.8195
2015    11      6       1.646645        215.1624
2015    11      7       1.836953        223.804
2015    12      0       1.832447        223.7097
2015    12      1       1.788033        221.6011
2015    12      2       1.675066        216.1931
2015    12      3       1.489338        205.9244
2015    12      4       1.35647         197.1522
2015    12      5       1.420181        201.4433
2015    12      6       1.28684         193.1042
2015    12      7       1.261555        191.4767
2015    13      0       0.8560868       154.8493
2015    13      1       0.7112455       137.8053
2015    13      2       0.7326813       140.6873
2015    13      3       0.6240438       126.5133
2015    13      4       0.5136972       110.5581
2015    13      5       0.4221562       95.89431
2015    13      6       0.4981003       108.5576
2015    13      7       0.5104287       110.7618
2015    14      0       0.413739        94.68869
2015    14      1       0.4312804       97.07381
2015    14      2       0.5272951       111.9336
2015    14      3       0.5586995       116.234
2015    14      4       0.5492041       114.754
2015    14      5       0.5463607       114.6714
2015    14      6       0.4596772       101.9643
2015    14      7       0.4447588       99.05889
2015    15      0       0.4520959       99.00891
2015    15      1       0.4829519       103.5682
2015    15      2       0.5153149       108.2899
2015    15      3       0.5520701       114.0263
2015    15      4       0.6661802       130.1525
2015    15      5       0.6186782       124.4608
2015    15      6       0.6359469       126.8816
2015    15      7       0.6795526       133.5552
2015    16      0       0.6373754       127.4168
2015    16      1       0.6485076       128.7817
2015    16      2       0.6219163       125.2503
2015    16      3       0.5994236       121.915
2015    16      4       0.6958645       134.883
2015    16      5       0.8748226       156.2291
2015    16      6       1.059105        175.2874
2015    16      7       0.9960206       169.2026
2015    17      0       0.6390954       129.3589
2015    17      1       0.5326542       114.1542
2015    17      2       0.6585872       131.8839
2015    17      3       0.8849721       158.5802
2015    17      4       0.9829098       169.2266
2015    17      5       0.8218894       153.5813
2015    17      6       0.813273        153.5892
2015    17      7       0.8086103       153.9409
2015    18      0       0.6900859       139.5043
2015    18      1       0.5482221       119.2727
2015    18      2       0.4497733       103.035
2015    18      3       0.3897596       92.07338
2015    18      4       0.333456        81.51821
2015    18      5       0.2867221       72.36488
2015    18      6       0.2748567       70.2804
2015    18      7       0.2710492       69.50627
2015    19      0       0.2770917       70.28387
2015    19      1       0.3340548       80.38079
2015    19      2       0.333483        80.79818
2015    19      3       0.5334328       115.2613
2015    19      4       0.5779315       122.5726
2015    19      5       0.7514629       144.9163
2015    19      6       1.453591        206.6148
2015    19      7       2.097112        236.9152
2015    20      0       1.869806        231.1565
2015    20      1       1.427647        207.8682
2015    20      2       1.200136        190.8713
2015    20      3       0.9679409       170.3199
2015    20      4       0.6545548       133.7253
2015    20      5       0.4907068       109.0709
2015    20      6       0.6656873       133.4809
2015    20      7       0.7204027       141.318
2015    21      0       0.5889672       122.5675
2015    21      1       0.4398232       99.84754
2015    21      2       0.3988574       92.95664
2015    21      3       0.4260034       97.5219
2015    21      4       0.4734442       105.4192
2015    21      5       0.5763403       121.4068
2015    21      6       0.6195168       127.8564
2015    21      7       0.5387689       116.0189
2015    22      0       0.4575706       102.4293
2015    22      1       0.4206237       96.42992
2015    22      2       0.428666        97.27474
2015    22      3       0.420848        95.92625
2015    22      4       0.4268553       96.76749
2015    22      5       0.5149374       110.7342
2015    22      6       0.6291528       127.7498
2015    22      7       0.7230981       139.0637
2015    23      0       0.6011379       123.5603
2015    23      1       0.6178289       126.1218
2015    23      2       0.7089365       138.1401
2015    23      3       0.6923722       136.447
2015    23      4       0.7084695       138.7877
2015    23      5       0.8286407       154.648
2015    23      6       0.9869287       172.477
2015    23      7       1.085189        181.3446
2015    24      0       1.159978        187.6526
2015    24      1       1.197669        190.9249
2015    24      2       1.079918        181.5283
2015    24      3       1.011826        175.3618
2015    24      4       0.9643231       170.7061
2015    24      5       0.919583        166.2239
2015    24      6       0.9523763       169.9637
2015    24      7       0.9442663       169.2229
2015    25      0       0.8300436       156.6296
2015    25      1       0.9081368       164.7939
2015    25      2       1.005701        174.773
2015    25      3       1.118353        184.822
2015    25      4       1.271843        196.4304
2015    25      5       1.449           207.5523
2015    25      6       1.429123        206.0128
2015    25      7       1.182361        188.1989
2015    26      0       0.609254        127.009
2015    26      1       0.3483936       84.31879
2015    26      2       0.3936379       91.65458
2015    26      3       0.3471419       83.25559
2015    26      4       0.1941116       51.66458
2015    26      5       0.2236419       58.2536
2015    26      6       0.3118155       75.95629
2015    26      7       0.379109        88.97831
2015    27      0       0.3719692       86.63924
2015    27      1       0.461737        101.9465
2015    27      2       0.5014325       108.3062
2015    27      3       0.6261358       126.2277
2015    27      4       0.9856976       167.8353
2015    27      5       1.242207        192.4952
2015    27      6       1.38005         202.9808
2015    27      7       1.563703        215.5233
2015    28      0       1.213253        192.8261
2015    28      1       1.294484        197.9322
2015    28      2       1.416098        206.49
2015    28      3       0.9930325       173.0887
2015    28      4       0.9823583       171.7001
2015    28      5       0.8889902       162.06
2015    28      6       0.759663        148.3843
2015    28      7       0.7098835       142.4645
2015    29      0       0.6492457       134.3046
2015    29      1       0.63429         132.0749
2015    29      2       0.657748        135.41
2015    29      3       0.6917903       140.2259
2015    29      4       0.6780615       138.7636
2015    29      5       0.6326489       132.8043
2015    29      6       0.5798171       125.6059
2015    29      7       0.5450147       120.1711
2015    30      0       0.5446592       119.5132
2015    30      1       0.5358829       118.1463
2015    30      2       0.5514523       120.4913
2015    30      3       0.6389347       133.8071
2015    30      4       0.6492262       135.7229
2015    30      5       0.5971347       128.4001
2015    30      6       0.5701195       124.2932
2015    30      7       0.5262608       117.124
2015    31      0       0.4379814       101.6739
2015    31      1       0.4166934       97.613
2015    31      2       0.4298156       99.716
2015    31      3       0.4618408       105.2279
2015    31      4       0.5188545       114.8951
2015    31      5       0.6263055       131.2565
2015    31      6       0.716239        143.9716
2015    31      7       0.7330641       146.8267
2016    1       0       0.2540288       65.55203
2016    1       1       0.2537758       65.82635
2016    1       2       0.3351018       82.17157
2016    1       3       0.3718285       89.28197
2016    1       4       0.3447291       84.08717
2016    1       5       0.3362779       82.44067
2016    1       6       0.4031904       94.99861
2016    1       7       0.4003637       94.50446
2016    2       0       0.322599        79.64217
2016    2       1       0.271974        69.17578
2016    2       2       0.2528311       64.95015
2016    2       3       0.2784152       69.90547
2016    2       4       0.2922357       73.1106
2016    2       5       0.358134        85.46839
2016    2       6       0.4350378       99.35692
2016    2       7       0.4404112       100.9367
2016    3       0       0.375814        89.27966
2016    3       1       0.3437007       83.25801
2016    3       2       0.340299        82.4979
2016    3       3       0.3879007       90.82536
2016    3       4       0.4068143       94.17651
2016    3       5       0.4060194       94.69762
2016    3       6       0.426906        98.75774
2016    3       7       0.412138        96.20258
2016    4       0       0.3028179       75.42651
2016    4       1       0.3014328       74.75681
2016    4       2       0.2991586       74.74513
2016    4       3       0.299314        75.03896
2016    4       4       0.3061011       76.62741
2016    4       5       0.3397732       83.26753
2016    4       6       0.4191932       98.02458
2016    4       7       0.4309321       100.179
2016    5       0       0.3586596       86.77335
2016    5       1       0.393137        92.82447
2016    5       2       0.4151707       96.46369
2016    5       3       0.3999762       93.61555
2016    5       4       0.4502862       102.4133
2016    5       5       0.5373646       116.1959
2016    5       6       0.6260271       129.4865
2016    5       7       0.6297201       130.1386
2016    6       0       0.6131256       127.4937
2016    6       1       0.6300825       129.6628
2016    6       2       0.6112205       126.613
2016    6       3       0.655874        131.9043
2016    6       4       0.5997155       124.0873
2016    6       5       0.5297619       114.2381
2016    6       6       0.6238275       129.1868
2016    6       7       0.7412269       145.6101
2016    7       0       0.8134763       154.6071
2016    7       1       0.9333845       168.6706
2016    7       2       0.8615871       160.9145
2016    7       3       0.902874        165.1771
2016    7       4       1.034556        177.6883
2016    7       5       1.164824        188.7538
2016    7       6       1.210534        192.2911
2016    7       7       1.234144        193.1952
2016    8       0       1.002386        174.0812
2016    8       1       0.7498095       147.3092
2016    8       2       0.5818101       124.5554
2016    8       3       0.5777026       123.5326
2016    8       4       0.5467705       118.6544
2016    8       5       0.5218567       114.5497
2016    8       6       0.558592        120.782
2016    8       7       0.5818657       124.6819
2016    9       0       0.4788966       108.5515
2016    9       1       0.3967193       94.36673
2016    9       2       0.3477064       85.54946
2016    9       3       0.3312963       82.5464
2016    9       4       0.3292335       82.03834
2016    9       5       0.3391167       83.71266
2016    9       6       0.444588        102.8845
2016    9       7       0.5201536       115.5439
2016    10      0       0.5190965       115.0255
2016    10      1       0.470039        106.5965
2016    10      2       0.4429817       101.9888
2016    10      3       0.4183699       97.82156
2016    10      4       0.3985493       94.34029
2016    10      5       0.3638773       88.44172
2016    10      6       0.4068883       96.50144
2016    10      7       0.470453        107.5413
2016    11      0       0.3998794       94.57908
2016    11      1       0.3751698       89.84719
2016    11      2       0.3855915       91.43308
2016    11      3       0.3572134       85.52452
2016    11      4       0.3604337       85.59569
2016    11      5       0.4232749       96.59051
2016    11      6       0.4556267       103.4786
2016    11      7       0.4545878       103.4223
2016    12      0       0.447239        101.346
2016    12      1       0.4724201       105.6125
2016    12      2       0.5370835       115.8455
2016    12      3       0.6236872       127.3951
2016    12      4       0.7640056       145.5138
2016    12      5       0.7775311       149.1442
2016    12      6       0.8465185       158.2558
2016    12      7       0.8702293       161.1123
2016    13      0       0.7530907       146.9026
2016    13      1       0.6549246       133.1586
2016    13      2       0.646264        130.292
2016    13      3       0.7183351       138.7355
2016    13      4       0.7748503       146.8142
2016    13      5       0.816553        153.7927
2016    13      6       0.7804498       151.0688
2016    13      7       0.7812073       151.0236
2016    14      0       0.7917613       151.8017
2016    14      1       0.8223818       155.9333
2016    14      2       0.7793521       150.4865
2016    14      3       0.7337546       144.5616
2016    14      4       0.8926041       163.2731
2016    14      5       0.9343002       169.0567
2016    14      6       0.8871629       164.5509
2016    14      7       0.9007044       165.7779
2016    15      0       0.8741633       161.6021
2016    15      1       0.8872136       162.8037
2016    15      2       0.8545085       158.7336
2016    15      3       0.8753858       161.0334
2016    15      4       0.7249176       143.4834
2016    15      5       0.6769566       137.424
2016    15      6       0.7565863       147.9112
2016    15      7       0.7118525       142.3945
2016    16      0       0.7112738       141.8881
2016    16      1       0.7251946       143.3348
2016    16      2       0.6556979       133.6916
2016    16      3       0.5268505       114.7192
2016    16      4       0.4955869       109.8641
2016    16      5       0.4486802       102.8353
2016    16      6       0.5077399       112.5557
2016    16      7       0.5572899       120.7441
2016    17      0       0.4072381       95.98045
2016    17      1       0.3580323       87.03655
2016    17      2       0.3321976       81.80076
2016    17      3       0.2814156       71.2712
2016    17      4       0.2117577       56.32979
2016    17      5       0.2172075       57.42767
2016    17      6       0.2410491       62.17236
2016    17      7       0.2205406       57.56198
2016    18      0       0.2054155       53.98745
2016    18      1       0.2174432       56.6287
2016    18      2       0.1963069       52.60927
2016    18      3       0.2260641       58.93251
2016    18      4       0.213123        56.33634
2016    18      5       0.2029369       54.58316
2016    18      6       0.2568165       65.76746
2016    18      7       0.2765049       69.53844
2016    19      0       0.2388723       61.9597
2016    19      1       0.2154515       57.07112
2016    19      2       0.2297402       59.51665
2016    19      3       0.2916053       71.03162
2016    19      4       0.3778982       86.26918
2016    19      5       0.3621642       84.28737
2016    19      6       0.4666029       101.8606
2016    19      7       0.6267275       125.7381
2016    20      0       0.5448221       114.2552
2016    20      1       0.4236168       95.72564
2016    20      2       0.3681323       86.21274
2016    20      3       0.2036976       54.38834
2016    20      4       0.1592615       44.49679
2016    20      5       0.1883582       51.1873
2016    20      6       0.2240443       59.40202
2016    20      7       0.2694402       68.76879
2016    21      0       0.365908        87.73464
2016    21      1       0.3363235       83.3003
2016    21      2       0.2858291       73.0754
2016    21      3       0.2644216       68.66497
2016    21      4       0.3211396       79.09719
2016    21      5       0.2820727       73.0676
2016    21      6       0.2847355       73.72426
2016    21      7       0.2869098       74.03213
2016    22      0       0.2864928       73.98587
2016    22      1       0.263882        69.33169
2016    22      2       0.2212375       60.24782
2016    22      3       0.1843874       52.09664
2016    22      4       0.1868595       52.68743
2016    22      5       0.226402        61.61819
2016    22      6       0.2559586       67.88192
2016    22      7       0.2666208       69.86804
2016    23      0       0.3069145       78.12148
2016    23      1       0.4495871       103.7012
2016    23      2       0.4867738       109.9162
2016    23      3       0.7268713       142.3678
2016    23      4       0.9111377       163.8101
2016    23      5       0.8893644       163.163
2016    23      6       1.082249        182.7173
2016    23      7       1.414104        206.7798
2016    24      0       0.9323016       167.3548
2016    24      1       0.5714565       122.3541
2016    24      2       0.54332         117.9929
2016    24      3       0.5236193       114.9549
2016    24      4       0.4333163       100.6529
2016    24      5       0.4279244       99.89338
2016    24      6       0.4291049       100.0514
2016    24      7       0.3515197       85.71392
2016    25      0       0.3052555       76.31104
2016    25      1       0.2842749       71.86686
2016    25      2       0.274744        69.87925
2016    25      3       0.2637611       67.55814
2016    25      4       0.2318149       60.92709
2016    25      5       0.2162614       57.86782
2016    25      6       0.2560014       66.70119
2016    25      7       0.2735851       70.65408
2016    26      0       0.1998696       54.60319
2016    26      1       0.2071822       56.27475
2016    26      2       0.2593528       67.39218
2016    26      3       0.2969896       74.70345
2016    26      4       0.3076309       76.73795
2016    26      5       0.3829999       90.44199
2016    26      6       0.5762577       120.9842
2016    26      7       0.7267421       140.0622
2016    27      0       0.8926892       158.1597
2016    27      1       1.147429        182.1938
2016    27      2       1.240101        190.1294
2016    27      3       0.9027828       161.8747
2016    27      4       0.7527845       144.6493
2016    27      5       0.6453869       131.6481
2016    27      6       0.7584732       145.9788
2016    27      7       0.7913708       149.1723
2016    28      0       0.7336568       141.34
2016    28      1       1.077565        177.0078
2016    28      2       1.541602        209.0455
2016    28      3       1.495509        206.1165
2016    28      4       1.20602         186.6108
2016    28      5       1.181215        185.1522
2016    28      6       1.21676         188.8717
2016    28      7       1.191634        186.6112
2016    29      0       0.8539719       156.3639
2016    29      1       0.7190338       140.9688
2016    29      2       0.6524529       132.6199
2016    29      3       0.5235177       114.0718
2016    29      4       0.4602897       104.042
2016    29      5       0.4500894       102.6486
2016    29      6       0.5492631       119.195
2016    29      7       0.6566725       135.1486
2016    30      0       0.6324567       131.8149
2016    30      1       0.6970822       140.6291
2016    30      2       0.7230797       143.7331
2016    30      3       0.7620457       148.2594
2016    30      4       0.7316753       144.7007
2016    30      5       0.7024091       140.7078
2016    30      6       0.6639314       136.762
2016    30      7       0.6328004       132.7575
2016    31      0       0.5990747       127.3528
2016    31      1       0.6162746       129.274
2016    31      2       0.7086711       141.9028
2016    31      3       0.8331546       157.1479
2016    31      4       0.9214804       166.4914
2016    31      5       1.002382        173.91
2016    31      6       1.020535        175.8941
2016    31      7       1.086486        181.7264
2017    1       0       0.4981193       109.9558
2017    1       1       0.6075875       126.6978
2017    1       2       0.5963794       124.7226
2017    1       3       0.5605944       119.1796
2017    1       4       0.6567697       132.2782
2017    1       5       0.7056621       138.4292
2017    1       6       0.7142489       139.5183
2017    1       7       0.6661021       133.2432
2017    2       0       0.5266288       113.1632
2017    2       1       0.4453498       100.0484
2017    2       2       0.3405995       81.83119
2017    2       3       0.2518314       65.05671
2017    2       4       0.2381444       62.62013
2017    2       5       0.2380711       62.88206
2017    2       6       0.2125872       57.5999
2017    2       7       0.1821741       50.77101
2017    3       0       0.2082922       56.65
2017    3       1       0.1919699       53.19627
2017    3       2       0.1854449       51.54133
2017    3       3       0.2337999       62.25698
2017    3       4       0.336628        82.58318
2017    3       5       0.3243815       80.17924
2017    3       6       0.3094631       77.0931
2017    3       7       0.2671882       68.58266
2017    4       0       0.2398603       62.57717
2017    4       1       0.2401407       62.58521
2017    4       2       0.2690011       68.62184
2017    4       3       0.297871        74.47743
2017    4       4       0.289895        73.07728
2017    4       5       0.2822699       71.63312
2017    4       6       0.2803605       71.69249
2017    4       7       0.2856272       72.64562
2017    5       0       0.2781526       71.33368
2017    5       1       0.2994309       74.97738
2017    5       2       0.3633936       87.00411
2017    5       3       0.4539094       102.6991
2017    5       4       0.5479166       118.3765
2017    5       5       0.6380619       132.0417
2017    5       6       0.6804683       137.8588
2017    5       7       0.6611478       135.0722
2017    6       0       0.7443631       147.6415
2017    6       1       0.5154629       113.55
2017    6       2       0.5153741       112.8873
2017    6       3       0.477268        106.1585
2017    6       4       0.4462483       100.7115
2017    6       5       0.4114499       94.57066
2017    6       6       0.4108785       94.04979
2017    6       7       0.3854042       88.95384
2017    7       0       0.2963274       73.02047
2017    7       1       0.2312424       60.02227
2017    7       2       0.2689279       66.863
2017    7       3       0.2512303       63.10239
2017    7       4       0.3068966       73.99301
2017    7       5       0.4309283       96.89541
2017    7       6       0.413877        94.92683
2017    7       7       0.484709        106.2037
2017    8       0       0.6814811       132.9624
2017    8       1       0.6499055       132.2154
2017    8       2       0.684037        136.6074
2017    8       3       0.7536487       145.2885
2017    8       4       0.6305243       130.1101
2017    8       5       0.463164        104.6285
2017    8       6       0.3976804       93.61132
2017    8       7       0.3767112       90.23356
2017    9       0       0.422443        98.15703
2017    9       1       0.5599089       120.1002
2017    9       2       0.7173419       141.594
2017    9       3       0.7649134       147.1789
2017    9       4       0.8786039       160.1423
2017    9       5       1.043404        176.8855
2017    9       6       1.078118        179.9444
2017    9       7       1.055905        177.6196
2017    10      0       0.9656396       169.0742
2017    10      1       0.9092397       163.035
2017    10      2       0.9050194       162.2123
2017    10      3       0.9954271       171.036
2017    10      4       0.9628956       167.8744
2017    10      5       0.9381457       165.6164
2017    10      6       1.116087        181.6272
2017    10      7       1.563274        212.5728
2017    11      0       1.33935         196.7839
2017    11      1       1.172358        184.6024
2017    11      2       1.115974        179.5566
2017    11      3       1.117582        179.7881
2017    11      4       1.187162        185.3412
2017    11      5       1.396306        200.167
2017    11      6       1.320803        194.8335
2017    11      7       1.313968        194.3383
2017    12      0       1.228203        188.0837
2017    12      1       1.130115        179.9001
2017    12      2       1.128501        179.1964
2017    12      3       1.11998         177.8227
2017    12      4       0.9494276       161.8223
2017    12      5       0.7670994       142.0012
2017    12      6       0.7760152       143.1795
2017    12      7       0.7905035       145.7766
2017    13      0       0.5371263       112.9604
2017    13      1       0.4699424       102.6218
2017    13      2       0.4481247       99.55372
2017    13      3       0.4427955       98.91728
2017    13      4       0.6426765       128.2371
2017    13      5       0.775518        145.9487
2017    13      6       0.8073743       150.9198
2017    13      7       0.8201917       153.283
2017    14      0       0.7173783       141.4921
2017    14      1       0.5836975       123.2257
2017    14      2       0.5933963       124.6293
2017    14      3       0.5121076       112.2217
2017    14      4       0.4316697       98.9286
2017    14      5       0.3603002       86.48338
2017    14      6       0.3238923       80.14084
2017    14      7       0.2403928       63.5302
2017    15      0       0.2011499       54.78325
2017    15      1       0.2612217       66.949
2017    15      2       0.2760737       69.59116
2017    15      3       0.2948273       72.92913
2017    15      4       0.3709797       86.51539
2017    15      5       0.4976036       107.0568
2017    15      6       0.673604        132.8859
2017    15      7       0.673202        133.6476
2017    16      0       0.5535507       117.1772
2017    16      1       0.5592607       118.2256
2017    16      2       0.5563054       118.1302
2017    16      3       0.4345879       97.59781
2017    16      4       0.5301623       114.6285
2017    16      5       0.4743683       106.4152
2017    16      6       0.4871383       109.2048
2017    16      7       0.4847701       109.1052
2017    17      0       0.4646279       105.5082
2017    17      1       0.4908122       109.4683
2017    17      2       0.5307635       115.3405
2017    17      3       0.516528        112.8177
2017    17      4       0.4033024       94.4745
2017    17      5       0.3895731       92.20834
2017    17      6       0.3930719       93.32873
2017    17      7       0.3514381       85.78882
2017    18      0       0.3307089       81.62803
2017    18      1       0.3350051       82.18896
2017    18      2       0.3745219       88.71628
2017    18      3       0.3560224       84.7786
2017    18      4       0.3376306       81.43416
2017    18      5       0.3936666       91.36339
2017    18      6       0.4063454       94.50417
2017    18      7       0.3699672       88.22298
2017    19      0       0.2983741       74.59548
2017    19      1       0.3896321       89.95847
2017    19      2       0.5898179       121.5727
2017    19      3       0.8503538       155.2011
2017    19      4       0.9513813       166.8116
2017    19      5       0.8058377       151.7471
2017    19      6       0.6974992       138.2247
2017    19      7       0.4776453       106.1373
2017    20      0       0.2445039       64.12131
2017    20      1       0.2761964       70.53763
2017    20      2       0.2643919       67.49704
2017    20      3       0.3086726       75.27096
2017    20      4       0.3821253       88.28888
2017    20      5       0.4983547       108.4037
2017    20      6       0.54503         117.0738
2017    20      7       0.4959658       110.0339
2017    21      0       0.4068197       95.4469
2017    21      1       0.3832024       91.647
2017    21      2       0.3759381       90.85137
2017    21      3       0.4073763       96.77855
2017    21      4       0.4368044       101.8848
2017    21      5       0.448943        103.642
2017    21      6       0.343719        84.83249
2017    21      7       0.2823987       72.95438
2017    22      0       0.2474331       65.42199
2017    22      1       0.2460224       64.90045
2017    22      2       0.2674423       69.45673
2017    22      3       0.2908554       74.28669
2017    22      4       0.3184414       79.8087
2017    22      5       0.3933466       93.74015
2017    22      6       0.4967866       111.0515
2017    22      7       0.4706913       105.9549
2017    23      0       0.441439        100.7833
2017    23      1       0.4335417       99.37742
2017    23      2       0.5043191       110.6311
2017    23      3       0.6660938       133.0811
2017    23      4       0.6595233       132.1318
2017    23      5       0.6059103       125.6327
2017    23      6       0.6293124       129.027
2017    23      7       0.5612466       119.2271
2017    24      0       0.517353        112.3514
2017    24      1       0.4866773       107.3248
2017    24      2       0.4104166       94.6466
2017    24      3       0.314459        77.15469
2017    24      4       0.2809384       70.88939
2017    24      5       0.3112442       76.90261
2017    24      6       0.3370086       81.92294
2017    24      7       0.3548482       85.10741
2017    25      0       0.3298787       80.235
2017    25      1       0.3139367       77.22803
2017    25      2       0.2830692       71.23001
2017    25      3       0.2677998       67.85274
2017    25      4       0.314875        77.02724
2017    25      5       0.3817459       89.28912
2017    25      6       0.3637116       86.12754
2017    25      7       0.2778379       69.95833
2017    26      0       0.201614        54.24809
2017    26      1       0.2154269       56.83215
2017    26      2       0.226224        58.6857
2017    26      3       0.2203639       57.4916
2017    26      4       0.2561721       64.52653
2017    26      5       0.3179867       76.50441
2017    26      6       0.3486642       82.77665
2017    26      7       0.304838        75.11597
2017    27      0       0.2643754       67.22446
2017    27      1       0.267876        67.80582
2017    27      2       0.2830783       70.45392
2017    27      3       0.3109917       75.32953
2017    27      4       0.3296502       78.98021
2017    27      5       0.3736069       87.54802
2017    27      6       0.3960825       91.9616
2017    27      7       0.3747266       88.29724
2017    28      0       0.3784612       89.30148
2017    28      1       0.3220963       79.03737
2017    28      2       0.335058        81.65351
2017    28      3       0.3859105       90.92252
2017    28      4       0.4097944       95.08802
2017    28      5       0.4120069       95.53437
2017    28      6       0.4058191       94.39769
2017    28      7       0.3745075       88.43237
2017    29      0       0.3699132       87.16522
2017    29      1       0.3678911       86.597
2017    29      2       0.3421017       81.74828
2017    29      3       0.2946162       72.42814
2017    29      4       0.2581887       64.83108
2017    29      5       0.2457386       62.15278
2017    29      6       0.2393417       60.81128
2017    29      7       0.2302808       59.06973
2017    30      0       0.266634        66.347
2017    30      1       0.3032991       73.56311
2017    30      2       0.3266906       77.97567
2017    30      3       0.316184        76.41594
2017    30      4       0.3124183       76.05983
2017    30      5       0.3315652       79.66964
2017    30      6       0.279978        70.76594
2017    30      7       0.2571417       66.13935
2017    31      0       0.250861        64.31773
2017    31      1       0.2765868       68.85542
2017    31      2       0.3938407       89.69338
2017    31      3       0.4568302       100.3116
2017    31      4       0.4472041       98.65735
2017    31      5       0.3742384       86.79517
2017    31      6       0.3642492       85.0874
2017    31      7       0.3892619       88.80083
2018    1       0       0.3017701       74.56303
2018    1       1       0.3023805       74.64617
2018    1       2       0.3058254       75.15228
2018    1       3       0.3196769       77.74636
2018    1       4       0.333281        80.48456
2018    1       5       0.3544587       84.64835
2018    1       6       0.3793607       89.33487
2018    1       7       0.4045748       93.84959
2018    2       0       0.348477        83.40694
2018    2       1       0.3464032       82.74909
2018    2       2       0.3546414       84.20921
2018    2       3       0.3693916       86.86712
2018    2       4       0.4082957       93.67366
2018    2       5       0.4626296       102.8731
2018    2       6       0.4740132       105.4188
2018    2       7       0.4593252       103.4468
2018    3       0       0.4238532       96.92023
2018    3       1       0.4790188       105.372
2018    3       2       0.5206992       111.5543
2018    3       3       0.5183474       111.2162
2018    3       4       0.5361598       114.143
2018    3       5       0.5587049       117.5927
2018    3       6       0.5359481       114.3807
2018    3       7       0.4465989       99.73103
2018    4       0       0.4057487       92.5474
2018    4       1       0.3680993       85.88089
2018    4       2       0.3337061       79.73256
2018    4       3       0.300602        73.59386
2018    4       4       0.2834955       70.12016
2018    4       5       0.2899854       71.52323
2018    4       6       0.3201237       77.97074
2018    4       7       0.3605476       85.33142
2018    5       0       0.4187224       94.78966
2018    5       1       0.5173629       111.1495
2018    5       2       0.5121634       109.8319
2018    5       3       0.5616634       117.1552
2018    5       4       0.5705158       118.4563
2018    5       5       0.5464144       115.5996
2018    5       6       0.6703631       133.4114
2018    5       7       0.8073879       151.1425
2018    6       0       0.8991773       161.7946
2018    6       1       1.005228        173.5608
2018    6       2       0.9442558       167.7033
2018    6       3       0.9494222       168.8894
2018    6       4       0.9523277       169.2962
2018    6       5       1.009294        175.4393
2018    6       6       1.004987        174.9529
2018    6       7       0.9151643       165.865
2018    7       0       1.128235        187.1045
2018    7       1       1.38794         205.1467
2018    7       2       1.462555        210.5911
2018    7       3       1.490386        211.8058
2018    7       4       0.9386827       168.1055
2018    7       5       0.6000472       126.3339
2018    7       6       0.4810534       107.9604
2018    7       7       0.3321843       81.98905
2018    8       0       0.361792        87.12624
2018    8       1       0.2935028       73.73904
2018    8       2       0.3161243       78.56529
2018    8       3       0.3302839       81.36223
2018    8       4       0.2674112       69.68781
2018    8       5       0.2139048       58.60136
2018    8       6       0.2022401       55.85891
2018    8       7       0.2682547       68.24949
2018    9       0       0.408485        94.45651
2018    9       1       0.5513257       118.7612
2018    9       2       0.5485506       119.2492
2018    9       3       0.5458197       119.1676
2018    9       4       0.6219591       130.3322
2018    9       5       0.6875313       139.4457
2018    9       6       0.6871285       139.8826
2018    9       7       0.6766604       138.1131
2018    10      0       0.6484827       134.3827
2018    10      1       0.6515476       134.6631
2018    10      2       0.6950028       140.3547
2018    10      3       0.6899802       139.8156
2018    10      4       0.6276743       131.5659
2018    10      5       0.60617         128.2841
2018    10      6       0.580793        124.1052
2018    10      7       0.5677642       122.0556
2018    11      0       0.5549555       120.017
2018    11      1       0.548292        119.0313
2018    11      2       0.4644067       105.4642
2018    11      3       0.3725818       89.56291
2018    11      4       0.380123        91.17504
2018    11      5       0.3999184       94.78826
2018    11      6       0.3855548       92.29906
2018    11      7       0.3340518       82.95713
2018    12      0       0.3255849       81.27609
2018    12      1       0.3367921       83.24632
2018    12      2       0.3206341       79.7059
2018    12      3       0.327172        80.61512
2018    12      4       0.3918288       92.5695
2018    12      5       0.4711065       106.4877
2018    12      6       0.5127814       113.4573
2018    12      7       0.5630902       121.134
2018    13      0       0.6206358       129.129
2018    13      1       0.7000724       139.8203
2018    13      2       0.9425698       168.7342
2018    13      3       0.7756685       148.0264
2018    13      4       0.5099597       112.6174
2018    13      5       0.3954222       93.71375
2018    13      6       0.3007517       75.82839
2018    13      7       0.2594253       67.3479
2018    14      0       0.2425376       63.66975
2018    14      1       0.2946252       74.19308
2018    14      2       0.2906962       72.94177
2018    14      3       0.3271694       80.02085
2018    14      4       0.3547784       85.39546
2018    14      5       0.3847441       91.42474
2018    14      6       0.3830725       91.66274
2018    14      7       0.3749017       90.43736
2018    15      0       0.3753283       90.79116
2018    15      1       0.3137426       79.23097
2018    15      2       0.2771589       71.74285
2018    15      3       0.3592187       86.75177
2018    15      4       0.5531558       117.9716
2018    15      5       0.677732        135.5654
2018    15      6       0.7028824       138.8069
2018    15      7       0.7010495       137.7816
2018    16      0       0.7027087       138.1078
2018    16      1       0.6486688       131.9507
2018    16      2       0.5861908       123.5349
2018    16      3       0.5447907       117.7107
2018    16      4       0.5269321       115.2895
2018    16      5       0.4900322       109.6207
2018    16      6       0.4511172       103.3783
2018    16      7       0.4422329       101.7693
2018    17      0       0.4663651       105.8195
2018    17      1       0.4691117       106.3267
2018    17      2       0.4076593       95.91958
2018    17      3       0.327682        81.07472
2018    17      4       0.3304078       81.19799
2018    17      5       0.4297757       98.07842
2018    17      6       0.4983879       109.2533
2018    17      7       0.5587386       118.2967
2018    18      0       0.5927637       122.5894
2018    18      1       0.6191632       125.7589
2018    18      2       0.5577239       117.1124
2018    18      3       0.5404958       115.1606
2018    18      4       0.6804066       135.6524
2018    18      5       0.9635989       169.7072
2018    18      6       1.316041        199.8069
2018    18      7       0.998896        173.2417
2018    19      0       0.555075        118.0971
2018    19      1       0.2930239       73.4359
2018    19      2       0.2287555       60.70731
2018    19      3       0.1932615       52.76964
2018    19      4       0.1759988       48.99899
2018    19      5       0.1958906       53.37674
2018    19      6       0.2419771       63.34298
2018    19      7       0.2079434       55.81762
2018    20      0       0.1702356       47.01451
2018    20      1       0.1776745       48.44512
2018    20      2       0.1797114       49.0437
2018    20      3       0.1603098       45.01524
2018    20      4       0.1420949       41.18305
2018    20      5       0.1437779       41.79642
2018    20      6       0.1427471       41.53702
2018    20      7       0.1414004       41.09173
2018    21      0       0.1173383       34.80602
2018    21      1       0.1361091       38.81054
2018    21      2       0.14851         41.376
2018    21      3       0.1700701       46.15426
2018    21      4       0.183352        49.2903
2018    21      5       0.2031531       53.72626
2018    21      6       0.2555372       64.92801
2018    21      7       0.2817731       70.61326
2018    22      0       0.2519221       64.34694
2018    22      1       0.2865788       70.84264
2018    22      2       0.3219737       77.58998
2018    22      3       0.3791252       88.00052
2018    22      4       0.4756111       104.6731
2018    22      5       0.5412783       115.1653
2018    22      6       0.5767059       120.4209
2018    22      7       0.6494698       130.3733
2018    23      0       0.5677556       119.5483
2018    23      1       0.7578982       144.5401
2018    23      2       0.6075158       126.1018
2018    23      3       0.685228        135.9408
2018    23      4       0.8051014       150.2971
2018    23      5       1.031981        174.1952
2018    23      6       0.9470756       165.674
2018    23      7       0.4063673       93.64384
2018    24      0       0.1699663       47.16115
2018    24      1       0.1500498       42.62899
2018    24      2       0.1521018       42.78271
2018    24      3       0.1736952       47.41409
2018    24      4       0.2129063       55.70065
2018    24      5       0.336834        80.94956
2018    24      6       0.3460591       83.4424
2018    24      7       0.359496        85.9728
2018    25      0       0.4607955       103.5823
2018    25      1       0.547618        117.8294
2018    25      2       0.6311573       129.929
2018    25      3       0.7004759       140.3085
2018    25      4       0.7225078       143.5288
2018    25      5       0.6335356       132.1023
2018    25      6       0.4791451       108.9367
2018    25      7       0.413365        97.98048
2018    26      0       0.4082105       96.87402
2018    26      1       0.4180637       98.31285
2018    26      2       0.4192192       98.80248
2018    26      3       0.4029293       95.89743
2018    26      4       0.3706858       90.05259
2018    26      5       0.3717632       90.25863
2018    26      6       0.363382        88.46408
2018    26      7       0.3444111       84.73052
2018    27      0       0.275374        70.72361
2018    27      1       0.2431492       64.19476
2018    27      2       0.2336925       62.3042
2018    27      3       0.2250373       60.62924
2018    27      4       0.2229205       60.28776
2018    27      5       0.2562729       67.49865
2018    27      6       0.2937038       75.09337
2018    27      7       0.3100421       78.08755
2018    28      0       0.2600628       67.8959
2018    28      1       0.2458068       64.93884
2018    28      2       0.2544834       66.56404
2018    28      3       0.2474417       64.98419
2018    28      4       0.2503181       65.50062
2018    28      5       0.2678439       69.16076
2018    28      6       0.323478        80.27791
2018    28      7       0.3832631       91.45717
2018    29      0       0.375767        90.17755
2018    29      1       0.3879692       92.60734
2018    29      2       0.380088        91.24073
2018    29      3       0.3679026       89.04941
2018    29      4       0.3954702       93.96314
2018    29      5       0.453567        104.1393
2018    29      6       0.4750383       107.7035
2018    29      7       0.4679969       106.4351
2018    30      0       0.4059889       95.29513
2018    30      1       0.4055257       94.66456
2018    30      2       0.4353256       99.15622
2018    30      3       0.4901695       108.2619
2018    30      4       0.6776617       134.6215
2018    30      5       0.7840521       148.2217
2018    30      6       0.846035        155.871
2018    30      7       0.8910886       161.3021
2018    31      0       0.6898821       137.704
2018    31      1       0.4649359       103.8927
2018    31      2       0.5288462       112.6324
2018    31      3       0.6184909       125.4807
2018    31      4       0.6440152       128.8938
2018    31      5       0.6073995       124.1455
2018    31      6       0.5886226       121.3124
2018    31      7       0.6153874       125.5948
