####################################################################################################
# Month: 04Apr                                                                                     #
# Station: SAL                                                                                     #
# Frequency: 230 GHz                                                                               #
# Columns are: year    day     segment         tau     Tb (K)                                      #
####################################################################################################
2009    1       0       0.3845225       92.50535
2009    1       1       0.4174954       98.15244
2009    1       2       0.5178424       114.4375
2009    1       3       0.748624        146.9519
2009    1       4       0.8271684       156.9819
2009    1       5       0.855116        160.545
2009    1       6       0.7777264       151.1029
2009    1       7       0.6984269       141.028
2009    2       0       0.7208246       144.1974
2009    2       1       0.7301938       145.813
2009    2       2       0.7209824       144.8933
2009    2       3       0.7768263       152.1093
2009    2       4       0.9277716       169.4696
2009    2       5       1.059919        182.9326
2009    2       6       1.212328        196.2738
2009    2       7       1.191223        194.729
2009    3       0       0.9737203       175.0994
2009    3       1       0.9065933       168.0177
2009    3       2       0.8905351       165.8895
2009    3       3       0.8885365       165.5828
2009    3       4       0.8989862       166.8531
2009    3       5       0.9147845       168.6645
2009    3       6       0.9520583       172.4995
2009    3       7       1.124289        189.0218
2009    4       0       1.011076        178.4694
2009    4       1       0.9278998       169.7725
2009    4       2       1.044693        181.2463
2009    4       3       1.410402        209.6969
2009    4       4       1.444059        211.6385
2009    4       5       1.355711        206.931
2009    4       6       1.22331         197.3775
2009    4       7       1.164954        192.7258
2009    5       0       1.192631        195.3926
2009    5       1       1.135493        190.201
2009    5       2       1.092243        186.0754
2009    5       3       1.297555        202.7315
2009    5       4       1.409108        210.5796
2009    5       5       1.273644        201.0762
2009    5       6       1.326898        205.2666
2009    5       7       1.398486        209.8412
2009    6       0       1.384035        207.3198
2009    6       1       0.5227512       115.4552
2009    6       2       0.4029548       95.87028
2009    6       3       0.3912544       93.52448
2009    6       4       0.328569        81.53509
2009    6       5       0.3190712       79.76749
2009    6       6       0.3377512       83.44423
2009    6       7       0.2740334       70.55286
2009    7       0       0.2220871       59.47431
2009    7       1       0.1990346       54.357
2009    7       2       0.1719611       48.07059
2009    7       3       0.2370079       62.6668
2009    7       4       0.2280686       60.75735
2009    7       5       0.2325949       61.71551
2009    7       6       0.2180454       58.6222
2009    7       7       0.2866342       73.25621
2009    8       0       0.4222835       99.33455
2009    8       1       0.4777869       108.9716
2009    8       2       0.6796459       139.0868
2009    8       3       1.109232        186.3216
2009    8       4       1.287804        200.7457
2009    8       5       1.003284        177.1227
2009    8       6       0.8799624       164.9975
2009    8       7       0.830317        159.1757
2009    9       0       0.7731806       152.4009
2009    9       1       0.7221359       145.9855
2009    9       2       0.6457307       135.2494
2009    9       3       0.6653492       137.7002
2009    9       4       0.6372458       133.6842
2009    9       5       0.5256939       116.7428
2009    9       6       0.4191294       98.46749
2009    9       7       0.4001225       94.71827
2009    10      0       0.4076912       96.18701
2009    10      1       0.3654905       88.43251
2009    10      2       0.3454252       84.4852
2009    10      3       0.3941922       93.70388
2009    10      4       0.3915467       93.12286
2009    10      5       0.4262074       98.90439
2009    10      6       0.397872        93.74809
2009    10      7       0.3603497       86.98763
2009    11      0       0.3465201       84.65566
2009    11      1       0.2895366       73.76649
2009    11      2       0.2389429       63.03683
2009    11      3       0.2557895       66.60198
2009    11      4       0.2621256       67.81153
2009    11      5       0.2657847       68.70316
2009    11      6       0.2789481       71.69408
2009    11      7       0.2624072       68.13641
2009    12      0       0.2612561       67.88914
2009    12      1       0.2972301       74.57252
2009    12      2       0.369107        87.88434
2009    12      3       0.3821824       90.69573
2009    12      4       0.3414967       83.42028
2009    12      5       0.382915        92.44767
2009    12      6       0.4696779       108.1538
2009    12      7       0.3125722       78.66996
2009    13      0       0.2765621       71.0986
2009    13      1       0.2340253       61.64728
2009    13      2       0.2424595       62.8565
2009    13      3       0.3736001       89.32411
2009    13      4       0.3621048       87.21197
2009    13      5       0.3446941       84.2969
2009    13      6       0.3328002       82.07288
2009    13      7       0.315144        78.67134
2009    14      0       0.3009949       75.97401
2009    14      1       0.281679        72.20103
2009    14      2       0.2805535       71.9319
2009    14      3       0.3111935       78.06956
2009    14      4       0.3938205       94.17681
2009    14      5       0.4262506       100.0881
2009    14      6       0.4852734       109.7388
2009    14      7       0.5155026       114.1564
2009    15      0       0.5060893       112.2499
2009    15      1       0.5363285       116.8429
2009    15      2       0.5926098       125.2461
2009    15      3       0.6786349       137.4452
2009    15      4       0.7481585       147.29
2009    15      5       0.7926906       153.184
2009    15      6       0.8150872       155.7911
2009    15      7       1.064474        182.8034
2009    16      0       0.7492386       147.9533
2009    16      1       0.8921644       164.5226
2009    16      2       0.907327        165.7591
2009    16      3       0.959565        171.0349
2009    16      4       0.9604642       171.3326
2009    16      5       1.032259        178.658
2009    16      6       1.054144        181.1081
2009    16      7       0.8981666       166.2335
2009    17      0       1.0938          185.1266
2009    17      1       1.240446        197.4757
2009    17      2       1.256033        198.1437
2009    17      3       1.282915        199.9489
2009    17      4       1.344302        204.2572
2009    17      5       1.24143         197.5066
2009    17      6       1.26133         198.9848
2009    17      7       1.139108        188.6219
2009    18      0       0.7611039       149.1061
2009    18      1       0.4053709       94.71424
2009    18      2       0.3024037       74.92227
2009    18      3       0.4636437       104.6347
2009    18      4       0.5500885       119.4285
2009    18      5       0.560081        121.5827
2009    18      6       0.472305        106.9082
2009    18      7       0.2977662       74.20922
2009    19      0       0.2444002       63.22632
2009    19      1       0.1968213       52.89645
2009    19      2       0.2330105       60.60541
2009    19      3       0.3482282       84.0483
2009    19      4       0.7037337       140.9326
2009    19      5       0.8976598       164.8246
2009    19      6       0.9545023       171.153
2009    19      7       1.014174        177.3184
2009    20      0       1.061048        181.1394
2009    20      1       0.9462277       169.4735
2009    20      2       0.848492        158.1868
2009    20      3       0.8151201       153.8324
2009    20      4       0.7057349       139.7839
2009    20      5       0.625032        128.0388
2009    20      6       0.6393925       129.1742
2009    20      7       0.5862107       121.1562
2009    21      0       0.427163        96.20543
2009    21      1       0.3953921       90.50293
2009    21      2       0.352052        81.74807
2009    21      3       0.2976128       71.45844
2009    21      4       0.5259848       112.7924
2009    21      5       0.5322303       115.1848
2009    21      6       0.4699858       106.4562
2009    21      7       0.4706362       106.7707
2009    22      0       0.5623681       121.0312
2009    22      1       0.6571295       134.1594
2009    22      2       0.8121404       153.7864
2009    22      3       0.8382652       156.817
2009    22      4       1.022319        177.2075
2009    22      5       1.120079        186.5945
2009    22      6       1.398677        207.7937
2009    22      7       1.258578        198.3955
2009    23      0       1.360332        205.5326
2009    23      1       1.270431        198.8615
2009    23      2       1.388602        207.9626
2009    23      3       1.249236        197.9305
2009    23      4       1.663557        224.6015
2009    23      5       1.586814        220.8817
2009    23      6       1.261892        198.8172
2009    23      7       1.140979        188.27
2009    24      0       1.030052        179.3084
2009    24      1       0.7343471       145.0456
2009    24      2       0.5509614       118.7808
2009    24      3       0.529796        114.5879
2009    24      4       0.7524145       144.3047
2009    24      5       1.039056        175.531
2009    24      6       1.071997        179.1547
2009    24      7       1.112893        183.0339
2009    25      0       0.9165224       164.5745
2009    25      1       1.112297        183.8581
2009    25      2       0.969452        170.3499
2009    25      3       1.136855        186.0244
2009    25      4       0.8644486       159.2664
2009    25      5       0.8188059       154.3407
2009    25      6       0.789635        151.4284
2009    25      7       0.7503256       147.1915
2009    26      0       0.7088458       141.8473
2009    26      1       0.5343196       116.4589
2009    26      2       0.4895339       109.3769
2009    26      3       0.6917468       140.1929
2009    26      4       0.5915471       126.4475
2009    26      5       0.5257234       116.6208
2009    26      6       0.5235609       116.2788
2009    26      7       0.5175586       115.1908
2009    27      0       0.4606          105.5728
2009    27      1       0.3701927       89.303
2009    27      2       0.2684204       68.62262
2009    27      3       0.3178822       78.75538
2009    27      4       0.4090444       95.50136
2009    27      5       0.3991409       94.65389
2009    27      6       0.3898433       93.00129
2009    27      7       0.4025107       94.87892
2009    28      0       0.589999        125.5958
2009    28      1       0.4866929       109.3671
2009    28      2       0.3768312       89.23711
2009    28      3       0.4941537       108.2698
2009    28      4       0.4971692       109.9127
2009    28      5       0.5960509       126.2842
2009    28      6       0.5720005       122.8924
2009    28      7       0.5109916       112.5694
2009    29      0       0.3775177       89.21798
2009    29      1       0.2970511       74.00897
2009    29      2       0.2938956       73.72577
2009    29      3       0.4334562       99.99969
2009    29      4       0.5464766       118.9203
2009    29      5       0.6270061       131.1021
2009    29      6       0.6038623       127.4031
2009    29      7       0.6589268       134.9727
2009    30      0       0.8940425       163.9278
2009    30      1       1.036233        177.5641
2009    30      2       1.370092        207.0014
2009    30      3       1.107134        186.1607
2009    30      4       0.8097211       155.1281
2009    30      5       0.6008203       127.055
2009    30      6       0.3012755       74.74202
2009    30      7       0.223792        58.13025
2010    1       0       0.5083599       112.4759
2010    1       1       0.5254163       115.9328
2010    1       2       0.4514296       104.2168
2010    1       3       0.4956108       112.3954
2010    1       4       0.5107954       114.9021
2010    1       5       0.5093983       114.7596
2010    1       6       0.4453034       103.7625
2010    1       7       0.3894189       93.42885
2010    2       0       0.3607416       87.89277
2010    2       1       0.4343491       101.4484
2010    2       2       0.5316011       117.87
2010    2       3       0.6873305       141.4481
2010    2       4       0.6777874       139.8015
2010    2       5       0.6765572       139.5538
2010    2       6       0.6258541       132.1794
2010    2       7       0.5760253       125.0291
2010    3       0       0.6095496       130.674
2010    3       1       0.6595059       138.1995
2010    3       2       0.7607223       151.5863
2010    3       3       0.8928612       166.4143
2010    3       4       0.946335        172.0283
2010    3       5       0.7363889       147.6202
2010    3       6       0.6759116       139.4028
2010    3       7       0.7869847       154.1224
2010    4       0       0.8377555       160.2091
2010    4       1       0.7066878       143.698
2010    4       2       0.6320042       133.2057
2010    4       3       0.6229594       131.7225
2010    4       4       0.5869267       126.5288
2010    4       5       0.6300382       132.8108
2010    4       6       0.6533377       135.7846
2010    4       7       0.6724804       138.6157
2010    5       0       0.6301482       132.3224
2010    5       1       0.5728824       123.6285
2010    5       2       0.5031539       112.641
2010    5       3       0.5908382       126.2965
2010    5       4       0.654945        135.8417
2010    5       5       0.6372608       133.5085
2010    5       6       0.5911475       126.8875
2010    5       7       0.5147632       115.1866
2010    6       0       0.4812113       109.6328
2010    6       1       0.4308899       100.9714
2010    6       2       0.3458664       85.17218
2010    6       3       0.356483        87.07721
2010    6       4       0.2786746       71.43719
2010    6       5       0.3009784       75.92488
2010    6       6       0.3372334       83.48482
2010    6       7       0.3406322       84.31755
2010    7       0       0.2927832       74.73529
2010    7       1       0.2388794       63.29438
2010    7       2       0.2036687       55.11346
2010    7       3       0.2763409       70.88675
2010    7       4       0.2788524       71.49123
2010    7       5       0.3020972       76.37026
2010    7       6       0.3345732       82.8932
2010    7       7       0.3178741       79.50815
2010    8       0       0.2375178       62.74516
2010    8       1       0.1859873       51.23476
2010    8       2       0.1521283       43.30306
2010    8       3       0.1775237       49.42261
2010    8       4       0.1798417       50.28345
2010    8       5       0.2459229       65.10533
2010    8       6       0.2855835       73.59112
2010    8       7       0.4124879       97.95435
2010    9       0       0.6494599       136.869
2010    9       1       0.8612995       164.1892
2010    9       2       0.7573422       151.2728
2010    9       3       0.5236427       116.9097
2010    9       4       0.4246521       99.42061
2010    9       5       0.3644535       88.37179
2010    9       6       0.2597386       67.37749
2010    9       7       0.5740426       125.8921
2010    10      0       0.3723356       90.73223
2010    10      1       0.3076441       75.89954
2010    10      2       0.2562369       65.26915
2010    10      3       0.2483287       63.5376
2010    10      4       0.4358159       101.5278
2010    10      5       0.4656994       106.2963
2010    10      6       0.456042        104.5475
2010    10      7       0.4270704       99.26835
2010    11      0       0.3699215       88.0777
2010    11      1       0.4273325       97.7796
2010    11      2       0.4486537       101.5967
2010    11      3       0.543696        118.1366
2010    11      4       0.5068314       113.0229
2010    11      5       0.4243465       99.41591
2010    11      6       0.350953        86.05444
2010    11      7       0.2939633       74.90304
2010    12      0       0.2746189       71.02842
2010    12      1       0.2763896       71.47418
2010    12      2       0.2813637       72.51366
2010    12      3       0.2877916       73.90252
2010    12      4       0.2920714       74.81097
2010    12      5       0.3417516       84.65396
2010    12      6       0.3844542       92.68801
2010    12      7       0.4526446       104.771
2010    13      0       0.4910042       111.3709
2010    13      1       0.4755128       108.8487
2010    13      2       0.438935        102.6415
2010    13      3       0.4075256       97.22758
2010    13      4       0.4448441       104.1857
2010    13      5       0.5262206       118.0271
2010    13      6       0.58174         126.7183
2010    13      7       0.6318051       134.2137
2010    14      0       0.6788169       140.9275
2010    14      1       0.6948527       142.9654
2010    14      2       0.6905137       142.0395
2010    14      3       0.6901134       141.749
2010    14      4       0.7900598       154.9557
2010    14      5       1.031056        181.3744
2010    14      6       1.342485        208.0131
2010    14      7       1.048632        182.19
2010    15      0       0.9912928       175.8764
2010    15      1       1.344046        205.04
2010    15      2       1.445865        211.6876
2010    15      3       1.441962        211.7287
2010    15      4       1.290508        201.3213
2010    15      5       1.043349        180.1799
2010    15      6       1.000225        175.9898
2010    15      7       0.8113561       155.5858
2010    16      0       0.6763565       138.7343
2010    16      1       0.5704827       123.527
2010    16      2       0.4860434       109.6611
2010    16      3       0.5728185       123.5322
2010    16      4       0.4795624       108.7265
2010    16      5       0.3738501       89.64976
2010    16      6       0.3085751       76.83413
2010    16      7       0.4373413       101.0697
2010    17      0       0.5801004       123.3893
2010    17      1       0.690846        137.3316
2010    17      2       0.7162082       139.8016
2010    17      3       0.6813222       135.0634
2010    17      4       0.5816341       122.477
2010    17      5       0.4205112       97.3045
2010    17      6       0.3322048       81.41352
2010    17      7       0.2901714       73.01812
2010    18      0       0.231881        60.76551
2010    18      1       0.1379493       39.39173
2010    18      2       0.1198823       34.85929
2010    18      3       0.2092135       55.70135
2010    18      4       0.3265474       79.79488
2010    18      5       0.4965823       109.4075
2010    18      6       0.4964395       109.4928
2010    18      7       0.4070596       94.51294
2010    19      0       0.291314        72.65602
2010    19      1       0.1962066       52.3003
2010    19      2       0.1788433       48.17646
2010    19      3       0.6212998       128.3463
2010    19      4       0.8045512       151.7752
2010    19      5       1.141474        184.2204
2010    19      6       1.097638        180.8886
2010    19      7       1.002617        172.4517
2010    20      0       0.5529519       117.4033
2010    20      1       0.1707617       46.57752
2010    20      2       0.1260394       36.30332
2010    20      3       0.2209028       57.54221
2010    20      4       0.1951277       52.20579
2010    20      5       0.2009862       53.53953
2010    20      6       0.2235303       58.29072
2010    20      7       0.2506844       63.32612
2010    21      0       0.2274705       58.33153
2010    21      1       0.2635349       65.74326
2010    21      2       0.3437877       81.39612
2010    21      3       0.3539684       83.06932
2010    21      4       0.4133549       93.01416
2010    21      5       0.3800616       88.12644
2010    21      6       0.3578932       84.96762
2010    21      7       0.247071        63.04256
2010    22      0       0.2438148       62.67896
2010    22      1       0.4917183       109.2033
2010    22      2       0.515099        112.8601
2010    22      3       0.576234        122.2894
2010    22      4       0.3572431       85.47307
2010    22      5       0.3365826       81.22287
2010    22      6       0.2443973       62.43363
2010    22      7       0.1307119       36.92685
2010    23      0       0.1113431       32.04963
2010    23      1       0.09799149      28.72521
2010    23      2       0.08961841      26.61673
2010    23      3       0.09078926      26.90183
2010    23      4       0.194449        51.471
2010    23      5       0.1921807       51.25251
2010    23      6       0.1680349       45.93041
2010    23      7       0.08792767      27.03491
2010    24      0       0.07578947      24.1002
2010    24      1       0.07931153      25.05522
2010    24      2       0.0844147       26.28897
2010    24      3       0.1120432       33.10757
2010    24      4       0.1166527       34.45327
2010    24      5       0.123577        36.12066
2010    24      6       0.1318689       37.9875
2010    24      7       0.1361441       38.90877
2010    25      0       0.1436078       40.70686
2010    25      1       0.1533197       43.17618
2010    25      2       0.1680126       46.51234
2010    25      3       0.3172905       78.64561
2010    25      4       0.302345        75.90383
2010    25      5       0.3045617       76.61622
2010    25      6       0.3528809       86.20289
2010    25      7       0.4601424       105.8277
2010    26      0       0.5259048       116.8613
2010    26      1       0.5197414       115.8638
2010    26      2       0.504015        113.2037
2010    26      3       0.5394073       120.2559
2010    26      4       0.5009654       113.223
2010    26      5       0.4729018       108.7313
2010    26      6       0.4673964       107.6258
2010    26      7       0.4692423       107.748
2010    27      0       0.5276584       117.3498
2010    27      1       0.6140973       130.6895
2010    27      2       0.6723662       138.7857
2010    27      3       0.9677666       174.1347
2010    27      4       0.8678197       163.2727
2010    27      5       0.7659813       150.6201
2010    27      6       0.754487        148.7508
2010    27      7       0.7064383       142.0556
2010    28      0       0.6249987       130.8193
2010    28      1       0.6076591       128.3191
2010    28      2       0.6314142       131.8916
2010    28      3       0.8530231       160.4841
2010    28      4       0.9193628       167.492
2010    28      5       0.8617363       161.0851
2010    28      6       0.8009912       154.1015
2010    28      7       0.7700055       150.1371
2010    29      0       0.7304944       144.9836
2010    29      1       0.6253982       130.7926
2010    29      2       0.6271297       130.8778
2010    29      3       0.858745        160.2389
2010    29      4       0.8058936       154.2411
2010    29      5       0.8442023       158.5682
2010    29      6       0.6725604       137.603
2010    29      7       0.569884        122.8209
2010    30      0       0.4727111       107.864
2010    30      1       0.5083007       114.0481
2010    30      2       0.5579962       122.0072
2010    30      3       0.5081865       114.1211
2010    30      4       0.50918         113.985
2010    30      5       0.5096127       114.0062
2010    30      6       0.5094743       113.8938
2010    30      7       0.4533949       104.6668
2011    1       0       1.216562        198.8468
2011    1       1       1.488592        217.7779
2011    1       2       1.059245        184.07
2011    1       3       0.9385541       171.3967
2011    1       4       0.5828239       125.8492
2011    1       5       0.3818671       91.45394
2011    1       6       0.1891866       51.34584
2011    1       7       0.1264898       36.08819
2011    2       0       0.1860924       48.58752
2011    2       1       0.1646049       44.57813
2011    2       2       0.1441727       40.36846
2011    2       3       0.2172117       57.6008
2011    2       4       0.2522722       65.03474
2011    2       5       0.3580639       85.12666
2011    2       6       0.392271        92.06179
2011    2       7       0.3960754       92.72127
2011    3       0       0.322309        78.88655
2011    3       1       0.2770773       70.18774
2011    3       2       0.2382982       62.39061
2011    3       3       0.3216078       79.36313
2011    3       4       0.2772806       70.57638
2011    3       5       0.2507944       65.27731
2011    3       6       0.2803857       71.46487
2011    3       7       0.2506323       65.17197
2011    4       0       0.1800072       49.63425
2011    4       1       0.1450634       41.44562
2011    4       2       0.1424612       40.71611
2011    4       3       0.1855937       50.7053
2011    4       4       0.2554095       66.0857
2011    4       5       0.2367738       62.29017
2011    4       6       0.2337641       61.71965
2011    4       7       0.2162368       57.92063
2011    5       0       0.2076001       55.99924
2011    5       1       0.1997179       54.21612
2011    5       2       0.1856958       50.98844
2011    5       3       0.1911782       52.28831
2011    5       4       0.1580976       44.90442
2011    5       5       0.1586077       45.03778
2011    5       6       0.1768515       49.39997
2011    5       7       0.2208295       59.39925
2011    6       0       0.2515297       66.06273
2011    6       1       0.2603867       67.87748
2011    6       2       0.3633376       88.53535
2011    6       3       0.5743888       124.8279
2011    6       4       0.5624319       122.5518
2011    6       5       0.5123422       113.7987
2011    6       6       0.3606064       86.65545
2011    6       7       0.2979525       74.10335
2011    7       0       0.2774064       69.86842
2011    7       1       0.3095418       76.65243
2011    7       2       0.3247682       79.69503
2011    7       3       0.4872411       109.1205
2011    7       4       0.5357235       117.2069
2011    7       5       0.5410414       118.1587
2011    7       6       0.5328324       117.2736
2011    7       7       0.5216341       115.6021
2011    8       0       0.5795221       124.5196
2011    8       1       0.6366253       132.9469
2011    8       2       0.7908985       153.8773
2011    8       3       0.8725534       163.3335
2011    8       4       0.9591854       172.9061
2011    8       5       0.830184        159.3213
2011    8       6       0.7706299       152.0431
2011    8       7       0.8737737       164.3703
2011    9       0       1.022879        180.132
2011    9       1       0.9198911       169.6943
2011    9       2       0.8426851       161.0296
2011    9       3       0.8384351       160.4049
2011    9       4       0.8092597       156.8707
2011    9       5       0.8505897       161.5774
2011    9       6       0.8157724       157.5737
2011    9       7       0.7362007       148.0078
2011    10      0       0.6703714       139.1832
2011    10      1       0.6464887       135.5835
2011    10      2       0.6504642       136.0539
2011    10      3       0.717827        145.4326
2011    10      4       0.7343125       147.3239
2011    10      5       0.8181496       157.0813
2011    10      6       0.8468814       160.7051
2011    10      7       0.8810569       164.8609
2011    11      0       1.036839        180.7937
2011    11      1       1.046896        181.7373
2011    11      2       1.043752        181.2259
2011    11      3       1.283387        200.6835
2011    11      4       1.716921        226.9593
2011    11      5       1.551705        217.5187
2011    11      6       1.217215        194.4961
2011    11      7       1.183974        191.7435
2011    12      0       1.474254        213.0185
2011    12      1       1.584195        219.5552
2011    12      2       1.604626        221.4268
2011    12      3       1.893675        235.9882
2011    12      4       1.589437        221.1768
2011    12      5       1.612688        222.6767
2011    12      6       1.495307        216.5425
2011    12      7       1.309581        204.2435
2011    13      0       1.094614        186.2707
2011    13      1       1.010585        178.193
2011    13      2       0.8387798       159.9595
2011    13      3       0.9325616       170.3167
2011    13      4       0.9834476       175.6253
2011    13      5       0.9384697       170.7761
2011    13      6       0.8813799       164.8812
2011    13      7       0.7815443       153.341
2011    14      0       0.739363        147.9052
2011    14      1       0.7192689       145.1846
2011    14      2       0.6890828       141.2335
2011    14      3       0.6881007       141.0685
2011    14      4       0.7458307       148.322
2011    14      5       0.7645854       150.5764
2011    14      6       0.7082734       143.3699
2011    14      7       0.6781274       139.044
2011    15      0       0.6470945       134.4672
2011    15      1       0.596366        127.1649
2011    15      2       0.5782552       124.3636
2011    15      3       0.5674678       122.6518
2011    15      4       0.6955388       140.2984
2011    15      5       0.7951064       152.626
2011    15      6       0.7382909       145.4941
2011    15      7       0.6772335       137.2455
2011    16      0       0.638311        131.9909
2011    16      1       0.5624663       120.8597
2011    16      2       0.4543796       103.5559
2011    16      3       0.6276302       130.778
2011    16      4       0.5958046       126.5284
2011    16      5       0.5261972       115.8319
2011    16      6       0.5789853       123.6348
2011    16      7       0.5331894       116.4381
2011    17      0       0.4826631       108.1286
2011    17      1       0.4592276       104.0023
2011    17      2       0.4423226       101.0043
2011    17      3       0.4932651       109.6509
2011    17      4       0.4571849       104.1018
2011    17      5       0.4669057       105.7789
2011    17      6       0.4575044       104.3796
2011    17      7       0.4528812       103.7721
2011    18      0       0.4548041       104.0791
2011    18      1       0.4218236       98.22042
2011    18      2       0.3820339       91.0259
2011    18      3       0.4555371       104.2586
2011    18      4       0.4747607       107.4435
2011    18      5       0.500079        111.5431
2011    18      6       0.4966191       110.8906
2011    18      7       0.4981819       111.2572
2011    19      0       0.5355676       117.3132
2011    19      1       0.5341255       117.2885
2011    19      2       0.5585638       121.2603
2011    19      3       0.737249        146.0737
2011    19      4       0.8122805       154.7217
2011    19      5       0.6901414       139.7154
2011    19      6       0.6766313       138.3274
2011    19      7       0.5702273       123.1626
2011    20      0       0.5350895       117.9003
2011    20      1       0.5581353       121.2844
2011    20      2       0.5526823       120.3493
2011    20      3       0.5408966       117.8111
2011    20      4       0.4735183       106.6442
2011    20      5       0.3438786       82.9932
2011    20      6       0.5754107       122.3493
2011    20      7       0.3482136       83.80055
2011    21      0       0.07277785      23.50598
2011    21      1       0.05899456      20.02859
2011    21      2       0.04515987      16.22162
2011    21      3       0.06150472      20.5764
2011    21      4       0.1600418       44.69759
2011    21      5       0.180508        49.287
2011    21      6       0.1771414       48.4359
2011    21      7       0.1390937       39.62276
2011    22      0       0.100928        30.30466
2011    22      1       0.09734247      29.48254
2011    22      2       0.0949296       28.88983
2011    22      3       0.1163629       34.18849
2011    22      4       0.1357264       38.91526
2011    22      5       0.1545808       43.156
2011    22      6       0.2188433       57.05347
2011    22      7       0.2680335       67.61551
2011    23      0       0.4532019       102.9262
2011    23      1       0.6150624       128.349
2011    23      2       0.8742451       162.415
2011    23      3       1.199641        192.0149
2011    23      4       1.694318        225.5528
2011    23      5       0.9405379       170.2139
2011    23      6       0.6192858       130.4541
2011    23      7       0.5398781       118.0674
2011    24      0       0.5469853       119.4311
2011    24      1       0.5366344       117.6025
2011    24      2       0.501398        112.0353
2011    24      3       0.4405449       101.6085
2011    24      4       0.3484654       84.92962
2011    24      5       0.2918567       73.51461
2011    24      6       0.2345474       61.3188
2011    24      7       0.1954801       52.62029
2011    25      0       0.23426         60.89376
2011    25      1       0.575645        122.5197
2011    25      2       0.9321785       167.4637
2011    25      3       0.7989846       152.1542
2011    25      4       0.5297607       115.3828
2011    25      5       0.3208301       78.69205
2011    25      6       0.2236824       58.6415
2011    25      7       0.1255717       36.34971
2011    26      0       0.1252937       36.1836
2011    26      1       0.2060773       54.49982
2011    26      2       0.3595433       85.57644
2011    26      3       0.6163343       127.5845
2011    26      4       0.6841136       137.2678
2011    26      5       0.6942993       138.0566
2011    26      6       0.425495        98.04062
2011    26      7       0.3726178       88.0555
2011    27      0       0.4625519       103.5833
2011    27      1       0.535885        113.7176
2011    27      2       0.373914        87.26848
2011    27      3       0.3808448       87.90589
2011    27      4       0.2810972       69.47698
2011    27      5       0.2682749       67.07577
2011    27      6       0.274987        68.40783
2011    27      7       0.2199398       57.07618
2011    28      0       0.207673        54.62429
2011    28      1       0.2300586       59.60342
2011    28      2       0.2523921       64.38833
2011    28      3       0.2323752       60.33122
2011    28      4       0.2466852       63.56246
2011    28      5       0.2279987       59.78326
2011    28      6       0.2120031       56.41083
2011    28      7       0.189139        51.94502
2011    29      0       0.1624848       45.68263
2011    29      1       0.1512107       42.58895
2011    29      2       0.1490123       41.92526
2011    29      3       0.1780533       48.45503
2011    29      4       0.1839402       49.85708
2011    29      5       0.1970817       52.95243
2011    29      6       0.2291958       60.25231
2011    29      7       0.211331        56.29543
2011    30      0       0.1669243       46.34326
2011    30      1       0.1355721       39.165
2011    30      2       0.1267532       37.02342
2011    30      3       0.1534079       43.37398
2011    30      4       0.1759174       48.81019
2011    30      5       0.164907        46.40465
2011    30      6       0.1664851       46.73794
2011    30      7       0.1605637       45.26845
2012    1       0       0.2517415       64.7311
2012    1       1       0.2761031       70.03144
2012    1       2       0.3748642       89.6405
2012    1       3       0.3682967       88.35338
2012    1       4       0.3518145       85.34809
2012    1       5       0.3625671       87.46785
2012    1       6       0.3500994       85.35642
2012    1       7       0.334256        82.41442
2012    2       0       0.3355772       82.5948
2012    2       1       0.3382543       82.9625
2012    2       2       0.34889         85.01491
2012    2       3       0.3692264       88.98658
2012    2       4       0.3341953       82.6942
2012    2       5       0.356697        86.929
2012    2       6       0.349488        85.54908
2012    2       7       0.3210426       80.23343
2012    3       0       0.3004673       76.12385
2012    3       1       0.2832677       72.43498
2012    3       2       0.2607192       67.64189
2012    3       3       0.2951937       74.9899
2012    3       4       0.3146455       78.99205
2012    3       5       0.3518923       86.21123
2012    3       6       0.3593358       87.58568
2012    3       7       0.3505534       85.96217
2012    4       0       0.3573025       87.18115
2012    4       1       0.3620265       87.99508
2012    4       2       0.3370465       83.16142
2012    4       3       0.3714718       89.75738
2012    4       4       0.4490625       103.8162
2012    4       5       0.4876453       110.2033
2012    4       6       0.4937584       111.1247
2012    4       7       0.4886706       110.3039
2012    5       0       0.4932772       110.9758
2012    5       1       0.4824532       109.149
2012    5       2       0.5038867       112.451
2012    5       3       0.6263852       131.3108
2012    5       4       0.8891164       164.3822
2012    5       5       1.196583        193.77
2012    5       6       0.8640765       162.1857
2012    5       7       0.7050662       142.4774
2012    6       0       0.670353        137.5963
2012    6       1       0.5860976       125.2458
2012    6       2       0.6789562       138.0675
2012    6       3       0.8215872       155.8639
2012    6       4       0.9707423       171.5837
2012    6       5       0.9714971       172.6376
2012    6       6       0.7052728       142.1059
2012    6       7       0.5125487       113.4351
2012    7       0       0.409852        96.03373
2012    7       1       0.2939115       73.68821
2012    7       2       0.3060449       75.85739
2012    7       3       0.5572763       119.8706
2012    7       4       0.5905067       124.9159
2012    7       5       1.071084        180.0663
2012    7       6       1.196569        191.2398
2012    7       7       0.7104428       140.3248
2012    8       0       0.9374828       167.0432
2012    8       1       1.148612        189.1381
2012    8       2       0.8911343       163.4155
2012    8       3       0.535329        116.6105
2012    8       4       0.4605247       103.4887
2012    8       5       0.465513        103.9369
2012    8       6       0.7154762       142.4951
2012    8       7       0.7637201       145.8427
2012    9       0       0.7007419       137.3881
2012    9       1       0.3846989       88.68411
2012    9       2       0.2398258       60.53556
2012    9       3       0.422156        95.41218
2012    9       4       0.473155        104.4531
2012    9       5       0.5653151       119.2127
2012    9       6       0.6114169       126.097
2012    9       7       0.529914        114.4862
2012    10      0       0.504931        111.1906
2012    10      1       0.4716605       105.9812
2012    10      2       0.3381758       82.05438
2012    10      3       0.398549        92.98276
2012    10      4       0.3913953       92.06814
2012    10      5       0.3429494       83.40887
2012    10      6       0.3122796       77.80867
2012    10      7       0.2826464       71.82151
2012    11      0       0.280819        71.18044
2012    11      1       0.2711697       69.19475
2012    11      2       0.2402984       62.74817
2012    11      3       0.2539895       65.74586
2012    11      4       0.2163895       57.87682
2012    11      5       0.2193336       58.47888
2012    11      6       0.2164413       57.87725
2012    11      7       0.2015859       54.52759
2012    12      0       0.1957461       53.24769
2012    12      1       0.183207        50.37313
2012    12      2       0.1664083       46.45733
2012    12      3       0.1761228       48.69677
2012    12      4       0.1730459       48.14247
2012    12      5       0.1768985       49.16665
2012    12      6       0.1859371       51.20919
2012    12      7       0.1979744       53.93449
2012    13      0       0.208512        56.26524
2012    13      1       0.2091768       56.30058
2012    13      2       0.2243899       59.56688
2012    13      3       0.2411733       63.14531
2012    13      4       0.294843        74.43212
2012    13      5       0.4288502       99.65549
2012    13      6       0.5276557       115.7684
2012    13      7       0.7067638       141.5197
2012    14      0       0.9866199       173.5529
2012    14      1       1.423608        210.0226
2012    14      2       1.124762        186.2518
2012    14      3       1.206575        193.3834
2012    14      4       1.048306        180.1627
2012    14      5       1.07289         182.85
2012    14      6       0.7973961       154.3802
2012    14      7       0.6543035       135.2655
2012    15      0       0.2645194       67.84309
2012    15      1       0.1574172       44.13238
2012    15      2       0.1407518       40.17452
2012    15      3       0.2377468       61.9612
2012    15      4       0.3018245       75.37255
2012    15      5       0.2795901       71.03348
2012    15      6       0.2678698       68.69804
2012    15      7       0.2753234       70.14147
2012    16      0       0.2728593       69.43708
2012    16      1       0.2593103       66.55549
2012    16      2       0.2461905       63.77567
2012    16      3       0.2876973       72.30343
2012    16      4       0.2812625       71.09279
2012    16      5       0.2680821       68.56451
2012    16      6       0.3316667       81.34122
2012    16      7       0.5016721       111.6083
2012    17      0       0.5697207       122.6873
2012    17      1       0.5377895       117.8999
2012    17      2       0.5778862       123.9433
2012    17      3       0.709515        142.018
2012    17      4       0.786589        151.3196
2012    17      5       0.7146115       142.2676
2012    17      6       0.6131702       128.4455
2012    17      7       1.069873        183.4593
2012    18      0       1.287692        202.1619
2012    18      1       0.5448082       118.0451
2012    18      2       0.4915943       109.8274
2012    18      3       0.5167489       114.4965
2012    18      4       0.5655229       122.0387
2012    18      5       0.6028993       127.4895
2012    18      6       0.5341299       117.2157
2012    18      7       0.4179829       98.09569
2012    19      0       0.3713133       89.61575
2012    19      1       0.353564        86.03355
2012    19      2       0.3857439       92.09238
2012    19      3       0.4147993       97.43401
2012    19      4       0.4290456       99.88809
2012    19      5       0.481779        108.821
2012    19      6       0.5393599       117.787
2012    19      7       0.6817041       138.8475
2012    20      0       0.8299374       155.7818
2012    20      1       0.8739265       161.2128
2012    20      2       1.021149        176.1004
2012    20      3       0.7128279       142.4943
2012    20      4       0.8524486       159.2769
2012    20      5       0.8788869       162.7011
2012    20      6       0.8731188       162.2951
2012    20      7       0.6777406       138.4251
2012    21      0       0.515801        114.5452
2012    21      1       0.465288        105.6076
2012    21      2       0.4291284       99.02056
2012    21      3       0.546743        118.7593
2012    21      4       0.6329573       131.6362
2012    21      5       0.5281144       115.903
2012    21      6       0.4806365       108.0079
2012    21      7       0.4917155       109.416
2012    22      0       0.5116247       112.2407
2012    22      1       0.7790652       149.05
2012    22      2       0.5789371       121.8218
2012    22      3       0.1330583       37.66745
2012    22      4       0.213066        56.37066
2012    22      5       0.2232728       58.65651
2012    22      6       0.2188932       57.46224
2012    22      7       0.1370688       38.82596
2012    23      0       0.1234556       35.49729
2012    23      1       0.1380742       38.96714
2012    23      2       0.1258269       36.10065
2012    23      3       0.1715144       46.7256
2012    23      4       0.3091612       75.76795
2012    23      5       0.3163693       77.38381
2012    23      6       0.2547036       65.0001
2012    23      7       0.1301246       37.37869
2012    24      0       0.1060588       31.49386
2012    24      1       0.09869083      29.55024
2012    24      2       0.08856154      27.07691
2012    24      3       0.08811742      26.85273
2012    24      4       0.152264        42.19069
2012    24      5       0.1891827       50.2933
2012    24      6       0.2913853       71.37396
2012    24      7       0.369379        86.55345
2012    25      0       0.4744912       106.4023
2012    25      1       0.670183        136.3629
2012    25      2       0.7268297       144.1374
2012    25      3       0.8509841       157.8749
2012    25      4       1.034558        176.9763
2012    25      5       1.190249        191.4597
2012    25      6       0.8815989       162.5096
2012    25      7       0.8773925       161.1695
2012    26      0       0.8443589       156.5853
2012    26      1       0.9247335       166.5359
2012    26      2       1.095202        182.7175
2012    26      3       1.268454        197.479
2012    26      4       1.438186        210.3354
2012    26      5       1.461499        212.6825
2012    26      6       0.6493223       133.3213
2012    26      7       0.2799162       69.99444
2012    27      0       0.1906674       50.98919
2012    27      1       0.4014073       93.40194
2012    27      2       0.2307761       60.14969
2012    27      3       0.2522682       64.28758
2012    27      4       0.4310565       100.0796
2012    27      5       0.4626205       104.6904
2012    27      6       0.4617223       105.3509
2012    27      7       0.4004317       94.12956
2012    28      0       0.2988246       72.65963
2012    28      1       0.3365538       80.16507
2012    28      2       0.5367622       113.0647
2012    28      3       0.5435702       116.0545
2012    28      4       0.6106918       126.9923
2012    28      5       0.5580742       119.8571
2012    28      6       0.4878023       107.9305
2012    28      7       0.6431937       130.7963
2012    29      0       0.6779263       134.8354
2012    29      1       0.795289        150.1898
2012    29      2       0.7015854       138.1375
2012    29      3       0.6560289       132.1513
2012    29      4       0.6950017       138.4042
2012    29      5       0.7098488       140.0382
2012    29      6       0.7127334       140.6224
2012    29      7       0.5111984       111.67
2012    30      0       0.3316646       80.82241
2012    30      1       0.3279021       80.341
2012    30      2       0.2750606       69.59759
2012    30      3       0.3621847       87.10774
2012    30      4       0.3474986       84.18366
2012    30      5       0.3303798       80.862
2012    30      6       0.4748267       106.7843
2012    30      7       0.9512579       171.1623
2013    1       0       1.190705        190.2353
2013    1       1       1.063429        179.4896
2013    1       2       1.09091         183.4715
2013    1       3       0.6310261       130.2137
2013    1       4       0.576647        122.4083
2013    1       5       0.6801106       137.4393
2013    1       6       1.00736         175.9757
2013    1       7       1.117472        186.862
2013    2       0       1.129681        188.0122
2013    2       1       1.186781        193.4014
2013    2       2       0.6734893       137.2445
2013    2       3       0.8686265       161.4114
2013    2       4       0.849485        159.1526
2013    2       5       1.063389        180.2964
2013    2       6       0.9139318       165.6438
2013    2       7       0.7139877       142.0748
2013    3       0       0.439013        100.6356
2013    3       1       0.2028398       54.46286
2013    3       2       0.06993858      22.88035
2013    3       3       0.09577604      29.28511
2013    3       4       0.222129        58.68075
2013    3       5       0.2326851       61.07069
2013    3       6       0.1859227       50.80369
2013    3       7       0.144385        41.16011
2013    4       0       0.1061543       31.79344
2013    4       1       0.1023284       30.74937
2013    4       2       0.1164351       34.0666
2013    4       3       0.2044308       54.26448
2013    4       4       0.2346702       60.72249
2013    4       5       0.272008        68.53428
2013    4       6       0.2737949       69.15104
2013    4       7       0.2763275       69.85556
2013    5       0       0.2784678       70.36979
2013    5       1       0.2374392       61.82466
2013    5       2       0.2058745       55.04798
2013    5       3       0.2388702       62.27918
2013    5       4       0.2596946       66.8704
2013    5       5       0.2761445       70.11955
2013    5       6       0.2445446       63.42042
2013    5       7       0.2246251       59.04526
2013    6       0       0.1950576       52.66382
2013    6       1       0.183392        49.82621
2013    6       2       0.203943        54.38337
2013    6       3       0.2452261       63.23913
2013    6       4       0.2559731       65.46736
2013    6       5       0.2604755       66.36104
2013    6       6       0.2726073       68.44413
2013    6       7       0.280574        69.52628
2013    7       0       0.2627466       66.10327
2013    7       1       0.2279321       59.40989
2013    7       2       0.2740364       69.58559
2013    7       3       0.3814177       90.70331
2013    7       4       0.3872451       91.83615
2013    7       5       0.3762889       90.30111
2013    7       6       0.2460027       63.72164
2013    7       7       0.239598        61.93743
2013    8       0       0.290808        72.43858
2013    8       1       0.3885895       90.24258
2013    8       2       0.5387844       116.4588
2013    8       3       0.8170692       157.0085
2013    8       4       0.7866457       151.6274
2013    8       5       0.8328935       156.7606
2013    8       6       0.6832339       137.1238
2013    8       7       0.8194889       156.9936
2013    9       0       1.312891        205.325
2013    9       1       1.008132        178.0573
2013    9       2       0.5811742       123.749
2013    9       3       0.5777757       122.5786
2013    9       4       0.4609056       102.6773
2013    9       5       0.3974402       91.44682
2013    9       6       0.4499796       100.0654
2013    9       7       0.2423817       61.58719
2013    10      0       0.1616858       44.34979
2013    10      1       0.1743065       47.23834
2013    10      2       0.1858323       49.90746
2013    10      3       0.4218567       97.36157
2013    10      4       0.377674        89.33498
2013    10      5       0.3771964       89.61079
2013    10      6       0.3417804       83.22961
2013    10      7       0.2760804       69.98262
2013    11      0       0.1684036       46.50969
2013    11      1       0.1537883       43.15262
2013    11      2       0.1426063       40.52444
2013    11      3       0.1239541       36.10738
2013    11      4       0.1902886       51.62566
2013    11      5       0.1882428       51.27921
2013    11      6       0.1870296       51.03143
2013    11      7       0.1784876       49.17973
2013    12      0       0.1963775       53.20444
2013    12      1       0.1977544       53.44893
2013    12      2       0.173742        47.97149
2013    12      3       0.2094092       55.98583
2013    12      4       0.1930167       52.59172
2013    12      5       0.1889186       51.62831
2013    12      6       0.1886032       51.52157
2013    12      7       0.1794642       49.50975
2013    13      0       0.1780828       49.22118
2013    13      1       0.2316223       61.33084
2013    13      2       0.2450892       64.28281
2013    13      3       0.283307        72.26558
2013    13      4       0.3016186       76.19216
2013    13      5       0.3380396       83.46599
2013    13      6       0.2866205       73.4622
2013    13      7       0.2557383       67.034
2013    14      0       0.23062         61.57903
2013    14      1       0.1938249       53.30215
2013    14      2       0.1344285       39.16531
2013    14      3       0.1271285       37.29364
2013    14      4       0.1966988       53.10029
2013    14      5       0.2744073       68.52047
2013    14      6       0.2275205       59.14813
2013    14      7       0.2341485       60.90785
2013    15      0       0.2114543       56.36419
2013    15      1       0.1797454       48.70006
2013    15      2       0.1685031       46.29353
2013    15      3       0.1833964       50.14312
2013    15      4       0.2435768       63.46115
2013    15      5       0.2591374       66.42723
2013    15      6       0.2809379       70.85007
2013    15      7       0.271415        68.6856
2013    16      0       0.2826362       69.85614
2013    16      1       0.3498501       83.74279
2013    16      2       0.3587366       85.25524
2013    16      3       0.3560859       85.12978
2013    16      4       0.4232632       96.66337
2013    16      5       0.413358        94.7334
2013    16      6       0.3601314       85.53205
2013    16      7       0.335566        81.09553
2013    17      0       0.5032594       109.6038
2013    17      1       0.7234616       142.8691
2013    17      2       1.090871        183.8809
2013    17      3       1.412521        208.5316
2013    17      4       1.528023        214.9786
2013    17      5       1.719892        225.5572
2013    17      6       1.341397        203.0241
2013    17      7       1.194578        191.9385
2013    18      0       0.7392313       144.4551
2013    18      1       0.8898918       161.14
2013    18      2       0.4052642       92.87304
2013    18      3       0.4087803       93.71671
2013    18      4       0.31534         76.99469
2013    18      5       0.2888367       71.66984
2013    18      6       0.3064081       75.07457
2013    18      7       0.2928549       72.33753
2013    19      0       0.2540311       64.53834
2013    19      1       0.1974921       52.48703
2013    19      2       0.1768371       47.83779
2013    19      3       0.2702389       67.63916
2013    19      4       0.3191879       77.78486
2013    19      5       0.3599997       85.75283
2013    19      6       0.3743212       88.33156
2013    19      7       0.2310323       60.17797
2013    20      0       0.2285565       59.69172
2013    20      1       0.21175         56.04192
2013    20      2       0.1810541       49.27653
2013    20      3       0.2652141       67.33502
2013    20      4       0.2647153       67.54311
2013    20      5       0.2797895       70.68141
2013    20      6       0.337155        81.90037
2013    20      7       0.341697        82.68341
2013    21      0       0.2762972       69.95161
2013    21      1       0.1886813       51.20177
2013    21      2       0.1420284       40.56946
2013    21      3       0.2237591       59.72467
2013    21      4       0.2459705       64.11701
2013    21      5       0.2980446       74.60873
2013    21      6       0.3070894       75.80111
2013    21      7       0.3349712       81.30637
2013    22      0       0.3207005       78.59973
2013    22      1       0.3474237       83.59244
2013    22      2       0.3859564       90.79362
2013    22      3       0.4980115       109.9978
2013    22      4       0.5875218       123.8799
2013    22      5       0.6110073       127.6599
2013    22      6       0.5529475       119.4022
2013    22      7       0.5747607       122.7747
2013    23      0       0.5007236       111.6554
2013    23      1       0.4250412       99.21083
2013    23      2       0.4636178       106.3335
2013    23      3       0.425829        99.59993
2013    23      4       0.388838        93.16214
2013    23      5       0.391622        93.57948
2013    23      6       0.3903991       93.5035
2013    23      7       0.3788198       91.65085
2013    24      0       0.3611931       88.43126
2013    24      1       0.3497769       86.21183
2013    24      2       0.3491268       85.95744
2013    24      3       0.3322631       82.53065
2013    24      4       0.3154397       79.52784
2013    24      5       0.3161639       79.81614
2013    24      6       0.2988881       76.23669
2013    24      7       0.2813063       72.58676
2013    25      0       0.274364        71.14198
2013    25      1       0.266726        69.43258
2013    25      2       0.2608404       68.0634
2013    25      3       0.2736502       70.77049
2013    25      4       0.2899183       74.24818
2013    25      5       0.2959362       75.48453
2013    25      6       0.3014199       76.47033
2013    25      7       0.2987915       75.89441
2013    26      0       0.2826677       72.46534
2013    26      1       0.2467967       64.77852
2013    26      2       0.2429916       63.91248
2013    26      3       0.2758869       70.8447
2013    26      4       0.3001389       76.10732
2013    26      5       0.3031411       76.69983
2013    26      6       0.3349114       82.98511
2013    26      7       0.3569946       87.22815
2013    27      0       0.3465015       85.12892
2013    27      1       0.3376487       83.19077
2013    27      2       0.3167857       79.03224
2013    27      3       0.312947        77.96015
2013    27      4       0.324719        80.51582
2013    27      5       0.3560022       86.9128
2013    27      6       0.3653249       88.9706
2013    27      7       0.366504        89.34751
2013    28      0       0.3474184       85.59072
2013    28      1       0.3194747       79.92008
2013    28      2       0.3128058       78.41504
2013    28      3       0.3318862       81.92308
2013    28      4       0.344894        84.38579
2013    28      5       0.3394425       83.40738
2013    28      6       0.2127758       56.82701
2013    28      7       0.1945909       52.96566
2013    29      0       0.2115578       56.94073
2013    29      1       0.2070349       55.96803
2013    29      2       0.1796792       49.64787
2013    29      3       0.2397994       62.96042
2013    29      4       0.2882245       73.30116
2013    29      5       0.23692         62.5683
2013    29      6       0.2108325       56.94657
2013    29      7       0.1881644       51.82659
2013    30      0       0.1639866       45.98112
2013    30      1       0.1729617       48.04337
2013    30      2       0.1714963       47.75329
2013    30      3       0.2429043       64.00697
2013    30      4       0.2729758       70.79329
2013    30      5       0.2658893       69.49575
2013    30      6       0.2757271       71.48564
2013    30      7       0.2598029       67.98678
2014    1       0       0.4434625       100.8487
2014    1       1       0.2046404       54.18471
2014    1       2       0.3098321       75.91419
2014    1       3       0.5641778       121.3277
2014    1       4       0.5872734       125.1386
2014    1       5       0.5694937       122.2179
2014    1       6       0.5555214       119.5926
2014    1       7       0.5837782       122.6577
2014    2       0       0.6885084       136.2946
2014    2       1       1.108497        183.0757
2014    2       2       1.223991        191.9249
2014    2       3       0.7732823       145.596
2014    2       4       0.8235467       151.5751
2014    2       5       1.064192        176.8247
2014    2       6       0.9225989       164.2081
2014    2       7       0.7175505       141.2856
2014    3       0       0.5235311       113.4845
2014    3       1       0.8059786       152.7038
2014    3       2       0.7210612       142.4449
2014    3       3       0.6741035       136.1863
2014    3       4       0.5703043       121.5391
2014    3       5       0.5332067       115.618
2014    3       6       0.5332488       115.9559
2014    3       7       0.4613533       104.3333
2014    4       0       0.4107912       95.65194
2014    4       1       0.3707755       88.36367
2014    4       2       0.3471716       83.76388
2014    4       3       0.3462374       83.45602
2014    4       4       0.3311484       80.80012
2014    4       5       0.3111517       76.92107
2014    4       6       0.2602525       66.89268
2014    4       7       0.2416207       63.09076
2014    5       0       0.2374556       62.27898
2014    5       1       0.2567578       66.38015
2014    5       2       0.2580259       66.54384
2014    5       3       0.2812207       71.3328
2014    5       4       0.2762788       70.60132
2014    5       5       0.2855872       72.62473
2014    5       6       0.2771897       71.05013
2014    5       7       0.25222         65.84518
2014    6       0       0.2288892       60.77568
2014    6       1       0.2165216       58.01563
2014    6       2       0.2805219       71.89363
2014    6       3       0.3328738       82.39302
2014    6       4       0.3989901       95.11045
2014    6       5       0.4799035       109.3719
2014    6       6       0.5584768       121.9043
2014    6       7       0.5670235       123.3982
2014    7       0       0.5806394       125.2795
2014    7       1       0.5886019       125.8536
2014    7       2       0.5618086       120.9177
2014    7       3       0.5436253       117.7122
2014    7       4       0.5487921       118.9159
2014    7       5       0.6010296       126.702
2014    7       6       0.5687913       121.7051
2014    7       7       0.5060167       111.8294
2014    8       0       0.4921415       109.0602
2014    8       1       0.5106653       112.0855
2014    8       2       0.5212094       114.198
2014    8       3       0.5143371       113.5608
2014    8       4       0.6078937       128.3063
2014    8       5       0.6746305       138.0342
2014    8       6       0.6872067       139.7749
2014    8       7       0.6608958       136.3088
2014    9       0       0.6596717       136.3145
2014    9       1       0.6437345       134.0887
2014    9       2       0.6088324       128.9261
2014    9       3       0.610494        129.2339
2014    9       4       0.6458129       134.4809
2014    9       5       0.6903739       140.5789
2014    9       6       0.6807419       139.0683
2014    9       7       0.6288436       131.884
2014    10      0       0.6485517       134.6583
2014    10      1       0.650966        135.0293
2014    10      2       0.6194701       130.4803
2014    10      3       0.5935096       126.764
2014    10      4       0.5956386       127.2771
2014    10      5       0.6106043       129.5385
2014    10      6       0.6242357       131.3444
2014    10      7       0.568631        123.0983
2014    11      0       0.54825         119.9072
2014    11      1       0.5380201       118.1391
2014    11      2       0.4990898       112.0029
2014    11      3       0.5043383       112.818
2014    11      4       0.5197325       115.412
2014    11      5       0.5570228       121.3772
2014    11      6       0.6133825       129.9657
2014    11      7       0.6068891       129.1086
2014    12      0       0.5879012       126.0129
2014    12      1       0.5564925       121.0429
2014    12      2       0.4999952       112.0166
2014    12      3       0.4685611       106.8033
2014    12      4       0.4734316       107.7852
2014    12      5       0.492436        111.0685
2014    12      6       0.4982139       111.921
2014    12      7       0.5130151       114.299
2014    13      0       0.499681        112.2049
2014    13      1       0.4742502       107.9068
2014    13      2       0.5015701       111.9112
2014    13      3       0.6441029       133.2739
2014    13      4       0.8758423       162.6246
2014    13      5       1.255879        197.9006
2014    13      6       1.247219        197.3919
2014    13      7       1.279215        199.0739
2014    14      0       1.257286        198.3922
2014    14      1       1.124166        188.4321
2014    14      2       1.081076        184.7355
2014    14      3       1.337628        205.486
2014    14      4       1.458181        213.5284
2014    14      5       1.476109        214.2862
2014    14      6       1.338115        205.6665
2014    14      7       0.8800061       164.7026
2014    15      0       0.6854379       140.4235
2014    15      1       0.7016514       142.3422
2014    15      2       0.7285149       145.3441
2014    15      3       0.6661971       136.8
2014    15      4       0.5624045       121.8981
2014    15      5       0.5086487       113.6632
2014    15      6       0.5018769       112.4483
2014    15      7       0.3919579       93.18957
2014    16      0       0.2715908       69.63767
2014    16      1       0.173584        48.03847
2014    16      2       0.1517552       42.72651
2014    16      3       0.2278602       59.99045
2014    16      4       0.2703731       69.32155
2014    16      5       0.2765782       70.78988
2014    16      6       0.267978        69.179
2014    16      7       0.2524837       65.99166
2014    17      0       0.2647997       68.47365
2014    17      1       0.2542621       66.30206
2014    17      2       0.236532        62.55002
2014    17      3       0.2715531       69.95625
2014    17      4       0.3157056       79.21403
2014    17      5       0.6364331       133.7714
2014    17      6       0.7761254       152.6131
2014    17      7       0.7286049       146.6461
2014    18      0       0.6819716       140.6565
2014    18      1       0.6552329       137.056
2014    18      2       0.6243686       132.2103
2014    18      3       0.5298333       117.5809
2014    18      4       0.3881685       93.26672
2014    18      5       0.3382242       83.7258
2014    18      6       0.3174983       79.42386
2014    18      7       0.3541117       86.63073
2014    19      0       0.4294786       100.7102
2014    19      1       0.5168636       115.5859
2014    19      2       0.52547         116.9136
2014    19      3       0.5079122       113.8585
2014    19      4       0.5957475       127.6492
2014    19      5       0.8284626       158.9351
2014    19      6       0.7994144       155.6331
2014    19      7       0.8704503       164.5216
2014    20      0       0.9739609       175.8655
2014    20      1       1.011227        179.6513
2014    20      2       0.9160601       169.0335
2014    20      3       0.9471422       171.9964
2014    20      4       1.020141        179.1695
2014    20      5       0.973173        174.3247
2014    20      6       0.9061517       167.5413
2014    20      7       0.8144797       157.175
2014    21      0       0.7693309       151.606
2014    21      1       0.7445855       148.2908
2014    21      2       0.7539379       149.3698
2014    21      3       0.8187614       157.049
2014    21      4       0.8856004       164.5175
2014    21      5       0.8646573       162.1486
2014    21      6       0.8179405       156.2816
2014    21      7       0.750744        147.6089
2014    22      0       0.7141649       142.6266
2014    22      1       0.6749983       137.113
2014    22      2       0.5475653       118.4529
2014    22      3       0.5342619       116.1299
2014    22      4       0.5408592       116.5579
2014    22      5       0.5869084       123.7969
2014    22      6       0.8847322       162.5483
2014    22      7       0.8279496       155.5313
2014    23      0       0.9491372       168.1269
2014    23      1       0.938713        166.2329
2014    23      2       0.8169023       151.8979
2014    23      3       0.8695583       157.2002
2014    23      4       0.9570189       166.223
2014    23      5       0.8937642       160.0553
2014    23      6       0.8463006       156.186
2014    23      7       0.8039883       151.8678
2014    24      0       0.6304686       129.6247
2014    24      1       0.4047861       93.79144
2014    24      2       0.4409117       100.0733
2014    24      3       0.5969907       124.9052
2014    24      4       0.4749611       106.5743
2014    24      5       0.4071291       95.25401
2014    24      6       0.371634        88.74269
2014    24      7       0.3662602       87.62962
2014    25      0       0.3746247       88.9825
2014    25      1       0.3783436       89.56158
2014    25      2       0.3886542       92.10556
2014    25      3       0.4182139       97.56402
2014    25      4       0.3736239       89.00502
2014    25      5       0.3343283       81.65084
2014    25      6       0.295921        74.15535
2014    25      7       0.2664695       67.92431
2014    26      0       0.238883        62.16164
2014    26      1       0.2123739       56.13597
2014    26      2       0.2480747       62.76376
2014    26      3       0.3048259       73.38869
2014    26      4       0.2639839       64.68459
2014    26      5       0.7183923       143.1843
2014    26      6       0.5419885       117.8314
2014    26      7       0.2999248       74.61782
2014    27      0       0.09633566      29.12717
2014    27      1       0.07336714      23.16993
2014    27      2       0.06554446      21.07294
2014    27      3       0.07446779      23.0776
2014    27      4       0.1792663       47.75675
2014    27      5       0.3144072       75.71331
2014    27      6       0.3429557       81.24457
2014    27      7       0.2107117       54.1107
2014    28      0       0.2464586       61.75972
2014    28      1       0.2845872       69.64969
2014    28      2       0.347679        82.18343
2014    28      3       0.4633798       102.633
2014    28      4       0.5343069       115.2329
2014    28      5       0.4685219       105.3794
2014    28      6       0.3965944       92.93708
2014    28      7       0.3168765       78.0625
2014    29      0       0.1885206       51.10333
2014    29      1       0.1747634       48.26022
2014    29      2       0.2418418       62.72213
2014    29      3       0.2436822       63.02359
2014    29      4       0.2575536       65.97245
2014    29      5       0.3144049       77.63861
2014    29      6       0.4492505       103.0639
2014    29      7       0.5365754       117.9148
2014    30      0       0.5071902       112.4338
2014    30      1       0.3569718       85.33732
2014    30      2       0.3769094       88.4028
2014    30      3       0.4788949       106.6436
2014    30      4       0.5119423       111.9587
2014    30      5       0.447769        101.6003
2014    30      6       0.360738        86.04349
2014    30      7       0.3838887       89.96832
2015    1       0       0.8269446       159.7594
2015    1       1       0.7258436       147.1783
2015    1       2       0.6951696       143.3755
2015    1       3       0.8043726       157.3452
2015    1       4       1.123795        190.5874
2015    1       5       1.239282        200.0996
2015    1       6       1.309782        205.0657
2015    1       7       1.286733        203.2758
2015    2       0       1.18313         194.9901
2015    2       1       1.010213        179.2116
2015    2       2       1.164133        193.0734
2015    2       3       1.404203        211.2731
2015    2       4       1.542605        220.0314
2015    2       5       1.512589        217.9641
2015    2       6       1.487125        216.5684
2015    2       7       1.272237        202.1564
2015    3       0       1.277806        202.7952
2015    3       1       1.114189        188.9951
2015    3       2       0.960859        173.553
2015    3       3       0.9552159       172.4103
2015    3       4       1.010542        178.081
2015    3       5       1.001745        177.0708
2015    3       6       0.8780388       163.7396
2015    3       7       0.6620585       136.7333
2015    4       0       0.5693867       123.146
2015    4       1       0.4965085       111.3793
2015    4       2       0.3041235       75.92794
2015    4       3       0.34418         83.57276
2015    4       4       0.4511785       103.1336
2015    4       5       0.5148557       114.2914
2015    4       6       0.6344265       131.9182
2015    4       7       0.5202878       114.0444
2015    5       0       0.696816        139.6917
2015    5       1       0.5726252       122.3717
2015    5       2       0.2441362       63.41528
2015    5       3       0.3424483       82.99441
2015    5       4       0.4158999       96.77822
2015    5       5       0.4697628       106.1658
2015    5       6       0.5789683       123.5186
2015    5       7       0.7120817       142.8577
2015    6       0       0.5054498       112.1727
2015    6       1       0.5083762       112.4094
2015    6       2       0.4979822       110.7938
2015    6       3       0.5074945       111.7606
2015    6       4       0.5756359       122.5312
2015    6       5       0.5474479       118.5008
2015    6       6       0.5203185       114.5202
2015    6       7       0.4990501       111.2126
2015    7       0       0.4737105       106.9192
2015    7       1       0.4494296       102.8794
2015    7       2       0.4386482       100.9591
2015    7       3       0.4636716       105.5101
2015    7       4       0.5179427       114.4096
2015    7       5       0.544882        118.8674
2015    7       6       0.5134009       113.9117
2015    7       7       0.4269          99.83953
2015    8       0       0.4419023       102.6229
2015    8       1       0.4702921       107.4234
2015    8       2       0.4477248       103.623
2015    8       3       0.4102356       97.01126
2015    8       4       0.3911518       93.59253
2015    8       5       0.3920799       93.82371
2015    8       6       0.3605587       88.38584
2015    8       7       0.3661904       89.47107
2015    9       0       0.3572838       87.61955
2015    9       1       0.3760107       91.13766
2015    9       2       0.4641526       106.9827
2015    9       3       0.443173        103.2823
2015    9       4       0.4351787       101.8833
2015    9       5       0.4771927       109.0089
2015    9       6       0.5025004       113.0923
2015    9       7       0.5700772       123.7676
2015    10      0       0.5908867       126.9741
2015    10      1       0.5867799       125.9553
2015    10      2       0.5935457       126.3644
2015    10      3       0.6303001       131.3744
2015    10      4       0.6973812       140.821
2015    10      5       0.9065531       166.3996
2015    10      6       1.03699         179.4004
2015    10      7       1.157626        189.6673
2015    11      0       1.234665        196.2621
2015    11      1       1.019062        177.7001
2015    11      2       1.376287        206.907
2015    11      3       1.216477        194.7228
2015    11      4       1.171781        191.8099
2015    11      5       1.052368        182.072
2015    11      6       0.9237228       169.1901
2015    11      7       0.7963724       154.7111
2015    12      0       0.6670252       138.0216
2015    12      1       0.6024606       128.7132
2015    12      2       0.5151812       115.0635
2015    12      3       0.5046759       113.2484
2015    12      4       0.5104351       113.9673
2015    12      5       0.5131508       114.3653
2015    12      6       0.5043634       113.0365
2015    12      7       0.4954882       111.896
2015    13      0       0.5141093       115.1599
2015    13      1       0.5291056       117.6288
2015    13      2       0.5271224       117.325
2015    13      3       0.5605585       122.7949
2015    13      4       0.6118159       130.4878
2015    13      5       0.6765959       139.5357
2015    13      6       0.655035        136.3561
2015    13      7       0.5730424       124.1911
2015    14      0       0.5419188       118.8698
2015    14      1       0.4707768       107.0832
2015    14      2       0.3384059       83.10373
2015    14      3       0.4054596       95.45727
2015    14      4       0.2829313       71.81647
2015    14      5       0.2276017       59.77039
2015    14      6       0.2529659       64.66167
2015    14      7       0.1543885       43.33664
2015    15      0       0.08443675      26.12718
2015    15      1       0.1233686       35.09394
2015    15      2       0.2495121       62.35143
2015    15      3       0.5200839       111.1955
2015    15      4       0.6025858       122.7329
2015    15      5       0.4535881       100.7618
2015    15      6       0.312353        76.14038
2015    15      7       0.26202         66.06853
2015    16      0       0.2642336       66.2633
2015    16      1       0.3105955       75.47003
2015    16      2       0.1013595       30.18784
2015    16      3       0.3297875       78.64325
2015    16      4       0.4699103       103.8523
2015    16      5       0.3299604       79.5384
2015    16      6       0.5331981       115.3255
2015    16      7       0.2695331       68.26895
2015    17      0       0.1069639       31.88225
2015    17      1       0.08168242      25.51359
2015    17      2       0.09712085      29.31218
2015    17      3       0.2439578       62.68641
2015    17      4       0.4715814       105.488
2015    17      5       0.4940065       109.3705
2015    17      6       0.4882106       108.3623
2015    17      7       0.3218706       78.54632
2015    18      0       0.2558753       65.18083
2015    18      1       0.2390867       61.67605
2015    18      2       0.2172941       57.03084
2015    18      3       0.2792898       70.06486
2015    18      4       0.2438643       63.06323
2015    18      5       0.2238533       58.87558
2015    18      6       0.2208481       58.30722
2015    18      7       0.2106264       56.07163
2015    19      0       0.1734116       47.75467
2015    19      1       0.1554084       43.58669
2015    19      2       0.127545        36.99138
2015    19      3       0.1672168       46.01545
2015    19      4       0.1912206       50.99021
2015    19      5       0.1943267       51.81118
2015    19      6       0.2232778       57.49539
2015    19      7       0.3024655       72.48689
2015    20      0       0.2438861       61.22741
2015    20      1       0.2683824       65.95366
2015    20      2       0.2775306       67.49756
2015    20      3       0.2657554       66.30682
2015    20      4       0.2229874       58.47674
2015    20      5       0.194622        52.65796
2015    20      6       0.179911        49.51486
2015    20      7       0.1531809       43.52165
2015    21      0       0.1499348       42.60984
2015    21      1       0.1503567       42.60665
2015    21      2       0.1495437       42.26594
2015    21      3       0.1970671       53.15638
2015    21      4       0.2153885       57.33709
2015    21      5       0.2340316       60.89949
2015    21      6       0.2530886       64.5945
2015    21      7       0.2505309       64.72339
2015    22      0       0.2479603       64.33969
2015    22      1       0.2765634       70.36466
2015    22      2       0.3272531       80.49499
2015    22      3       0.3270026       80.41384
2015    22      4       0.3401308       82.68432
2015    22      5       0.301395        74.99101
2015    22      6       0.2810147       71.43561
2015    22      7       0.2517506       65.31644
2015    23      0       0.2406129       62.96371
2015    23      1       0.1737155       48.03837
2015    23      2       0.1537341       43.27293
2015    23      3       0.1622876       45.28835
2015    23      4       0.3183603       79.0369
2015    23      5       0.3442936       84.07991
2015    23      6       0.3463431       84.541
2015    23      7       0.3289613       81.2002
2015    24      0       0.3182874       78.94595
2015    24      1       0.3092181       76.988
2015    24      2       0.3192433       79.01232
2015    24      3       0.3719587       89.36255
2015    24      4       0.3361439       82.50994
2015    24      5       0.3266737       80.42811
2015    24      6       0.3065699       76.44073
2015    24      7       0.2671125       68.75181
2015    25      0       0.2581201       66.78752
2015    25      1       0.2559507       66.27081
2015    25      2       0.2465429       64.05718
2015    25      3       0.2591416       66.20694
2015    25      4       0.2929822       72.64178
2015    25      5       0.3104194       75.83745
2015    25      6       0.2262486       58.42284
2015    25      7       0.2290926       58.33341
2015    26      0       0.1845059       49.62347
2015    26      1       0.1367335       39.45465
2015    26      2       0.1647515       45.64335
2015    26      3       0.21843         57.59084
2015    26      4       0.2792551       70.64394
2015    26      5       0.2862729       71.89996
2015    26      6       0.3195458       78.27955
2015    26      7       0.3195175       77.91508
2015    27      0       0.3450675       83.63019
2015    27      1       0.2373814       61.8337
2015    27      2       0.1924888       52.25922
2015    27      3       0.2465135       64.00935
2015    27      4       0.2599037       66.73278
2015    27      5       0.2873056       72.05538
2015    27      6       0.2892086       72.28163
2015    27      7       0.2702163       68.6476
2015    28      0       0.2508722       64.55999
2015    28      1       0.2451574       63.32089
2015    28      2       0.2850874       71.1917
2015    28      3       0.3726409       87.72763
2015    28      4       0.4315756       98.57607
2015    28      5       0.4164512       96.47075
2015    28      6       0.371128        88.50912
2015    28      7       0.3404882       82.51911
2015    29      0       0.2897978       72.37299
2015    29      1       0.2362677       60.53422
2015    29      2       0.216856        56.27189
2015    29      3       0.2343754       61.64684
2015    29      4       0.3760565       90.18199
2015    29      5       0.4070655       95.67827
2015    29      6       0.2657442       68.02864
2015    29      7       0.1399205       39.9712
2015    30      0       0.09299545      28.39686
2015    30      1       0.1619856       45.13518
2015    30      2       0.1650067       45.86362
2015    30      3       0.1340687       38.68358
2015    30      4       0.2734594       69.76448
2015    30      5       0.2776966       70.895
2015    30      6       0.260683        67.3071
2015    30      7       0.2177241       57.93499
2016    1       0       0.2431403       63.47964
2016    1       1       0.1704916       47.0772
2016    1       2       0.1810667       49.01472
2016    1       3       0.3439236       82.65669
2016    1       4       0.4143241       95.4295
2016    1       5       0.5077244       111.5135
2016    1       6       0.5562125       119.2267
2016    1       7       0.40662         94.30898
2016    2       0       0.3176228       77.54645
2016    2       1       0.2441646       62.7832
2016    2       2       0.1743058       47.68257
2016    2       3       0.2464266       63.79152
2016    2       4       0.2702616       69.16673
2016    2       5       0.2585255       66.92692
2016    2       6       0.2422352       63.55297
2016    2       7       0.2142302       57.51715
2016    3       0       0.1479194       42.30465
2016    3       1       0.1233495       36.15971
2016    3       2       0.1320111       37.94186
2016    3       3       0.2182397       57.72959
2016    3       4       0.2411012       62.72544
2016    3       5       0.2779179       70.46519
2016    3       6       0.2810076       71.38109
2016    3       7       0.2080993       56.33314
2016    4       0       0.3256438       80.48355
2016    4       1       0.7016856       141.3932
2016    4       2       1.07273         184.4126
2016    4       3       1.157147        191.1855
2016    4       4       1.421652        212.1086
2016    4       5       0.9153099       167.6389
2016    4       6       0.4556462       105.0239
2016    4       7       0.1777452       49.3265
2016    5       0       0.1296892       37.92683
2016    5       1       0.172624        47.6239
2016    5       2       0.1965263       52.83101
2016    5       3       0.3117617       77.37093
2016    5       4       0.280286        71.02043
2016    5       5       0.3324382       81.44954
2016    5       6       0.5085989       112.1575
2016    5       7       0.5550926       119.2276
2016    6       0       0.472382        106.3642
2016    6       1       0.2352139       61.7099
2016    6       2       0.1345804       38.91315
2016    6       3       0.1708991       47.87441
2016    6       4       0.2140045       57.16361
2016    6       5       0.1975461       53.5191
2016    6       6       0.1293484       37.68269
2016    6       7       0.1319707       38.4251
2016    7       0       0.3947141       94.10309
2016    7       1       0.4824146       109.2941
2016    7       2       0.5337799       117.7219
2016    7       3       0.5558092       121.171
2016    7       4       0.630749        132.3272
2016    7       5       0.6305338       132.2317
2016    7       6       0.5834998       126.2798
2016    7       7       0.4999259       112.4344
2016    8       0       0.5616778       122.2158
2016    8       1       0.5949234       127.53
2016    8       2       0.5621444       122.994
2016    8       3       0.5368177       119.5432
2016    8       4       0.5247359       117.5945
2016    8       5       0.5327426       118.4682
2016    8       6       0.5290434       118.0165
2016    8       7       0.5454595       120.6334
2016    9       0       0.5033978       114.7013
2016    9       1       0.4565669       106.4706
2016    9       2       0.4197229       100.1416
2016    9       3       0.5145964       117.1782
2016    9       4       0.4944791       113.8592
2016    9       5       0.4958416       112.9869
2016    9       6       0.4965438       115.0596
2016    9       7       0.5215808       119.62
2016    10      0       0.5476199       123.784
2016    10      1       0.5318451       120.7256
2016    10      2       0.4700315       110.2336
2016    10      3       0.5352387       121.5205
2016    10      4       0.5223483       119.0499
2016    10      5       0.5510798       122.4792
2016    10      6       0.5765523       126.4485
2016    10      7       0.5544926       124.3345
2016    11      0       0.5548578       124.9251
2016    11      1       0.4944475       114.8223
2016    11      2       0.5147993       117.8289
2016    11      3       0.5981663       129.8667
2016    11      4       0.6192362       132.7821
2016    11      5       0.6798626       141.2827
2016    11      6       0.6448706       136.7341
2016    11      7       0.6479381       136.1757
2016    12      0       0.4740174       107.7913
2016    12      1       0.3955655       93.23511
2016    12      2       0.4572558       103.7917
2016    12      3       0.5698409       122.7377
2016    12      4       0.7366817       147.6359
2016    12      5       0.7739388       152.803
2016    12      6       0.6915895       142.4674
2016    12      7       0.6889804       142.0085
2016    13      0       0.6280258       133.3006
2016    13      1       0.6047059       129.7476
2016    13      2       0.6449639       135.8066
2016    13      3       0.649573        136.0939
2016    13      4       0.675896        139.3861
2016    13      5       0.6815078       140.0936
2016    13      6       0.7002745       142.714
2016    13      7       0.7101047       144.2193
2016    14      0       0.625047        132.4382
2016    14      1       0.5780291       125.4487
2016    14      2       0.5787977       125.8188
2016    14      3       0.5412552       120.0351
2016    14      4       0.5399782       119.9821
2016    14      5       0.5663217       124.144
2016    14      6       0.9939547       179.8698
2016    14      7       0.5535171       121.8964
2016    15      0       0.5496146       121.4773
2016    15      1       0.561651        123.4862
2016    15      2       0.5239174       117.4063
2016    15      3       0.5072004       114.5409
2016    15      4       0.5265192       117.7854
2016    15      5       0.5835322       126.6181
2016    15      6       0.5923184       127.7643
2016    15      7       0.5732103       124.5571
2016    16      0       0.5737598       124.0013
2016    16      1       0.5192186       115.3494
2016    16      2       0.4877817       110.0442
2016    16      3       0.5293375       116.6743
2016    16      4       0.5856343       125.3515
2016    16      5       0.6589869       135.5388
2016    16      6       0.6578701       135.2207
2016    16      7       0.6707015       137.2139
2016    17      0       0.6922777       140.1022
2016    17      1       0.7802519       151.031
2016    17      2       0.8344347       157.1588
2016    17      3       0.8882022       163.1801
2016    17      4       1.273894        199.1199
2016    17      5       1.301176        202.1667
2016    17      6       1.406897        209.7487
2016    17      7       0.9006766       166.4803
2016    18      0       0.833672        158.4034
2016    18      1       0.7951777       153.545
2016    18      2       0.7317338       145.618
2016    18      3       0.7428936       147.3395
2016    18      4       0.7243575       144.9149
2016    18      5       0.6777687       138.6448
2016    18      6       0.6700345       137.4516
2016    18      7       0.7027892       141.715
2016    19      0       0.7020141       141.6227
2016    19      1       0.6966822       141.1155
2016    19      2       0.8695426       162.9661
2016    19      3       1.533462        218.2134
2016    19      4       1.074575        184.5028
2016    19      5       1.078219        184.8819
2016    19      6       0.9515283       172.2269
2016    19      7       0.9065742       166.9928
2016    20      0       0.8911592       165.7685
2016    20      1       0.8619901       163.0483
2016    20      2       0.8454691       161.1078
2016    20      3       1.35443         205.9391
2016    20      4       1.345339        206.7376
2016    20      5       1.325768        205.812
2016    20      6       1.149591        191.5325
2016    20      7       0.6912671       140.9943
2016    21      0       0.2654167       68.37338
2016    21      1       0.4344862       99.64471
2016    21      2       0.9555565       170.9502
2016    21      3       0.8382733       157.5642
2016    21      4       0.6962041       140.0725
2016    21      5       0.7394107       145.5935
2016    21      6       0.8086099       153.5044
2016    21      7       0.8136069       153.8922
2016    22      0       0.6920275       137.8985
2016    22      1       0.7953794       150.3589
2016    22      2       0.8034692       152.68
2016    22      3       0.9073123       163.8449
2016    22      4       0.7913314       152.7991
2016    22      5       0.7079213       142.0399
2016    22      6       1.046548        180.6731
2016    22      7       1.815297        231.7094
2016    23      0       0.6068078       127.5058
2016    23      1       0.1980823       52.98559
2016    23      2       0.1786694       48.27823
2016    23      3       0.2366573       61.03732
2016    23      4       0.3361881       81.31805
2016    23      5       0.3690228       87.62013
2016    23      6       0.3860905       91.064
2016    23      7       0.3703648       88.99472
2016    24      0       0.4726297       107.5625
2016    24      1       0.3605209       87.5141
2016    24      2       0.2742605       70.50812
2016    24      3       0.4529955       104.9826
2016    24      4       0.4958323       112.8877
2016    24      5       0.4530871       105.6273
2016    24      6       0.4173746       98.9525
2016    24      7       0.3267649       81.46397
2016    25      0       0.2805935       71.76919
2016    25      1       0.2272211       60.06963
2016    25      2       0.2056099       54.96344
2016    25      3       0.244665        63.31757
2016    25      4       0.2608607       67.38178
2016    25      5       0.3594977       87.12731
2016    25      6       0.1985769       53.80647
2016    25      7       0.1058891       31.92827
2016    26      0       0.06923158      22.5084
2016    26      1       0.08674858      27.02749
2016    26      2       0.09458474      28.97204
2016    26      3       0.1037177       31.29575
2016    26      4       0.185463        50.81732
2016    26      5       0.1858521       50.99468
2016    26      6       0.1595817       45.05632
2016    26      7       0.1289413       37.60199
2016    27      0       0.1124511       33.39477
2016    27      1       0.1372424       38.96678
2016    27      2       0.1600037       44.28566
2016    27      3       0.1746633       48.06299
2016    27      4       0.2046972       55.02219
2016    27      5       0.2407567       63.0245
2016    27      6       0.4075176       96.45571
2016    27      7       0.4539871       104.8732
2016    28      0       0.4186652       98.53779
2016    28      1       0.3643242       88.48987
2016    28      2       0.3182427       79.41541
2016    28      3       0.3564667       86.61944
2016    28      4       0.3760098       90.45276
2016    28      5       0.3579485       87.24755
2016    28      6       0.3515738       85.92809
2016    28      7       0.3982015       94.42813
2016    29      0       0.7038173       142.9982
2016    29      1       0.9181545       168.5126
2016    29      2       0.854325        161.1918
2016    29      3       1.34075         205.1393
2016    29      4       1.417773        209.4343
2016    29      5       1.566457        217.3636
2016    29      6       1.033741        177.185
2016    29      7       0.4287809       98.02198
2016    30      0       0.103477        31.09682
2016    30      1       0.1995873       53.38512
2016    30      2       0.06763937      22.1667
2016    30      3       0.1048043       31.30823
2016    30      4       0.2200555       57.94708
2016    30      5       0.2626441       66.78504
2016    30      6       0.2726133       68.62556
2016    30      7       0.1643201       44.68658
2017    1       0       0.2922986       73.94619
2017    1       1       0.2417486       63.92779
2017    1       2       0.2540958       66.44024
2017    1       3       0.3371845       83.30663
2017    1       4       0.3635844       88.10936
2017    1       5       0.3919713       93.32303
2017    1       6       0.3858241       91.42584
2017    1       7       0.4922087       110.773
2017    2       0       0.6086997       128.9802
2017    2       1       0.6699504       137.7589
2017    2       2       0.7318369       145.5836
2017    2       3       0.8121478       155.4391
2017    2       4       0.5967555       127.2665
2017    2       5       0.5187905       115.4152
2017    2       6       0.4467294       103.0547
2017    2       7       0.3828915       91.51121
2017    3       0       0.4850076       111.3725
2017    3       1       0.3557253       86.43335
2017    3       2       0.443018        101.9846
2017    3       3       0.4580987       104.9216
2017    3       4       0.453075        104.2141
2017    3       5       0.4731579       107.7248
2017    3       6       0.5384194       118.7118
2017    3       7       0.5448065       119.7299
2017    4       0       0.564899        123.0833
2017    4       1       0.6647164       137.885
2017    4       2       0.7358723       147.2819
2017    4       3       0.7660816       150.8918
2017    4       4       0.7148499       144.8721
2017    4       5       0.6461343       136.0403
2017    4       6       0.6254153       132.6712
2017    4       7       0.5741228       124.4975
2017    5       0       0.5148788       114.4313
2017    5       1       0.4406458       101.6848
2017    5       2       0.3786419       89.96398
2017    5       3       0.3871167       91.68112
2017    5       4       0.4382998       101.0701
2017    5       5       0.5367926       117.5037
2017    5       6       0.5986314       126.9748
2017    5       7       0.589988        125.2188
2017    6       0       0.5527959       119.6631
2017    6       1       0.4916062       110.0054
2017    6       2       0.460975        104.7535
2017    6       3       0.496758        110.6991
2017    6       4       0.6695802       137.2047
2017    6       5       0.7199574       143.9489
2017    6       6       0.7524622       147.9567
2017    6       7       0.6617803       136.4131
2017    7       0       0.7665897       149.6349
2017    7       1       0.797578        153.9374
2017    7       2       0.7726508       150.6648
2017    7       3       0.9123051       167.3209
2017    7       4       1.173005        191.9381
2017    7       5       1.356556        206.3046
2017    7       6       1.22712         196.3656
2017    7       7       1.028082        179.3059
2017    8       0       0.8109267       155.6542
2017    8       1       0.9939393       174.5666
2017    8       2       1.22422         196.6127
2017    8       3       1.20553         195.7911
2017    8       4       1.249063        199.7095
2017    8       5       1.32397         205.5224
2017    8       6       1.355805        208.34
2017    8       7       1.675637        226.6
2017    9       0       1.167996        193.5688
2017    9       1       1.052216        182.9166
2017    9       2       0.9286546       170.535
2017    9       3       0.9201623       169.6125
2017    9       4       0.835838        160.57
2017    9       5       0.8795416       165.0373
2017    9       6       0.8436069       160.2744
2017    9       7       0.6960714       141.9341
2017    10      0       0.5116295       114.5449
2017    10      1       0.4169969       98.06813
2017    10      2       0.2705327       69.5926
2017    10      3       0.2753395       70.66533
2017    10      4       0.2492911       65.34061
2017    10      5       0.2230203       59.63861
2017    10      6       0.2035761       55.34697
2017    10      7       0.2204018       59.06347
2017    11      0       0.2829371       72.30686
2017    11      1       0.2752206       70.86726
2017    11      2       0.2309906       61.2973
2017    11      3       0.3324393       82.33442
2017    11      4       0.265145        68.80748
2017    11      5       0.3542958       86.50753
2017    11      6       0.520289        115.68
2017    11      7       0.6211607       131.3175
2017    12      0       0.5886267       126.7844
2017    12      1       0.5430288       119.7066
2017    12      2       0.5940684       127.588
2017    12      3       0.6512944       135.8811
2017    12      4       0.6985044       142.0917
2017    12      5       0.8332602       158.7022
2017    12      6       0.6760834       138.9158
2017    12      7       0.4671897       106.8877
2017    13      0       0.3215757       78.98889
2017    13      1       0.4771013       107.3225
2017    13      2       0.747041        146.7751
2017    13      3       0.9250598       166.7561
2017    13      4       0.6310007       128.9932
2017    13      5       0.4628932       102.4029
2017    13      6       0.288996        71.43222
2017    13      7       0.2004114       53.29057
2017    14      0       0.1688843       46.05692
2017    14      1       0.1243846       35.81844
2017    14      2       0.1162312       33.94592
2017    14      3       0.1797481       48.80488
2017    14      4       0.3033486       75.5979
2017    14      5       0.2988421       75.56668
2017    14      6       0.2356715       62.32243
2017    14      7       0.1365462       39.46966
2017    15      0       0.1637579       45.53334
2017    15      1       0.187502        51.1482
2017    15      2       0.2291422       60.33864
2017    15      3       0.2556434       65.8904
2017    15      4       0.2910288       73.26541
2017    15      5       0.3100872       77.12839
2017    15      6       0.2770322       70.53073
2017    15      7       0.248055        64.37777
2017    16      0       0.247763        64.18805
2017    16      1       0.2477256       64.14971
2017    16      2       0.2975483       74.64979
2017    16      3       0.3743862       89.73779
2017    16      4       0.4444561       102.5444
2017    16      5       0.4490343       103.531
2017    16      6       0.4316099       100.4446
2017    16      7       0.4140954       97.21012
2017    17      0       0.4109585       96.60675
2017    17      1       0.3915664       92.90702
2017    17      2       0.3560975       86.22
2017    17      3       0.4082965       96.07211
2017    17      4       0.3941898       93.81293
2017    17      5       0.4034565       95.43109
2017    17      6       0.3956835       94.06567
2017    17      7       0.3875376       92.58413
2017    18      0       0.394313        93.73734
2017    18      1       0.3880763       92.54647
2017    18      2       0.3866569       92.30119
2017    18      3       0.3902381       92.98544
2017    18      4       0.3816295       91.40044
2017    18      5       0.4111203       96.6173
2017    18      6       0.40025         94.75026
2017    18      7       0.3644611       88.28353
2017    19      0       0.3443606       84.40794
2017    19      1       0.3164648       78.73446
2017    19      2       0.2456553       63.91223
2017    19      3       0.2494356       64.64131
2017    19      4       0.2476547       64.19378
2017    19      5       0.2486257       64.48172
2017    19      6       0.2417562       63.01953
2017    19      7       0.2294872       60.26591
2017    20      0       0.212121        56.54872
2017    20      1       0.1951904       52.90232
2017    20      2       0.162342        45.37713
2017    20      3       0.1771282       48.76635
2017    20      4       0.1877435       51.06593
2017    20      5       0.2093189       55.7767
2017    20      6       0.2074276       55.33006
2017    20      7       0.1979069       53.35599
2017    21      0       0.1906656       51.71601
2017    21      1       0.1927581       52.09266
2017    21      2       0.2034383       54.34843
2017    21      3       0.2389821       62.07631
2017    21      4       0.2438441       63.21111
2017    21      5       0.2427511       63.17117
2017    21      6       0.2365764       62.01567
2017    21      7       0.2219397       58.92741
2017    22      0       0.2069659       55.66805
2017    22      1       0.2101449       56.24106
2017    22      2       0.221908        58.61398
2017    22      3       0.2436936       63.24021
2017    22      4       0.2446345       63.53253
2017    22      5       0.2481833       64.35686
2017    22      6       0.2414472       63.11
2017    22      7       0.2448155       63.80854
2017    23      0       0.2421406       63.2068
2017    23      1       0.2327827       61.20579
2017    23      2       0.2272993       60.04698
2017    23      3       0.2158058       57.62206
2017    23      4       0.2417281       63.22871
2017    23      5       0.2733291       69.94502
2017    23      6       0.2486759       64.92321
2017    23      7       0.195021        53.13585
2017    24      0       0.1707989       47.475
2017    24      1       0.1560994       43.96651
2017    24      2       0.1437206       41.10463
2017    24      3       0.213858        57.29901
2017    24      4       0.2161024       57.94484
2017    24      5       0.2272933       60.41273
2017    24      6       0.2269843       60.33752
2017    24      7       0.2043659       55.44916
2017    25      0       0.2026485       55.03731
2017    25      1       0.2069098       55.93966
2017    25      2       0.2247256       59.84225
2017    25      3       0.3004672       75.66204
2017    25      4       0.3552198       86.14133
2017    25      5       0.4496334       103.1601
2017    25      6       0.6255586       131.0591
2017    25      7       0.8325186       158.3966
2017    26      0       0.8941674       165.4331
2017    26      1       0.7912776       152.9548
2017    26      2       0.8704362       162.2236
2017    26      3       1.150666        189.2489
2017    26      4       1.425816        209.6485
2017    26      5       1.464339        212.4252
2017    26      6       1.197606        193.7628
2017    26      7       1.075853        183.9809
2017    27      0       0.9612225       172.4849
2017    27      1       0.7313721       145.8428
2017    27      2       0.5763475       124.09
2017    27      3       0.8089256       155.6276
2017    27      4       0.8641536       162.2922
2017    27      5       0.8999197       166.446
2017    27      6       0.9632275       173.0936
2017    27      7       0.7948047       154.3887
2017    28      0       0.8246139       158.0387
2017    28      1       0.8013017       155.4541
2017    28      2       0.7642365       150.9303
2017    28      3       0.8066888       155.9726
2017    28      4       0.7387148       148.0497
2017    28      5       0.7140179       144.8693
2017    28      6       0.609106        130.1305
2017    28      7       0.5320684       118.3962
2017    29      0       0.5097847       114.7105
2017    29      1       0.4601983       106.2897
2017    29      2       0.4675909       107.3774
2017    29      3       0.4470554       103.8551
2017    29      4       0.4480575       104.1992
2017    29      5       0.5036412       113.1994
2017    29      6       0.4933343       111.3659
2017    29      7       0.4990169       112.1575
2017    30      0       0.5372289       118.1519
2017    30      1       0.53034         117.3569
2017    30      2       0.6043211       128.2877
2017    30      3       0.8481202       159.8069
2017    30      4       0.9957537       175.7036
2017    30      5       1.23109         196.6415
2017    30      6       1.060586        181.9907
2017    30      7       0.7291334       145.2831
2018    1       0       0.4718455       108.7522
2018    1       1       0.4295313       101.1544
2018    1       2       0.360576        88.26823
2018    1       3       0.457934        106.3877
2018    1       4       0.6769916       140.7406
2018    1       5       1.030673        182.1176
2018    1       6       1.332842        207.6246
2018    1       7       1.136883        192.1634
2018    2       0       0.8806721       166.4254
2018    2       1       0.7712218       152.4362
2018    2       2       0.5708276       123.9857
2018    2       3       0.4458044       103.9785
2018    2       4       0.3605181       88.55652
2018    2       5       0.3572304       88.00445
2018    2       6       0.3593882       88.33552
2018    2       7       0.3329487       83.18596
2018    3       0       0.3590319       88.20127
2018    3       1       0.3569001       87.63238
2018    3       2       0.3347256       83.19552
2018    3       3       0.4727545       108.7189
2018    3       4       0.6539557       136.8825
2018    3       5       0.9960118       178.0241
2018    3       6       1.125709        189.983
2018    3       7       1.296113        203.5389
2018    4       0       1.308008        204.4275
2018    4       1       1.359404        206.9816
2018    4       2       1.433981        210.7231
2018    4       3       1.555925        218.2786
2018    4       4       1.796324        230.8058
2018    4       5       1.900398        236.0642
2018    4       6       1.439999        213.058
2018    4       7       1.132081        190.6791
2018    5       0       0.9612958       174.3109
2018    5       1       0.7970327       155.5832
2018    5       2       0.7162934       144.7609
2018    5       3       0.8446633       160.5993
2018    5       4       0.7590285       150.7092
2018    5       5       0.797008        155.3162
2018    5       6       0.7301609       146.6202
2018    5       7       0.5431721       118.684
2018    6       0       0.3617113       86.05333
2018    6       1       0.3225075       76.9857
2018    6       2       0.3873884       88.57753
2018    6       3       0.529758        114.1972
2018    6       4       0.5572495       121.0747
2018    6       5       0.5423464       119.3898
2018    6       6       0.5364647       118.2339
2018    6       7       0.5040039       112.6136
2018    7       0       0.3808521       90.60257
2018    7       1       0.3522766       84.9119
2018    7       2       0.3512439       84.57261
2018    7       3       0.3628491       86.98615
2018    7       4       0.3454734       83.1534
2018    7       5       0.291883        72.47958
2018    7       6       0.1964517       52.89813
2018    7       7       0.180999        49.71399
2018    8       0       0.1835718       50.77886
2018    8       1       0.1905188       52.52671
2018    8       2       0.1828131       50.61018
2018    8       3       0.2701265       69.64886
2018    8       4       0.4284928       100.0146
2018    8       5       0.6329855       132.9415
2018    8       6       0.6185291       131.6118
2018    8       7       0.7336589       147.4892
2018    9       0       1.193276        194.783
2018    9       1       1.254929        198.3895
2018    9       2       1.292066        202.1805
2018    9       3       1.090914        185.5646
2018    9       4       1.320469        204.6334
2018    9       5       1.209743        196.0363
2018    9       6       0.9248659       169.4634
2018    9       7       0.7350289       146.3016
2018    10      0       0.6677958       136.9562
2018    10      1       0.6841779       139.7852
2018    10      2       0.4081786       96.40446
2018    10      3       0.5475385       119.7897
2018    10      4       0.4875726       110.5992
2018    10      5       0.4526539       104.7723
2018    10      6       0.4944174       111.5383
2018    10      7       0.4251508       99.55461
2018    11      0       0.2700911       69.56663
2018    11      1       0.2299753       60.92767
2018    11      2       0.2476932       64.69423
2018    11      3       0.3371882       82.88129
2018    11      4       0.2955951       74.98164
2018    11      5       0.2633181       68.55442
2018    11      6       0.2544265       66.82049
2018    11      7       0.3272386       81.75376
2018    12      0       0.6778122       139.3294
2018    12      1       0.8768408       163.7645
2018    12      2       1.143761        190.2816
2018    12      3       1.063737        183.0086
2018    12      4       1.428044        211.1082
2018    12      5       1.240503        198.7706
2018    12      6       0.8148356       157.4038
2018    12      7       0.6192028       131.2627
2018    13      0       0.4512034       104.1788
2018    13      1       0.3740113       90.06731
2018    13      2       0.3411147       83.62656
2018    13      3       0.3932562       93.33807
2018    13      4       0.361752        87.70887
2018    13      5       0.3637186       88.1422
2018    13      6       0.3510158       85.8478
2018    13      7       0.3325982       82.33699
2018    14      0       0.3165823       79.03462
2018    14      1       0.3000822       75.5188
2018    14      2       0.283744        72.06989
2018    14      3       0.3297364       81.32506
2018    14      4       0.2831754       72.33745
2018    14      5       0.2796269       71.68227
2018    14      6       0.2771673       71.43104
2018    14      7       0.2824383       72.57487
2018    15      0       0.2595064       67.75511
2018    15      1       0.2691711       69.84973
2018    15      2       0.3468028       85.52203
2018    15      3       0.3783253       91.63322
2018    15      4       0.4271278       100.5873
2018    15      5       0.5191136       116.2791
2018    15      6       0.6468232       135.5858
2018    15      7       0.6865133       141.3815
2018    16      0       0.7706583       151.8413
2018    16      1       0.7240687       146.0609
2018    16      2       0.7082413       143.8127
2018    16      3       0.7826118       153.0615
2018    16      4       1.060964        182.0413
2018    16      5       1.222204        194.8229
2018    16      6       0.995566        174.0772
2018    16      7       0.8659319       161.4981
2018    17      0       0.7716061       150.768
2018    17      1       0.7423435       147.3443
2018    17      2       0.6989808       141.9493
2018    17      3       0.6626895       137.162
2018    17      4       0.6051797       128.9516
2018    17      5       0.6766775       139.0267
2018    17      6       0.7535451       149.1988
2018    17      7       0.7526325       149.3076
2018    18      0       0.7798326       153.481
2018    18      1       0.6154306       131.1716
2018    18      2       0.5786476       125.1786
2018    18      3       0.6042094       130.1547
2018    18      4       0.5642041       123.1277
2018    18      5       0.5451621       119.5753
2018    18      6       0.9745483       173.3295
2018    18      7       1.026464        180.7289
2018    19      0       0.8471042       163.7738
2018    19      1       0.6063766       130.9817
2018    19      2       0.2147138       57.23971
2018    19      3       0.2018875       54.42659
2018    19      4       0.2871741       72.63998
2018    19      5       0.2615368       67.35704
2018    19      6       0.2666825       68.18489
2018    19      7       0.2778366       70.30667
2018    20      0       0.2525088       65.26655
2018    20      1       0.2704343       68.52855
2018    20      2       0.2961046       73.16647
2018    20      3       0.3523203       83.92818
2018    20      4       0.3028172       75.21094
2018    20      5       0.2985953       74.56406
2018    20      6       0.3402437       82.56977
2018    20      7       0.4312408       98.58579
2018    21      0       0.474496        106.1058
2018    21      1       0.4309616       98.69819
2018    21      2       0.3745304       88.7938
2018    21      3       0.4119463       96.43611
2018    21      4       0.3828015       91.80495
2018    21      5       0.3571581       87.23099
2018    21      6       0.3432233       84.62388
2018    21      7       0.3514272       86.02835
2018    22      0       0.3559142       86.58877
2018    22      1       0.3742506       89.42167
2018    22      2       0.3866275       91.48819
2018    22      3       0.3403118       82.56844
2018    22      4       0.3226235       79.49871
2018    22      5       0.2973105       75.17361
2018    22      6       0.2623393       67.94111
2018    22      7       0.2319744       61.29647
2018    23      0       0.1898656       51.90785
2018    23      1       0.1991819       53.83451
2018    23      2       0.2856132       72.84077
2018    23      3       0.3336446       82.63043
2018    23      4       0.3345085       82.90846
2018    23      5       0.2958314       74.88421
2018    23      6       0.2105017       56.27251
2018    23      7       0.3309401       81.3759
2018    24      0       0.8219812       157.9436
2018    24      1       0.9218816       169.1316
2018    24      2       0.6261487       131.2655
2018    24      3       0.9411098       171.8403
2018    24      4       0.8372532       158.9834
2018    24      5       0.7656178       150.4618
2018    24      6       0.6823872       139.3965
2018    24      7       0.5710809       123.007
2018    25      0       0.6535596       134.7898
2018    25      1       0.6343363       132.1869
2018    25      2       0.6290981       131.9952
2018    25      3       0.6531527       135.1839
2018    25      4       0.7954809       153.8411
2018    25      5       0.8389037       158.6548
2018    25      6       0.7034496       141.0636
2018    25      7       0.3924157       92.05363
2018    26      0       0.2799295       70.69667
2018    26      1       0.2316627       60.29322
2018    26      2       0.6001441       125.1318
2018    26      3       0.8190764       156.0183
2018    26      4       0.565872        123.2461
2018    26      5       0.3355117       83.33587
2018    26      6       0.2421676       63.43106
2018    26      7       0.2007887       54.33703
2018    27      0       0.1811728       49.86236
2018    27      1       0.1564784       44.08621
2018    27      2       0.1317065       38.16753
2018    27      3       0.1382344       39.63988
2018    27      4       0.1953396       52.85454
2018    27      5       0.1974604       53.40142
2018    27      6       0.1702488       47.2281
2018    27      7       0.137422        39.51127
2018    28      0       0.1520199       42.86458
2018    28      1       0.1623929       45.1038
2018    28      2       0.301663        74.73347
2018    28      3       0.2339001       60.26366
2018    28      4       0.3293753       79.99681
2018    28      5       0.3266859       79.78445
2018    28      6       0.291927        72.72562
2018    28      7       0.2605182       65.89505
2018    29      0       0.2316899       59.69895
2018    29      1       0.3376537       80.85735
2018    29      2       0.3636482       85.1327
2018    29      3       0.2853125       69.66794
2018    29      4       0.3085602       74.18673
2018    29      5       0.2171145       57.163
2018    29      6       0.1878006       50.9401
2018    29      7       0.1447723       40.63682
2018    30      0       0.1432278       40.34071
2018    30      1       0.1180077       34.3803
2018    30      2       0.1095403       32.43982
2018    30      3       0.08181353      25.7433
2018    30      4       0.1342925       38.79912
2018    30      5       0.1302872       37.95792
2018    30      6       0.1396117       40.31572
2018    30      7       0.184508        50.80881
