####################################################################################################
# Month: 01Jan                                                                                     #
# Station: DomeF                                                                                   #
# Frequency: 345 GHz                                                                               #
# Columns are: year    day     tau     Tb (K)                                                      #
####################################################################################################
2009    1       0.19501921      49.07814125
2009    2       0.153585        40.44765625
2009    3       0.15683615      40.9229175
2009    4       0.1784503       45.23276625
2009    5       0.16962556      43.34817
2009    6       0.18785164      47.02941
2009    7       0.18123841      45.67574875
2009    8       0.17099096      43.67919125
2009    9       0.15654719      40.80404
2009    10      0.15393735      40.20528
2009    11      0.14846059      39.08285
2009    12      0.16890177      43.23995375
2009    13      0.15637505      40.7903025
2009    14      0.14262384      38.15451375
2009    15      0.13654511      37.01375375
2009    16      0.13100269      35.82402375
2009    17      0.13743445      36.95737625
2009    18      0.14295562      38.101575
2009    19      0.20029635      49.6180875
2009    20      0.16730412      43.0398375
2009    21      0.13470344      36.37304125
2009    22      0.13659456      36.66269125
2009    23      0.12802139      34.815215
2009    24      0.13312712      35.73784875
2009    25      0.12833336      34.740495
2009    26      0.12414956      34.03892625
2009    27      0.1741178       44.26175625
2009    28      0.19422155      48.18258
2009    29      0.28881916      66.40109625
2009    30      0.3612253       79.279685
2009    31      0.24864079      59.1043825
2010    1       0.22377564      54.39467125
2010    2       0.1940555       48.8272025
2010    3       0.19828765      49.564505
2010    4       0.18558919      47.02700375
2010    5       0.13480132      36.56763
2010    6       0.13896286      37.2520675
2010    7       0.2580287       60.78028375
2010    8       0.27846715      64.95115625
2010    9       0.24095708      57.718135
2010    10      0.20705291      50.97701375
2010    11      0.17985853      45.59339
2010    12      0.16020284      41.6162825
2010    13      0.14210186      37.80870875
2010    14      0.17254665      43.9502325
2010    15      0.19153671      47.87428
2010    16      0.25607276      60.301575
2010    17      0.22885482      55.184085
2010    18      0.222215        53.93847
2010    19      0.19493912      48.73827125
2010    20      0.17321271      44.597925
2010    21      0.16587678      43.153805
2010    22      0.15097013      40.15157875
2010    23      0.16192305      42.07127625
2010    24      0.15740346      40.96261
2010    25      0.16388969      42.17565625
2010    26      0.16168119      41.72834
2010    27      0.1531605       40.248015
2010    28      0.17363832      44.30504
2010    29      0.18751158      46.95866
2010    30      0.1736852       44.25506875
2010    31      0.16888706      43.3086375
2011    1       0.12172085      33.36062625
2011    2       0.12317709      33.71198375
2011    3       0.12511692      34.12210625
2011    4       0.17221232      43.7532475
2011    5       0.15351069      39.937995
2011    6       0.16358381      42.0069825
2011    7       0.18474824      46.3835475
2011    8       0.17468924      44.42651875
2011    9       0.15654882      40.94325625
2011    10      0.16843059      43.40919875
2011    11      0.17060724      43.930385
2011    12      0.17076884      43.8495975
2011    13      0.16409388      42.4354675
2011    14      0.16835305      43.450045
2011    15      0.16855721      43.40386125
2011    16      0.17236148      43.96281
2011    17      0.1818501       45.76694125
2011    18      0.16624802      42.93599375
2011    19      0.21193176      52.13781
2011    20      0.17838001      45.3471425
2011    21      0.140163        37.728805
2011    22      0.15510946      40.64096375
2011    23      0.15881314      41.35544
2011    24      0.14798112      39.087005
2011    25      0.16752135      43.04802125
2011    26      0.17109481      43.74803625
2011    27      0.17901569      45.37812875
2011    28      0.2113407       52.00576625
2011    29      0.1678529       43.34550375
2011    30      0.16765607      43.22971375
2011    31      0.15436138      40.433095
2012    1       0.13375529      35.8910425
2012    2       0.13130766      35.3236625
2012    3       0.12057372      33.0615225
2012    4       0.1376313       36.6333575
2012    5       0.1754199       44.4762575
2012    6       0.17212575      43.86672
2012    7       0.16553971      42.5814075
2012    8       0.15828011      41.2548675
2012    9       0.13973342      37.484075
2012    10      0.14298209      38.044615
2012    11      0.15164156      39.76239625
2012    12      0.1469776       38.8347775
2012    13      0.14401311      38.1217375
2012    14      0.12492089      34.088585
2012    15      0.12103206      33.27406375
2012    16      0.12877699      34.860225
2012    17      0.11632415      32.19239625
2012    18      0.10941979      30.70063375
2012    19      0.11179654      31.2013375
2012    20      0.12531205      34.02656875
2012    21      0.1147235       31.82433625
2012    22      0.11095868      31.18974625
2012    23      0.11654566      32.429515
2012    24      0.12556144      34.3223125
2012    25      0.12385752      33.90602875
2012    26      0.0995783       28.67662375
2012    27      0.09092034      26.85627125
2012    28      0.09766362      28.28179375
2012    29      0.1008636       29.0498725
2012    30      0.12980129      35.14978
2012    31      0.13919192      37.0602025
2013    1       0.1663574       42.8633375
2013    2       0.19903091      49.41410125
2013    3       0.16747755      43.2913975
2013    4       0.19362366      48.4261575
2013    5       0.22176159      53.93619125
2013    6       0.21541364      52.675175
2013    7       0.19992134      49.6038275
2013    8       0.16951916      43.41872
2013    9       0.20123104      49.86366
2013    10      0.20297102      50.2374175
2013    11      0.15277501      40.1477025
2013    12      0.18733258      47.17736
2013    13      0.25588804      60.4683675
2013    14      0.22292946      54.13261
2013    15      0.1597808       41.36738
2013    16      0.12572638      34.34177625
2013    17      0.13978579      37.4213975
2013    18      0.17559755      44.72067
2013    19      0.1866485       46.93404125
2013    20      0.19243524      48.06007125
2013    21      0.18704902      47.1341775
2013    22      0.16665893      43.25350375
2013    23      0.16037929      41.82325875
2013    24      0.15458375      40.62748875
2013    25      0.13320486      36.38018625
2013    26      0.14942729      39.5845675
2013    27      0.14695462      38.72520625
2013    28      0.10614668      30.10594375
2013    29      0.11649461      32.25086
2013    30      0.10346264      29.44731125
2013    31      0.11363021      31.65727375
2014    1       0.14585328      38.5679675
2014    2       0.13057574      35.731085
2014    3       0.15612708      40.66698625
2014    4       0.15353908      40.3366325
2014    5       0.14914892      39.423195
2014    6       0.15755466      41.1183325
2014    7       0.15492348      40.70800875
2014    8       0.19185406      48.3028575
2014    9       0.15331859      40.643635
2014    10      0.15592088      41.20728375
2014    11      0.19133149      48.0676175
2014    12      0.22425259      54.42269625
2014    13      0.1854917       46.726295
2014    14      0.16162071      41.91284375
2014    15      0.17354765      44.25843625
2014    16      0.1704581       43.5956475
2014    17      0.16519224      42.46613625
2014    18      0.14666163      38.671495
2014    19      0.13992635      37.2193075
2014    20      0.13552396      36.27272125
2014    21      0.13774672      36.75211125
2014    22      0.12970692      35.07454625
2014    23      0.12188789      33.36608125
2014    24      0.11657675      32.26583
2014    25      0.10490844      29.81174625
2014    26      0.10314402      29.45777875
2014    27      0.10323485      29.4901975
2014    28      0.11249864      31.39288375
2014    29      0.106507        30.095185
2014    30      0.0984504       28.3755575
2014    31      0.09173367      26.87744125
2015    1       0.13674029      36.50012
2015    2       0.13985476      37.24527125
2015    3       0.13540262      36.27438625
2015    4       0.13308931      35.79596125
2015    5       0.1386164       36.910105
2015    6       0.13081666      35.23731
2015    7       0.12033862      33.01183125
2015    8       0.11600779      32.14061125
2015    9       0.11772545      32.53119875
2015    10      0.15131229      39.5279625
2015    11      0.1648901       42.339375
2015    12      0.15730635      40.83278125
2015    13      0.16248255      41.9143675
2015    14      0.1714057       43.7165925
2015    15      0.15493824      40.373835
2015    16      0.15455678      40.39826
2015    17      0.2331126       55.7893575
2015    18      0.16912962      43.450385
2015    19      0.15086849      39.661615
2015    20      0.11559178      32.45432875
2015    21      0.10223122      29.56921625
2015    22      0.11177886      31.5993175
2015    23      0.13137384      35.79709
2015    24      0.1248388       34.335935
2015    25      0.12049219      33.28390375
2015    26      0.11870826      32.92179625
2015    27      0.15113734      39.64297875
2015    28      0.1605744       41.54942
2015    29      0.16357518      42.1023325
2015    30      0.17631191      44.72741375
2015    31      0.14588649      38.53801875
2016    1       0.15839303      41.2433975
2016    5       0.14944444      39.19038
2016    6       0.11792161      32.61972125
2016    7       0.1071582       30.307295
2016    8       0.11947178      32.87101875
2016    9       0.12589092      34.2547725
2016    10      0.12987945      35.1781625
2016    11      0.11904996      32.92771125
2016    12      0.12112534      33.274105
2016    13      0.10587544      29.98301125
2016    14      0.10949968      30.7558525
2016    15      0.10767481      30.43962625
2016    16      0.11358695      31.6860175
2016    17      0.11249311      31.51629875
2016    18      0.13322937      35.8538325
2016    19      0.13571866      36.3375225
2016    20      0.12691452      34.48609125
2016    21      0.12157435      33.30423875
2016    22      0.11538006      31.95393375
2016    23      0.11795606      32.54551
2016    24      0.12031018      32.99697625
2016    25      0.1220414       33.376085
2016    26      0.12550456      34.10686875
2016    27      0.11774479      32.49956
2016    28      0.10478333      29.70664625
2016    29      0.12771655      34.60536625
2016    30      0.16997542      43.38772125
2016    31      0.14006456      37.248625
2017    1       0.13345121      36.0670275
2017    2       0.14925624      39.2414625
2017    3       0.14041266      37.54301625
2017    4       0.15196286      39.96260875
2017    5       0.17357128      44.218205
2017    6       0.13609874      36.41539
2017    7       0.13078134      35.27498
2017    8       0.12688374      34.4271925
2017    9       0.12743461      34.55682875
2017    10      0.13274529      35.70995
2017    11      0.15316196      39.98643125
2017    12      0.18536494      46.56101875
2017    13      0.14633875      38.7051725
2017    14      0.15213325      39.97578125
2017    15      0.18839026      47.39714125
2017    16      0.12960784      35.4972
2017    17      0.12196891      33.82157375
2017    18      0.12136761      33.59300875
2017    19      0.12187596      33.59170625
2017    20      0.12008451      33.13633
2017    21      0.14066098      37.4394775
2017    22      0.14363124      38.1203325
2017    23      0.13916957      37.2450275
2017    24      0.15949949      41.33701875
2017    25      0.14618722      38.6727925
2017    26      0.15675193      40.7705825
2017    27      0.14485844      38.2716425
2017    28      0.13345484      35.9011625
2017    29      0.15454511      40.24286875
2017    30      0.16540711      42.47744375
2017    31      0.15595868      40.60663875
2018    1       0.18328169      46.1560075
2018    2       0.16214359      41.97664125
2018    3       0.20110732      49.42917
2018    4       0.21561962      52.6520775
2018    5       0.24169348      57.6511725
2018    6       0.36620998      80.36480375
2018    7       0.30629348      70.5217625
2018    8       0.25923772      61.84812
2018    9       0.16648744      43.50255125
2018    10      0.15616481      41.19674375
2018    11      0.14805766      39.38758375
2018    12      0.14973663      39.45727125
2018    13      0.15437506      40.5202725
2018    14      0.14332404      38.26959125
2018    15      0.14774771      39.121065
2018    16      0.15689325      40.9011175
2018    17      0.15662439      40.85046625
2018    18      0.15808456      41.091485
2018    19      0.14945365      39.2961125
2018    20      0.14711148      38.71529875
2018    21      0.14033769      37.3016175
2018    22      0.13923476      37.064425
2018    23      0.14177431      37.64792375
2018    24      0.1416939       37.55649625
2018    25      0.13356366      35.86710625
2018    26      0.1580987       40.97809
2018    27      0.15490144      40.3211875
2018    28      0.14377855      38.0726375
2018    29      0.15990208      41.3951725
2018    30      0.15766581      40.94050875
2018    31      0.14716188      38.7717075
2019    1       0.18927649      47.3654625
