####################################################################################################
# Month: 08Aug                                                                                     #
# Station: ALI                                                                                     #
# Frequency: 230 GHz                                                                               #
# Columns are: year    day     segment         tau     Tb (K)                                      #
####################################################################################################
2009    1       0       0.2283837       57.36713
2009    1       1       0.2317488       58.04133
2009    1       2       0.2126214       54.29916
2009    1       3       0.2190604       55.73022
2009    1       4       0.2669401       65.45762
2009    1       5       0.2333023       59.04829
2009    1       6       0.2087143       53.81575
2009    1       7       0.1992349       51.66457
2009    2       0       0.2037045       52.35025
2009    2       1       0.2413742       59.73934
2009    2       2       0.2494997       61.40036
2009    2       3       0.2332226       58.53016
2009    2       4       0.2430414       60.91069
2009    2       5       0.2227157       57.08139
2009    2       6       0.1624258       43.98071
2009    2       7       0.1574765       42.76689
2009    3       0       0.1500656       41.10529
2009    3       1       0.1415857       39.13188
2009    3       2       0.1402389       38.8566
2009    3       3       0.1197622       34.39105
2009    3       4       0.1714295       46.11015
2009    3       5       0.1479537       41.17927
2009    3       6       0.1332496       37.65531
2009    3       7       0.1180623       34.03413
2009    4       0       0.1166479       33.63839
2009    4       1       0.1133819       32.84956
2009    4       2       0.1115487       32.50176
2009    4       3       0.1016789       30.28595
2009    4       4       0.1357203       38.31647
2009    4       5       0.1464582       40.82642
2009    4       6       0.108561        32.04142
2009    4       7       0.08096054      25.31213
2009    5       0       0.07556939      23.98986
2009    5       1       0.07122467      22.90226
2009    5       2       0.07633828      24.11237
2009    5       3       0.06873999      22.21054
2009    5       4       0.1322487       37.38543
2009    5       5       0.1206359       34.91057
2009    5       6       0.1070099       31.4346
2009    5       7       0.1082893       31.57811
2009    6       0       0.1063369       31.04619
2009    6       1       0.1072895       31.22873
2009    6       2       0.1405527       38.70181
2009    6       3       0.1223472       34.6803
2009    6       4       0.1336333       37.49394
2009    6       5       0.1426856       39.45601
2009    6       6       0.1358678       37.67915
2009    6       7       0.1565142       42.09811
2009    7       0       0.155437        41.79354
2009    7       1       0.1791453       46.73658
2009    7       2       0.2295163       57.1464
2009    7       3       0.3073328       72.13573
2009    7       4       0.343826        79.10248
2009    7       5       0.2238714       56.65779
2009    7       6       0.1842013       48.27618
2009    7       7       0.1727124       45.64917
2009    8       0       0.1625951       43.4472
2009    8       1       0.1909377       49.25703
2009    8       2       0.2398823       59.09835
2009    8       3       0.2591271       63.12757
2009    8       4       0.2741924       66.35202
2009    8       5       0.2070427       52.99114
2009    8       6       0.173433        45.8227
2009    8       7       0.1302773       36.38145
2009    9       0       0.09521199      28.33774
2009    9       1       0.08242013      25.2814
2009    9       2       0.0902498       27.09809
2009    9       3       0.0974137       28.83878
2009    9       4       0.1227391       34.55155
2009    9       5       0.11173         32.11919
2009    9       6       0.1139765       32.53347
2009    9       7       0.117594        33.31448
2009    10      0       0.1089906       31.38389
2009    10      1       0.1107761       31.79229
2009    10      2       0.1319733       36.56655
2009    10      3       0.1297902       36.05964
2009    10      4       0.1317578       36.64513
2009    10      5       0.1065567       31.05001
2009    10      6       0.0949648       28.30576
2009    10      7       0.08607226      26.2264
2009    11      0       0.08435386      25.82322
2009    11      1       0.09200133      27.63728
2009    11      2       0.09556051      28.49964
2009    11      3       0.08405277      25.88591
2009    11      4       0.08889258      27.14143
2009    11      5       0.08166144      25.49591
2009    11      6       0.08213557      25.52352
2009    11      7       0.08100116      25.23934
2009    12      0       0.08471251      26.07838
2009    12      1       0.08902373      27.10832
2009    12      2       0.09393054      28.28584
2009    12      3       0.09051161      27.58007
2009    12      4       0.1060154       31.33064
2009    12      5       0.09627276      29.15172
2009    12      6       0.09480688      28.59494
2009    12      7       0.08744029      26.85269
2009    13      0       0.08515248      26.31396
2009    13      1       0.09346116      28.22433
2009    13      2       0.1073885       31.53712
2009    13      3       0.1089397       32.00315
2009    13      4       0.1386709       38.83292
2009    13      5       0.1465867       40.73945
2009    13      6       0.1550047       42.45186
2009    13      7       0.1397045       39.01118
2009    14      0       0.1315646       37.15516
2009    14      1       0.1182761       34.03365
2009    14      2       0.1189271       34.1491
2009    14      3       0.1192834       34.34692
2009    14      4       0.1574756       42.99602
2009    14      5       0.164057        44.63085
2009    14      6       0.151326        41.50031
2009    14      7       0.1277024       36.09413
2009    15      0       0.109084        31.76869
2009    15      1       0.09987975      29.58921
2009    15      2       0.1034473       30.38625
2009    15      3       0.1036003       30.50413
2009    15      4       0.1357584       37.96073
2009    15      5       0.1273977       36.186
2009    15      6       0.1306817       36.70546
2009    15      7       0.1239536       35.16525
2009    16      0       0.1154909       33.15837
2009    16      1       0.1030635       30.26141
2009    16      2       0.09661976      28.6702
2009    16      3       0.08360444      25.56441
2009    16      4       0.1453517       39.85413
2009    16      5       0.1785919       47.08331
2009    16      6       0.2313762       57.74593
2009    16      7       0.2617098       63.27342
2009    17      0       0.1786187       46.71649
2009    17      1       0.3030485       70.98428
2009    17      2       0.3222703       74.65262
2009    17      3       0.2984214       70.78881
2009    17      4       0.2522124       61.99125
2009    17      5       0.1599613       42.95036
2009    17      6       0.1201376       34.01871
2009    17      7       0.1107428       31.76014
2009    18      0       0.1110965       31.7171
2009    18      1       0.1547497       41.33571
2009    18      2       0.228969        56.67929
2009    18      3       0.2685113       64.63132
2009    18      4       0.3283512       75.94741
2009    18      5       0.2731725       65.54176
2009    18      6       0.2350313       58.13716
2009    18      7       0.2936595       69.2982
2009    19      0       0.2688007       64.61105
2009    19      1       0.2586721       62.4876
2009    19      2       0.2729934       64.68574
2009    19      3       0.2467935       60.15441
2009    19      4       0.241209        59.18096
2009    19      5       0.197852        50.10067
2009    19      6       0.1294968       35.51125
2009    19      7       0.132788        35.99387
2009    20      0       0.1118895       31.44927
2009    20      1       0.1246552       34.36431
2009    20      2       0.1306986       35.68334
2009    20      3       0.1460779       38.97907
2009    20      4       0.1267599       35.06892
2009    20      5       0.1006045       29.30435
2009    20      6       0.08275451      25.04656
2009    20      7       0.08966371      26.54052
2009    21      0       0.09927001      28.78722
2009    21      1       0.1201381       33.49678
2009    21      2       0.1753314       45.00765
2009    21      3       0.1576039       41.51894
2009    21      4       0.1452008       39.00808
2009    21      5       0.1383451       37.62343
2009    21      6       0.1322446       36.18855
2009    21      7       0.1429698       38.51245
2009    22      0       0.1549889       41.10059
2009    22      1       0.1707702       44.35028
2009    22      2       0.1699396       44.18132
2009    22      3       0.1783239       46.11628
2009    22      4       0.1997916       50.90683
2009    22      5       0.1696846       44.63509
2009    22      6       0.1622004       43.05138
2009    22      7       0.1904112       48.88792
2009    23      0       0.2317441       57.25179
2009    23      1       0.2446478       59.48295
2009    23      2       0.197398        50.10092
2009    23      3       0.1727981       45.01543
2009    23      4       0.1815948       47.17871
2009    23      5       0.1464157       39.79044
2009    23      6       0.1250455       34.959
2009    23      7       0.1196607       33.67299
2009    24      0       0.1059478       30.57486
2009    24      1       0.09824308      28.79455
2009    24      2       0.1434259       38.81909
2009    24      3       0.1542402       41.18876
2009    24      4       0.1683807       44.3956
2009    24      5       0.1375056       37.87546
2009    24      6       0.1292464       35.79151
2009    24      7       0.1377369       37.59133
2009    25      0       0.1234399       34.46918
2009    25      1       0.1269797       35.31019
2009    25      2       0.1341592       36.90314
2009    25      3       0.1086526       31.33626
2009    25      4       0.1241692       34.82789
2009    25      5       0.1408245       38.56883
2009    25      6       0.1897007       48.79955
2009    25      7       0.1763858       46.27738
2009    26      0       0.1738084       45.77064
2009    26      1       0.231176        57.33159
2009    26      2       0.1976332       50.64108
2009    26      3       0.2121027       53.50333
2009    26      4       0.2335494       58.00755
2009    26      5       0.2403639       59.29411
2009    26      6       0.2345854       57.89661
2009    26      7       0.1892669       48.83415
2009    27      0       0.1617471       43.13679
2009    27      1       0.1463295       39.7652
2009    27      2       0.09182756      27.52202
2009    27      3       0.089617        27.01732
2009    27      4       0.1002596       29.54469
2009    27      5       0.0777601       24.29415
2009    27      6       0.06047048      20.01067
2009    27      7       0.05218627      17.8667
2009    28      0       0.06026584      19.85228
2009    28      1       0.0629266       20.49018
2009    28      2       0.06811977      21.83828
2009    28      3       0.08886599      26.73084
2009    28      4       0.1084109       31.2998
2009    28      5       0.1121026       32.25454
2009    28      6       0.1177944       33.34192
2009    28      7       0.1043467       30.25085
2009    29      0       0.1003237       29.31133
2009    29      1       0.09912932      29.11184
2009    29      2       0.1155892       32.93653
2009    29      3       0.1728249       45.2987
2009    29      4       0.1788297       46.60944
2009    29      5       0.1942491       49.93335
2009    29      6       0.2079066       52.79367
2009    29      7       0.2478536       60.64532
2009    30      0       0.245368        60.17035
2009    30      1       0.2157153       54.51012
2009    30      2       0.182895        47.80573
2009    30      3       0.1798422       46.9202
2009    30      4       0.144143        39.34577
2009    30      5       0.1278641       35.65726
2009    30      6       0.1333083       36.71224
2009    30      7       0.1530902       40.90506
2009    31      0       0.1833491       47.29247
2009    31      1       0.1899765       48.91447
2009    31      2       0.2308538       57.54483
2009    31      3       0.2608788       63.56226
2009    31      4       0.2279803       57.06948
2009    31      5       0.1837097       48.11885
2009    31      6       0.1788937       46.98196
2009    31      7       0.1804784       47.21514
2010    1       0       0.252996        62.56611
2010    1       1       0.3059908       72.6966
2010    1       2       0.3700906       84.58139
2010    1       3       0.4332697       95.40266
2010    1       4       0.405392        91.00903
2010    1       5       0.3337236       78.20664
2010    1       6       0.2869662       69.52871
2010    1       7       0.2784844       67.80288
2010    2       0       0.2703874       66.24621
2010    2       1       0.2592533       64.08975
2010    2       2       0.3675243       83.87736
2010    2       3       0.4154929       92.14774
2010    2       4       0.3817113       86.67542
2010    2       5       0.3034091       72.67183
2010    2       6       0.2777068       67.68107
2010    2       7       0.2592516       64.22622
2010    3       0       0.2826998       68.88045
2010    3       1       0.3251879       76.85412
2010    3       2       0.3636472       83.82464
2010    3       3       0.4105759       92.26827
2010    3       4       0.3841755       88.09933
2010    3       5       0.3345464       79.25879
2010    3       6       0.4171864       93.58707
2010    3       7       0.3732066       85.75034
2010    4       0       0.3020862       72.73593
2010    4       1       0.3147492       75.31287
2010    4       2       0.3927122       89.41785
2010    4       3       0.4233167       94.66351
2010    4       4       0.4759692       103.456
2010    4       5       0.3741169       86.42971
2010    4       6       0.2852688       69.30863
2010    4       7       0.2007408       52.31594
2010    5       0       0.1983798       51.91859
2010    5       1       0.2219912       57.33925
2010    5       2       0.2183314       56.59712
2010    5       3       0.2342415       60.12689
2010    5       4       0.2482765       62.95764
2010    5       5       0.2465606       62.74226
2010    5       6       0.2612165       64.99227
2010    5       7       0.2327527       59.11531
2010    6       0       0.2440372       61.78147
2010    6       1       0.2896941       70.93545
2010    6       2       0.3800387       87.41492
2010    6       3       0.4334542       95.94974
2010    6       4       0.3878224       88.29716
2010    6       5       0.32521         77.53156
2010    6       6       0.3483435       81.7563
2010    6       7       0.3283323       78.08961
2010    7       0       0.3020517       73.00194
2010    7       1       0.3380131       79.93513
2010    7       2       0.3125404       75.01019
2010    7       3       0.3568743       83.15115
2010    7       4       0.331344        78.44831
2010    7       5       0.3255301       77.41846
2010    7       6       0.3230579       76.96159
2010    7       7       0.2787146       68.47172
2010    8       0       0.2884033       70.10813
2010    8       1       0.3110064       74.24128
2010    8       2       0.3732994       85.48838
2010    8       3       0.4447236       97.43432
2010    8       4       0.4512919       98.93021
2010    8       5       0.3596396       83.30223
2010    8       6       0.3800435       87.18174
2010    8       7       0.3920508       89.20206
2010    9       0       0.4692318       101.5412
2010    9       1       0.3351307       78.76587
2010    9       2       0.3340472       78.5227
2010    9       3       0.4266272       93.9209
2010    9       4       0.4609242       100.0267
2010    9       5       0.4252639       94.23982
2010    9       6       0.3248793       76.74805
2010    9       7       0.3174221       75.60072
2010    10      0       0.3403506       79.89676
2010    10      1       0.2999417       72.21805
2010    10      2       0.3159668       74.75491
2010    10      3       0.3618246       82.75652
2010    10      4       0.3718143       84.7228
2010    10      5       0.2714572       66.48122
2010    10      6       0.2621422       64.38097
2010    10      7       0.258422        63.64901
2010    11      0       0.2454416       61.04651
2010    11      1       0.2615865       64.3534
2010    11      2       0.2771203       67.475
2010    11      3       0.3486374       80.65035
2010    11      4       0.4113114       91.35
2010    11      5       0.3725486       85.21554
2010    11      6       0.366928        84.22869
2010    11      7       0.3324005       78.23078
2010    12      0       0.3370681       79.10967
2010    12      1       0.3068343       73.23374
2010    12      2       0.3078427       73.35369
2010    12      3       0.3892405       87.81035
2010    12      4       0.3738335       85.22549
2010    12      5       0.3529183       81.43215
2010    12      6       0.3924069       88.09833
2010    12      7       0.4205399       93.01631
2010    13      0       0.37374         85.37203
2010    13      1       0.3654666       83.93151
2010    13      2       0.3605778       83.16736
2010    13      3       0.4775969       102.6361
2010    13      4       0.3959722       89.58585
2010    13      5       0.3935541       88.93858
2010    13      6       0.4008081       89.97351
2010    13      7       0.4336188       95.24935
2010    14      0       0.3291683       77.57183
2010    14      1       0.2809053       68.45763
2010    14      2       0.3123963       74.56565
2010    14      3       0.3932195       89.41989
2010    14      4       0.3851018       87.4512
2010    14      5       0.416781        93.07747
2010    14      6       0.4065251       91.71193
2010    14      7       0.3747549       86.46978
2010    15      0       0.3944656       89.58175
2010    15      1       0.3766135       86.40356
2010    15      2       0.3687168       84.86731
2010    15      3       0.4195601       93.42363
2010    15      4       0.4742375       102.4597
2010    15      5       0.3613983       83.7589
2010    15      6       0.3264731       77.2414
2010    15      7       0.3610019       83.8195
2010    16      0       0.3528104       82.42681
2010    16      1       0.4153474       93.18036
2010    16      2       0.4201806       93.90556
2010    16      3       0.3956913       89.65635
2010    16      4       0.3906119       88.45367
2010    16      5       0.3540511       82.183
2010    16      6       0.3461178       80.71762
2010    16      7       0.3423987       80.05281
2010    17      0       0.3978894       90.14429
2010    17      1       0.3689785       84.72232
2010    17      2       0.3651038       83.66418
2010    17      3       0.4057012       90.39807
2010    17      4       0.3902987       88.03127
2010    17      5       0.3431394       79.93661
2010    17      6       0.2902714       70.17316
2010    17      7       0.2869321       69.49288
2010    18      0       0.2817851       68.46916
2010    18      1       0.2817916       68.41402
2010    18      2       0.2557605       63.3847
2010    18      3       0.3199648       75.46631
2010    18      4       0.3338347       78.27084
2010    18      5       0.2408435       60.45328
2010    18      6       0.2141693       54.88013
2010    18      7       0.1858112       49.02843
2010    19      0       0.146528        40.36472
2010    19      1       0.2002516       52.04726
2010    19      2       0.2264734       57.48761
2010    19      3       0.2789775       67.97715
2010    19      4       0.3463886       80.68826
2010    19      5       0.2803951       68.55274
2010    19      6       0.274111        67.24752
2010    19      7       0.3183137       75.52963
2010    20      0       0.294486        71.16698
2010    20      1       0.2767058       67.38897
2010    20      2       0.254601        62.99689
2010    20      3       0.2987348       71.57736
2010    20      4       0.3121362       73.9361
2010    20      5       0.2581585       63.53882
2010    20      6       0.2117795       54.07475
2010    20      7       0.2325967       57.88416
2010    21      0       0.2512271       61.51356
2010    21      1       0.3168491       74.04105
2010    21      2       0.2652824       64.30341
2010    21      3       0.2681762       65.06952
2010    21      4       0.2990743       70.99537
2010    21      5       0.2822259       67.71688
2010    21      6       0.2008921       51.54101
2010    21      7       0.1784083       46.65013
2010    22      0       0.1380048       38.00038
2010    22      1       0.1371038       37.63888
2010    22      2       0.1611752       42.83472
2010    22      3       0.1516824       41.03466
2010    22      4       0.1915545       49.6562
2010    22      5       0.1324464       37.0774
2010    22      6       0.06805292      21.92219
2010    22      7       0.06424249      20.87047
2010    23      0       0.09460278      27.95544
2010    23      1       0.1265328       35.24138
2010    23      2       0.182993        47.5759
2010    23      3       0.2217652       55.70684
2010    23      4       0.2274966       57.01641
2010    23      5       0.1871446       48.95596
2010    23      6       0.1712995       45.49771
2010    23      7       0.1776328       46.65267
2010    24      0       0.2055671       52.00538
2010    24      1       0.2677964       64.36581
2010    24      2       0.2540522       62.0261
2010    24      3       0.3131925       73.57077
2010    24      4       0.3806655       85.64944
2010    24      5       0.3701651       84.07267
2010    24      6       0.2690067       65.4889
2010    24      7       0.1871333       48.81102
2010    25      0       0.1552168       41.95891
2010    25      1       0.1461223       39.76567
2010    25      2       0.1575867       42.15208
2010    25      3       0.1511631       40.79511
2010    25      4       0.1277771       35.96743
2010    25      5       0.1220491       34.62873
2010    25      6       0.1398566       38.56839
2010    25      7       0.1906781       49.68886
2010    26      0       0.2402965       60.05327
2010    26      1       0.2886427       69.67839
2010    26      2       0.3046041       72.65412
2010    26      3       0.3436446       79.35804
2010    26      4       0.3241472       75.86081
2010    26      5       0.2789222       67.65069
2010    26      6       0.2519467       62.37659
2010    26      7       0.2244436       56.93265
2010    27      0       0.2236909       56.8862
2010    27      1       0.2266338       57.45922
2010    27      2       0.2375404       59.53002
2010    27      3       0.2660865       64.98434
2010    27      4       0.3232577       75.69301
2010    27      5       0.2924489       70.26285
2010    27      6       0.2676928       65.4227
2010    27      7       0.271809        66.05064
2010    28      0       0.2625495       64.25872
2010    28      1       0.2091537       53.6348
2010    28      2       0.181076        47.59698
2010    28      3       0.1482614       40.57014
2010    28      4       0.1778016       47.05236
2010    28      5       0.1606248       43.52486
2010    28      6       0.1256587       35.51774
2010    28      7       0.1064857       31.06643
2010    29      0       0.08102368      25.06433
2010    29      1       0.07593807      23.81933
2010    29      2       0.08831002      26.74849
2010    29      3       0.1039821       30.43529
2010    29      4       0.1406998       38.81962
2010    29      5       0.1177984       33.84421
2010    29      6       0.1102314       32.00483
2010    29      7       0.1050746       30.71436
2010    30      0       0.09308275      27.90308
2010    30      1       0.09135008      27.4839
2010    30      2       0.1039432       30.42073
2010    30      3       0.1058355       30.90914
2010    30      4       0.1246058       35.30635
2010    30      5       0.104058        30.66779
2010    30      6       0.08325468      25.52552
2010    30      7       0.07856603      24.28474
2010    31      0       0.07644572      23.79454
2010    31      1       0.08172831      25.10131
2010    31      2       0.09407077      27.99051
2010    31      3       0.1049112       30.49447
2010    31      4       0.1244535       34.92257
2010    31      5       0.1222037       34.33114
2010    31      6       0.1343596       36.98334
2010    31      7       0.1565189       41.77581
2011    1       0       0.1994457       51.99752
2011    1       1       0.2020912       52.49
2011    1       2       0.3027308       72.176
2011    1       3       0.3297793       77.68551
2011    1       4       0.3695068       85.10214
2011    1       5       0.3377948       79.38982
2011    1       6       0.3114279       74.19956
2011    1       7       0.3062525       73.03376
2011    2       0       0.2798807       67.6813
2011    2       1       0.2392342       59.69958
2011    2       2       0.2274876       57.26937
2011    2       3       0.2941353       70.12458
2011    2       4       0.3076972       72.71516
2011    2       5       0.266358        65.09236
2011    2       6       0.1321028       37.03927
2011    2       7       0.08961207      27.06795
2011    3       0       0.08768961      26.60901
2011    3       1       0.0787703       24.52559
2011    3       2       0.07218654      22.97949
2011    3       3       0.08965973      27.20168
2011    3       4       0.1104909       32.18141
2011    3       5       0.09567195      28.80979
2011    3       6       0.04946631      17.43716
2011    3       7       0.02934267      12.15374
2011    4       0       0.01627783      8.489918
2011    4       1       0.02187962      10.08269
2011    4       2       0.02258886      10.25413
2011    4       3       0.03208871      12.8268
2011    4       4       0.06466912      21.10929
2011    4       5       0.05638841      19.13425
2011    4       6       0.04089339      15.15033
2011    4       7       0.05109463      17.61817
2011    5       0       0.07119859      22.36568
2011    5       1       0.09394611      27.74697
2011    5       2       0.09663064      28.48361
2011    5       3       0.1011044       29.63029
2011    5       4       0.1191223       33.87804
2011    5       5       0.1096861       31.8553
2011    5       6       0.10034         29.52452
2011    5       7       0.1191618       33.60524
2011    6       0       0.1321332       36.59806
2011    6       1       0.132449        36.7124
2011    6       2       0.1420185       38.89317
2011    6       3       0.1790171       46.81885
2011    6       4       0.1856192       48.29188
2011    6       5       0.1770371       46.55424
2011    6       6       0.1863826       48.38288
2011    6       7       0.2143802       53.88205
2011    7       0       0.1662689       43.79983
2011    7       1       0.1991096       50.44082
2011    7       2       0.2750529       65.53719
2011    7       3       0.3092454       72.12093
2011    7       4       0.2680276       64.75261
2011    7       5       0.2304921       57.55681
2011    7       6       0.2619164       63.399
2011    7       7       0.2447607       60.36368
2011    8       0       0.2532935       61.97796
2011    8       1       0.2295239       57.10781
2011    8       2       0.2575971       62.79229
2011    8       3       0.2476028       61.38111
2011    8       4       0.2814855       68.33429
2011    8       5       0.2745486       66.74679
2011    8       6       0.2986207       71.35634
2011    8       7       0.2740402       66.87113
2011    9       0       0.2478697       61.7293
2011    9       1       0.2688597       65.75015
2011    9       2       0.2738199       66.84669
2011    9       3       0.2803087       68.47617
2011    9       4       0.2992079       72.31324
2011    9       5       0.2853134       70.01856
2011    9       6       0.2982815       71.9969
2011    9       7       0.3974105       89.47657
2011    10      0       0.3655964       84.11407
2011    10      1       0.3088332       73.94489
2011    10      2       0.2896074       69.81865
2011    10      3       0.2494785       61.86318
2011    10      4       0.2372087       59.52073
2011    10      5       0.2439649       60.77607
2011    10      6       0.2223347       56.21478
2011    10      7       0.2255445       56.6513
2011    11      0       0.1855617       48.4293
2011    11      1       0.1643404       44.09342
2011    11      2       0.1716481       45.44559
2011    11      3       0.2670735       64.47182
2011    11      4       0.2950144       69.89344
2011    11      5       0.2037831       52.46966
2011    11      6       0.1783567       46.97956
2011    11      7       0.1232321       34.50876
2011    12      0       0.1252841       34.7167
2011    12      1       0.1605514       42.60644
2011    12      2       0.2110913       53.45756
2011    12      3       0.2943246       69.72423
2011    12      4       0.3872422       86.75021
2011    12      5       0.344292        79.76276
2011    12      6       0.2956967       70.78023
2011    12      7       0.3246614       75.83035
2011    13      0       0.3817564       85.6213
2011    13      1       0.3760011       84.73777
2011    13      2       0.3640602       82.81854
2011    13      3       0.4319992       94.24326
2011    13      4       0.4545435       98.33739
2011    13      5       0.4191993       92.56239
2011    13      6       0.4078016       90.37338
2011    13      7       0.4063099       89.97826
2011    14      0       0.3981458       88.43489
2011    14      1       0.4053604       89.55286
2011    14      2       0.2990846       70.9271
2011    14      3       0.3038084       71.88429
2011    14      4       0.3491683       80.31982
2011    14      5       0.3081986       72.87088
2011    14      6       0.3146381       73.88558
2011    14      7       0.3300341       76.63652
2011    15      0       0.3147715       73.9644
2011    15      1       0.4304658       93.59103
2011    15      2       0.3667762       82.78902
2011    15      3       0.3973528       88.13701
2011    15      4       0.4399958       95.34369
2011    15      5       0.3146127       73.87322
2011    15      6       0.3954721       88.06318
2011    15      7       0.3787701       84.87528
2011    16      0       0.3627684       82.31532
2011    16      1       0.2876934       68.75264
2011    16      2       0.3152106       73.56078
2011    16      3       0.3450331       79.0148
2011    16      4       0.3746166       84.37025
2011    16      5       0.2686524       64.97434
2011    16      6       0.1898107       49.12623
2011    16      7       0.1495899       40.43529
2011    17      0       0.1425627       38.72432
2011    17      1       0.1413814       38.36436
2011    17      2       0.1797822       46.71235
2011    17      3       0.2295626       56.95551
2011    17      4       0.275409        66.11682
2011    17      5       0.2111733       53.63547
2011    17      6       0.1714041       45.22043
2011    17      7       0.1598265       42.66182
2011    18      0       0.16544         43.90538
2011    18      1       0.2100932       53.19904
2011    18      2       0.2114093       53.49579
2011    18      3       0.2271669       56.82591
2011    18      4       0.2668914       64.81223
2011    18      5       0.2216263       55.96531
2011    18      6       0.180988        47.4246
2011    18      7       0.1681728       44.70487
2011    19      0       0.1864745       48.48604
2011    19      1       0.2316657       57.77894
2011    19      2       0.2533177       62.05943
2011    19      3       0.2330371       58.37785
2011    19      4       0.231994        58.33708
2011    19      5       0.17279         46.27261
2011    19      6       0.1448614       39.86632
2011    19      7       0.1351744       37.61108
2011    20      0       0.1237463       35.05069
2011    20      1       0.1226055       34.82652
2011    20      2       0.1630942       43.75797
2011    20      3       0.1894174       49.52251
2011    20      4       0.2729901       66.54655
2011    20      5       0.2134525       55.00913
2011    20      6       0.1816477       48.14754
2011    20      7       0.1535504       41.96162
2011    21      0       0.1401174       38.96065
2011    21      1       0.1354918       37.90359
2011    21      2       0.1310004       36.96135
2011    21      3       0.1482906       40.93473
2011    21      4       0.18702         49.61231
2011    21      5       0.1854891       49.47394
2011    21      6       0.160408        43.75534
2011    21      7       0.1817692       48.32068
2011    22      0       0.1928437       50.57448
2011    22      1       0.1854903       49.04565
2011    22      2       0.1804845       47.99402
2011    22      3       0.1785926       47.70036
2011    22      4       0.2016413       52.50027
2011    22      5       0.1553909       42.63605
2011    22      6       0.09683532      29.13049
2011    22      7       0.05155937      17.95743
2011    23      0       0.03491828      13.62656
2011    23      1       0.03872214      14.63952
2011    23      2       0.04293691      15.69573
2011    23      3       0.06077834      20.1874
2011    23      4       0.0893566       27.20029
2011    23      5       0.07167025      22.95822
2011    23      6       0.05100394      17.69697
2011    23      7       0.0539899       18.38043
2011    24      0       0.06699661      21.63389
2011    24      1       0.08452764      25.94584
2011    24      2       0.09469734      28.38046
2011    24      3       0.1030513       30.43307
2011    24      4       0.1279751       36.22552
2011    24      5       0.1267696       35.92712
2011    24      6       0.1370195       37.92526
2011    24      7       0.1399295       38.55665
2011    25      0       0.1380162       38.27094
2011    25      1       0.1512681       41.28855
2011    25      2       0.1602731       43.39209
2011    25      3       0.2220594       56.19711
2011    25      4       0.2167817       55.16373
2011    25      5       0.2147669       54.84196
2011    25      6       0.2242947       56.56013
2011    25      7       0.2263399       57.14676
2011    26      0       0.230406        57.83656
2011    26      1       0.310979        73.05985
2011    26      2       0.3377653       78.24388
2011    26      3       0.3879079       86.83424
2011    26      4       0.3099031       73.26323
2011    26      5       0.2696723       65.56939
2011    26      6       0.2549683       62.88638
2011    26      7       0.2740267       66.46141
2011    27      0       0.2674996       65.28327
2011    27      1       0.2271356       57.45866
2011    27      2       0.254281        62.96709
2011    27      3       0.2739267       66.96369
2011    27      4       0.2767605       67.43859
2011    27      5       0.2493858       62.02014
2011    27      6       0.2339713       58.88029
2011    27      7       0.2302469       57.91138
2011    28      0       0.2253688       56.85163
2011    28      1       0.2393963       59.72822
2011    28      2       0.2807481       68.12617
2011    28      3       0.2694913       65.7207
2011    28      4       0.2259651       57.31133
2011    28      5       0.2285654       57.7966
2011    28      6       0.2652352       64.73898
2011    28      7       0.3185634       74.89271
2011    29      0       0.2527441       62.72201
2011    29      1       0.189742        49.77303
2011    29      2       0.1765059       46.84597
2011    29      3       0.1927392       50.39769
2011    29      4       0.2407316       60.25919
2011    29      5       0.3197828       75.39994
2011    29      6       0.2702725       65.79999
2011    29      7       0.2465686       61.35618
2011    30      0       0.2199557       56.06481
2011    30      1       0.1900528       49.88182
2011    30      2       0.1851926       48.7188
2011    30      3       0.1897028       49.75425
2011    30      4       0.2531826       62.55553
2011    30      5       0.2562943       63.49481
2011    30      6       0.211128        54.24735
2011    30      7       0.2002362       51.83125
2011    31      0       0.1796596       47.46924
2011    31      1       0.1472319       40.2949
2011    31      2       0.1416026       38.89799
2011    31      3       0.1345336       37.492
2011    31      4       0.173517        46.39042
2011    31      5       0.2204217       56.20014
2011    31      6       0.2088285       53.23943
2011    31      7       0.2528529       61.9948
2012    1       0       0.2632038       65.16711
2012    1       1       0.2922944       71.06978
2012    1       2       0.2500642       62.81551
2012    1       3       0.2494303       62.93764
2012    1       4       0.2450416       61.98541
2012    1       5       0.2533738       63.71531
2012    1       6       0.2342654       59.54337
2012    1       7       0.198201        51.99754
2012    2       0       0.1873976       49.70254
2012    2       1       0.207545        53.98061
2012    2       2       0.2513711       63.06982
2012    2       3       0.3024411       72.80859
2012    2       4       0.2969309       71.8648
2012    2       5       0.2628161       65.44609
2012    2       6       0.24955         62.48635
2012    2       7       0.2539002       63.13553
2012    3       0       0.2718291       66.57372
2012    3       1       0.3016822       72.09095
2012    3       2       0.2905035       69.84285
2012    3       3       0.3700118       84.0751
2012    3       4       0.364151        83.45399
2012    3       5       0.3062291       72.71306
2012    3       6       0.2399231       59.8946
2012    3       7       0.201197        51.86128
2012    4       0       0.2067523       52.81436
2012    4       1       0.295344        70.1934
2012    4       2       0.3295381       76.1408
2012    4       3       0.3347874       77.74636
2012    4       4       0.3205743       75.20187
2012    4       5       0.215691        55.03197
2012    4       6       0.1931753       50.30839
2012    4       7       0.1886563       49.25365
2012    5       0       0.1819105       47.64224
2012    5       1       0.2086659       53.07461
2012    5       2       0.2402982       59.44386
2012    5       3       0.2711298       65.52102
2012    5       4       0.3693144       83.16055
2012    5       5       0.2790323       66.81367
2012    5       6       0.2125815       54.04017
2012    5       7       0.1942125       50.35895
2012    6       0       0.1706823       45.43302
2012    6       1       0.2590806       63.40254
2012    6       2       0.2291169       57.52968
2012    6       3       0.2636459       64.40227
2012    6       4       0.3142666       73.93968
2012    6       5       0.2594212       63.90983
2012    6       6       0.2210246       56.15095
2012    6       7       0.2109164       54.00039
2012    7       0       0.225442        56.92025
2012    7       1       0.3177376       74.80463
2012    7       2       0.3807757       85.84405
2012    7       3       0.4349133       94.96164
2012    7       4       0.4962725       104.8102
2012    7       5       0.3306248       77.2029
2012    7       6       0.2627424       64.34665
2012    7       7       0.2479819       61.52852
2012    8       0       0.2645059       64.73579
2012    8       1       0.3471504       80.22368
2012    8       2       0.3743953       84.76609
2012    8       3       0.384693        86.56269
2012    8       4       0.4175332       92.26505
2012    8       5       0.341744        79.372
2012    8       6       0.2881397       69.27284
2012    8       7       0.2792436       67.26764
2012    9       0       0.2477703       61.28732
2012    9       1       0.3003476       71.15436
2012    9       2       0.3319679       77.35124
2012    9       3       0.3995259       89.05617
2012    9       4       0.4291306       94.38107
2012    9       5       0.3896662       87.94249
2012    9       6       0.332387        77.70177
2012    9       7       0.2741753       66.73467
2012    10      0       0.2665363       65.22406
2012    10      1       0.2184217       55.78012
2012    10      2       0.2833933       68.53267
2012    10      3       0.3356177       78.30599
2012    10      4       0.4437111       96.48026
2012    10      5       0.3237374       75.98245
2012    10      6       0.2873333       69.24564
2012    10      7       0.2701989       65.76368
2012    11      0       0.2656177       64.72115
2012    11      1       0.307857        73.00218
2012    11      2       0.3335619       77.76071
2012    11      3       0.4431867       95.84246
2012    11      4       0.4514537       97.95274
2012    11      5       0.3303696       77.40622
2012    11      6       0.2718878       66.2326
2012    11      7       0.2502603       61.88027
2012    12      0       0.2165415       55.07889
2012    12      1       0.2157328       55.04765
2012    12      2       0.244131        60.83629
2012    12      3       0.2813637       68.0684
2012    12      4       0.3509376       80.67832
2012    12      5       0.2698781       65.98003
2012    12      6       0.2598191       63.92668
2012    12      7       0.2713392       66.3165
2012    13      0       0.3007574       71.8696
2012    13      1       0.3107471       73.72406
2012    13      2       0.3652252       83.36458
2012    13      3       0.3815963       86.53156
2012    13      4       0.4420369       96.69509
2012    13      5       0.3274183       76.77715
2012    13      6       0.2437735       60.84459
2012    13      7       0.2256025       57.08437
2012    14      0       0.215992        55.07992
2012    14      1       0.2186242       55.59897
2012    14      2       0.277466        67.30482
2012    14      3       0.363484        82.99445
2012    14      4       0.3747078       85.17336
2012    14      5       0.3873076       87.30589
2012    14      6       0.3200584       75.28631
2012    14      7       0.2668866       65.36657
2012    15      0       0.2699479       65.84101
2012    15      1       0.3080654       73.08333
2012    15      2       0.3849855       86.70077
2012    15      3       0.4401509       95.85598
2012    15      4       0.4634464       100.211
2012    15      5       0.3398145       79.19055
2012    15      6       0.3249881       76.31687
2012    15      7       0.2887403       69.5301
2012    16      0       0.2884546       69.5228
2012    16      1       0.2893681       69.64654
2012    16      2       0.3566833       81.67655
2012    16      3       0.4495744       97.11012
2012    16      4       0.4861205       103.3601
2012    16      5       0.3933406       88.69313
2012    16      6       0.3646111       83.64939
2012    16      7       0.300628        71.98823
2012    17      0       0.2665382       65.40221
2012    17      1       0.2542944       62.84813
2012    17      2       0.3196426       75.28653
2012    17      3       0.3516053       81.15129
2012    17      4       0.3691747       84.39448
2012    17      5       0.3128941       74.37898
2012    17      6       0.2979029       71.5054
2012    17      7       0.2966801       71.22304
2012    18      0       0.3084072       73.43432
2012    18      1       0.2701129       66.0891
2012    18      2       0.3081583       73.35795
2012    18      3       0.3503742       81.14229
2012    18      4       0.3904434       88.20468
2012    18      5       0.2888153       70.35674
2012    18      6       0.2806704       68.6558
2012    18      7       0.2944752       71.30193
2012    19      0       0.2722634       67.09302
2012    19      1       0.2580968       64.21953
2012    19      2       0.2475828       62.1534
2012    19      3       0.2730187       67.37717
2012    19      4       0.2777078       68.19704
2012    19      5       0.2730857       67.42383
2012    19      6       0.2395527       60.47428
2012    19      7       0.1909066       50.27676
2012    20      0       0.1753902       46.80071
2012    20      1       0.1861101       48.96784
2012    20      2       0.1792258       47.52484
2012    20      3       0.2342441       58.97323
2012    20      4       0.2209297       56.36454
2012    20      5       0.1805045       48.00807
2012    20      6       0.1534044       41.95316
2012    20      7       0.1250256       35.47417
2012    21      0       0.120633        34.41386
2012    21      1       0.1158101       33.18562
2012    21      2       0.1374088       38.05396
2012    21      3       0.1580697       42.79511
2012    21      4       0.1877312       49.32402
2012    21      5       0.1702086       45.85397
2012    21      6       0.1649504       44.39463
2012    21      7       0.1823895       48.00514
2012    22      0       0.1818977       47.97205
2012    22      1       0.1949052       50.77662
2012    22      2       0.2008494       52.00095
2012    22      3       0.212581        54.53713
2012    22      4       0.2299629       58.05875
2012    22      5       0.1719035       46.28414
2012    22      6       0.1428463       39.54305
2012    22      7       0.1199474       34.30073
2012    23      0       0.1146307       33.03531
2012    23      1       0.1120231       32.46182
2012    23      2       0.1113961       32.32701
2012    23      3       0.1342744       37.59545
2012    23      4       0.1721313       46.02574
2012    23      5       0.1495495       41.25264
2012    23      6       0.1466652       40.32484
2012    23      7       0.1517687       41.36623
2012    24      0       0.158306        42.70597
2012    24      1       0.169427        45.11576
2012    24      2       0.2311527       58.0532
2012    24      3       0.3082485       72.84608
2012    24      4       0.3428007       79.31264
2012    24      5       0.3532605       81.22438
2012    24      6       0.3608425       82.62155
2012    24      7       0.338148        78.60008
2012    25      0       0.2822416       68.03304
2012    25      1       0.2678116       65.16223
2012    25      2       0.3070295       72.41506
2012    25      3       0.298096        71.00921
2012    25      4       0.3123802       73.8356
2012    25      5       0.2924377       69.93251
2012    25      6       0.2988155       71.01917
2012    25      7       0.3281501       76.63326
2012    26      0       0.302951        72.15313
2012    26      1       0.2887231       69.52079
2012    26      2       0.2973249       71.07815
2012    26      3       0.3241678       75.95019
2012    26      4       0.3076539       73.02906
2012    26      5       0.2629479       64.58433
2012    26      6       0.2851684       68.5688
2012    26      7       0.2581049       63.10558
2012    27      0       0.2623752       63.95176
2012    27      1       0.3283778       76.19077
2012    27      2       0.3435142       78.73861
2012    27      3       0.4002721       88.58166
2012    27      4       0.399607        88.9116
2012    27      5       0.3162409       74.49385
2012    27      6       0.265709        64.87631
2012    27      7       0.2756241       66.29027
2012    28      0       0.289226        68.70045
2012    28      1       0.3179726       74.2227
2012    28      2       0.376986        84.58924
2012    28      3       0.3956648       87.67394
2012    28      4       0.4317817       94.01549
2012    28      5       0.3378794       78.10642
2012    28      6       0.2551071       62.70045
2012    28      7       0.2314706       57.99145
2012    29      0       0.2439644       60.54475
2012    29      1       0.2977846       70.57581
2012    29      2       0.3321282       76.56493
2012    29      3       0.323865        75.21479
2012    29      4       0.3372781       77.94331
2012    29      5       0.2539102       62.29945
2012    29      6       0.2266644       56.78454
2012    29      7       0.2063567       52.64577
2012    30      0       0.1868577       48.5544
2012    30      1       0.2930441       69.35598
2012    30      2       0.2392297       59.17131
2012    30      3       0.2840599       67.9781
2012    30      4       0.3232218       75.22798
2012    30      5       0.2896641       69.19849
2012    30      6       0.2003356       51.28736
2012    30      7       0.1420354       38.6835
2012    31      0       0.1152706       32.74851
2012    31      1       0.1465386       39.60078
2012    31      2       0.1773228       46.07341
2012    31      3       0.1768029       46.19051
2012    31      4       0.1795625       46.89885
2012    31      5       0.1188643       33.68236
2012    31      6       0.08186203      25.10807
2012    31      7       0.07009015      22.24819
2013    1       0       0.1297687       36.17542
2013    1       1       0.1330656       36.83593
2013    1       2       0.1673743       44.23671
2013    1       3       0.1966927       50.63532
2013    1       4       0.1973837       51.03644
2013    1       5       0.1941138       50.09535
2013    1       6       0.202532        51.94065
2013    1       7       0.2067259       52.83478
2013    2       0       0.169556        45.18204
2013    2       1       0.1554286       42.10229
2013    2       2       0.1996564       51.40206
2013    2       3       0.2113553       54.12359
2013    2       4       0.2057874       53.16584
2013    2       5       0.2088719       53.92746
2013    2       6       0.2820611       68.13823
2013    2       7       0.2752891       66.87009
2013    3       0       0.2404876       59.92732
2013    3       1       0.2074661       53.29932
2013    3       2       0.2220433       56.29192
2013    3       3       0.2582187       63.48186
2013    3       4       0.2237913       56.96955
2013    3       5       0.2208603       56.53197
2013    3       6       0.3033952       72.30837
2013    3       7       0.2878647       69.47837
2013    4       0       0.3004949       71.78112
2013    4       1       0.2505629       62.19478
2013    4       2       0.2566358       63.38081
2013    4       3       0.2618452       64.49373
2013    4       4       0.2586112       63.67966
2013    4       5       0.3125586       73.56393
2013    4       6       0.3381628       78.12781
2013    4       7       0.2839843       68.65551
2013    5       0       0.2432034       60.80596
2013    5       1       0.255913        63.3204
2013    5       2       0.2712174       66.30801
2013    5       3       0.3511175       80.66859
2013    5       4       0.3576216       82.33334
2013    5       5       0.3174054       75.47613
2013    5       6       0.2466953       61.61773
2013    5       7       0.1671113       44.91328
2013    6       0       0.1260703       35.77441
2013    6       1       0.1311258       36.87009
2013    6       2       0.1478316       40.56356
2013    6       3       0.2019548       52.40421
2013    6       4       0.2287225       58.19031
2013    6       5       0.1755513       47.10522
2013    6       6       0.1239923       35.35695
2013    6       7       0.09773753      29.18456
2013    7       0       0.1161812       33.55182
2013    7       1       0.127194        36.07852
2013    7       2       0.1487818       40.86141
2013    7       3       0.1566103       42.73973
2013    7       4       0.1982336       51.76503
2013    7       5       0.213937        55.02952
2013    7       6       0.2127961       54.68358
2013    7       7       0.233287        58.62955
2013    8       0       0.2893554       69.33053
2013    8       1       0.3201818       75.19811
2013    8       2       0.3281109       76.87854
2013    8       3       0.4017653       89.54725
2013    8       4       0.3075244       73.2249
2013    8       5       0.1889088       50.10088
2013    8       6       0.1680688       45.36595
2013    8       7       0.1716124       46.12175
2013    9       0       0.1624885       44.13407
2013    9       1       0.1511316       41.61396
2013    9       2       0.1508851       41.48687
2013    9       3       0.1443762       40.10358
2013    9       4       0.1693703       45.70449
2013    9       5       0.1629494       44.31852
2013    9       6       0.1583412       43.13888
2013    9       7       0.1678935       45.0971
2013    10      0       0.176198        46.83753
2013    10      1       0.1691226       45.35721
2013    10      2       0.188003        49.41504
2013    10      3       0.2357165       59.12272
2013    10      4       0.3551753       81.57673
2013    10      5       0.4016102       89.87085
2013    10      6       0.4204772       93.51757
2013    10      7       0.3558416       82.66627
2013    11      0       0.3296469       77.84766
2013    11      1       0.3422527       79.69552
2013    11      2       0.3551302       82.34268
2013    11      3       0.4085833       92.09497
2013    11      4       0.4788871       103.5571
2013    11      5       0.4931066       105.3818
2013    11      6       0.4832221       104.0542
2013    11      7       0.4813015       104.0076
2013    12      0       0.4486168       98.69973
2013    12      1       0.4152734       93.06399
2013    12      2       0.412087        92.60306
2013    12      3       0.4745008       102.8456
2013    12      4       0.5273498       111.1641
2013    12      5       0.4626902       100.9244
2013    12      6       0.404975        91.35091
2013    12      7       0.3711336       85.42986
2013    13      0       0.3494525       81.62887
2013    13      1       0.4526149       98.96727
2013    13      2       0.5155581       108.4845
2013    13      3       0.4824823       103.9299
2013    13      4       0.5057742       107.5106
2013    13      5       0.462663        100.7569
2013    13      6       0.485343        104.3958
2013    13      7       0.4497204       99.30123
2013    14      0       0.4789844       104.5329
2013    14      1       0.459994        100.4817
2013    14      2       0.4577431       99.9332
2013    14      3       0.4765709       103.6636
2013    14      4       0.533091        112.318
2013    14      5       0.4917919       105.3146
2013    14      6       0.459129        100.1544
2013    14      7       0.4422879       97.57309
2013    15      0       0.4510114       98.99807
2013    15      1       0.5297385       110.9432
2013    15      2       0.4594346       100.4593
2013    15      3       0.4903929       105.63
2013    15      4       0.4218259       94.08839
2013    15      5       0.4119634       92.36715
2013    15      6       0.3976158       89.94744
2013    15      7       0.3845496       87.62406
2013    16      0       0.3675125       84.58473
2013    16      1       0.3842711       87.44525
2013    16      2       0.3788206       86.47402
2013    16      3       0.4667108       100.8291
2013    16      4       0.4752252       102.8254
2013    16      5       0.4101986       92.17231
2013    16      6       0.3683737       84.88075
2013    16      7       0.3711865       85.13641
2013    17      0       0.3635902       83.96365
2013    17      1       0.3655984       84.21363
2013    17      2       0.3785374       86.7917
2013    17      3       0.4183123       93.89453
2013    17      4       0.4425992       97.81525
2013    17      5       0.3900006       88.55446
2013    17      6       0.3472261       81.05678
2013    17      7       0.3221571       76.31404
2013    18      0       0.2787825       67.96286
2013    18      1       0.2806984       68.34829
2013    18      2       0.336384        78.64948
2013    18      3       0.3629486       83.18854
2013    18      4       0.3604256       82.79685
2013    18      5       0.3227399       76.21594
2013    18      6       0.2801643       67.82965
2013    18      7       0.2566779       63.37926
2013    19      0       0.245056        61.25903
2013    19      1       0.3421426       79.64884
2013    19      2       0.4623991       99.38367
2013    19      3       0.4535605       98.21512
2013    19      4       0.3602863       82.7261
2013    19      5       0.3290278       77.53907
2013    19      6       0.3489876       80.93418
2013    19      7       0.3704702       84.7076
2013    20      0       0.3698506       84.82862
2013    20      1       0.3419625       79.93914
2013    20      2       0.3775599       85.95212
2013    20      3       0.4101122       91.30998
2013    20      4       0.4147201       92.12048
2013    20      5       0.353464        82.21626
2013    20      6       0.2891272       70.09491
2013    20      7       0.2733659       66.94989
2013    21      0       0.2654592       65.31395
2013    21      1       0.2637453       64.78813
2013    21      2       0.3048816       72.81205
2013    21      3       0.3810678       86.62604
2013    21      4       0.3920578       88.52155
2013    21      5       0.3694655       85.13312
2013    21      6       0.3026721       72.77588
2013    21      7       0.2978508       71.55032
2013    22      0       0.2696497       66.08344
2013    22      1       0.2223167       56.45944
2013    22      2       0.2201012       55.95507
2013    22      3       0.2853486       69.0259
2013    22      4       0.3204017       75.67726
2013    22      5       0.3165195       75.23313
2013    22      6       0.2776672       67.94215
2013    22      7       0.2760384       67.36713
2013    23      0       0.2489455       62.01893
2013    23      1       0.2418658       60.61317
2013    23      2       0.2527192       62.60236
2013    23      3       0.3312499       77.36202
2013    23      4       0.4116214       91.225
2013    23      5       0.4145219       91.95043
2013    23      6       0.4462091       97.25279
2013    23      7       0.4325822       94.94001
2013    24      0       0.3309354       77.63541
2013    24      1       0.2961186       71.22416
2013    24      2       0.3038562       72.64193
2013    24      3       0.3545777       81.70042
2013    24      4       0.3363172       78.5253
2013    24      5       0.3236675       76.33207
2013    24      6       0.3099377       73.62643
2013    24      7       0.2765507       67.36384
2013    25      0       0.2694665       66.11473
2013    25      1       0.2832187       68.60119
2013    25      2       0.3320064       77.1194
2013    25      3       0.3456823       79.42952
2013    25      4       0.3429396       79.51797
2013    25      5       0.2438702       60.89889
2013    25      6       0.2127432       54.41135
2013    25      7       0.1997033       51.62659
2013    26      0       0.187651        49.02911
2013    26      1       0.1957224       50.64748
2013    26      2       0.2395053       59.43654
2013    26      3       0.2483743       61.32285
2013    26      4       0.2335017       58.35491
2013    26      5       0.2383578       59.45099
2013    26      6       0.2373543       59.10312
2013    26      7       0.2317087       57.85333
2013    27      0       0.2137503       54.19347
2013    27      1       0.1891107       49.10174
2013    27      2       0.1953402       50.37734
2013    27      3       0.233558        58.11787
2013    27      4       0.2281389       57.19054
2013    27      5       0.1932552       50.27192
2013    27      6       0.2352666       58.18787
2013    27      7       0.2666803       64.39858
2013    28      0       0.2442955       60.27727
2013    28      1       0.2461201       60.90372
2013    28      2       0.2533325       62.30179
2013    28      3       0.2966017       70.48952
2013    28      4       0.2556844       62.94415
2013    28      5       0.2194762       56.0171
2013    28      6       0.2207776       56.0735
2013    28      7       0.2425352       60.21212
2013    29      0       0.2500239       61.68279
2013    29      1       0.2437182       60.52548
2013    29      2       0.2973107       70.62314
2013    29      3       0.266202        64.95955
2013    29      4       0.3585086       81.62867
2013    29      5       0.2730903       66.33984
2013    29      6       0.2609691       64.27947
2013    29      7       0.2817046       68.44647
2013    30      0       0.224227        56.99122
2013    30      1       0.273348        66.55211
2013    30      2       0.2423948       60.37078
2013    30      3       0.2350818       58.67862
2013    30      4       0.240498        59.93225
2013    30      5       0.2003671       51.94129
2013    30      6       0.2017181       52.05032
2013    30      7       0.2286846       57.74426
2013    31      0       0.2438492       60.63181
2013    31      1       0.2557305       62.8674
2013    31      2       0.2437219       60.60969
2013    31      3       0.2396757       59.87355
2013    31      4       0.2373187       59.49037
2013    31      5       0.2064898       53.4933
2013    31      6       0.167256        44.77016
2013    31      7       0.1668287       44.64293
2014    1       0       0.1857519       48.43304
2014    1       1       0.2143453       54.40013
2014    1       2       0.2784169       67.03502
2014    1       3       0.3278799       76.5685
2014    1       4       0.3860864       86.79738
2014    1       5       0.3497172       80.73173
2014    1       6       0.2770836       67.06521
2014    1       7       0.245557        60.83365
2014    2       0       0.2161123       54.83912
2014    2       1       0.2422679       60.2469
2014    2       2       0.2743878       66.23349
2014    2       3       0.2820874       67.7816
2014    2       4       0.2647585       64.91675
2014    2       5       0.2362736       59.39822
2014    2       6       0.2180899       55.45813
2014    2       7       0.2533219       62.42769
2014    3       0       0.3169071       74.4294
2014    3       1       0.3214252       75.47436
2014    3       2       0.3149384       74.36166
2014    3       3       0.3522552       81.25092
2014    3       4       0.2945243       70.89056
2014    3       5       0.2184072       56.12408
2014    3       6       0.184379        48.7711
2014    3       7       0.1796946       47.69201
2014    4       0       0.1890725       49.69253
2014    4       1       0.210933        54.27472
2014    4       2       0.2444445       61.09658
2014    4       3       0.2532329       62.8936
2014    4       4       0.2029518       52.71769
2014    4       5       0.1860502       49.33522
2014    4       6       0.1561408       42.62502
2014    4       7       0.1459161       40.27553
2014    5       0       0.1253318       35.59692
2014    5       1       0.1245655       35.43011
2014    5       2       0.1493554       40.88985
2014    5       3       0.1349061       37.76044
2014    5       4       0.1565678       42.7622
2014    5       5       0.1603189       43.67857
2014    5       6       0.1460257       40.25984
2014    5       7       0.1414295       39.14949
2014    6       0       0.1309622       36.85916
2014    6       1       0.128633        36.3461
2014    6       2       0.169353        45.30758
2014    6       3       0.1821829       48.15895
2014    6       4       0.2038987       52.98338
2014    6       5       0.1900845       50.3579
2014    6       6       0.178767        47.58529
2014    6       7       0.1720258       46.03632
2014    7       0       0.1636063       44.09883
2014    7       1       0.1515832       41.45772
2014    7       2       0.2025774       52.42055
2014    7       3       0.253056        62.81956
2014    7       4       0.2850853       69.14158
2014    7       5       0.2288558       58.23211
2014    7       6       0.1987674       51.76242
2014    7       7       0.2092358       53.75604
2014    8       0       0.2153029       54.94001
2014    8       1       0.2752807       66.91383
2014    8       2       0.2843629       68.773
2014    8       3       0.3533358       81.49983
2014    8       4       0.4240562       93.95134
2014    8       5       0.3148497       74.89342
2014    8       6       0.2812745       68.42977
2014    8       7       0.2748907       67.09042
2014    9       0       0.2470911       61.70095
2014    9       1       0.2199691       56.16163
2014    9       2       0.2474909       61.65207
2014    9       3       0.2430433       60.67477
2014    9       4       0.2289043       57.99053
2014    9       5       0.2235619       56.94257
2014    9       6       0.2113064       54.07856
2014    9       7       0.2122031       54.2968
2014    10      0       0.2360298       59.17307
2014    10      1       0.2557006       62.92644
2014    10      2       0.2341784       58.82438
2014    10      3       0.278289        67.63076
2014    10      4       0.293531        70.612
2014    10      5       0.2458876       61.31361
2014    10      6       0.2052024       52.8915
2014    10      7       0.1823629       47.84836
2014    11      0       0.1708854       45.32647
2014    11      1       0.1931003       50.02237
2014    11      2       0.1889437       49.26489
2014    11      3       0.2174528       55.34878
2014    11      4       0.2340725       58.93622
2014    11      5       0.1882292       49.49883
2014    11      6       0.1566669       42.49235
2014    11      7       0.1297255       36.43478
2014    12      0       0.1439109       39.49852
2014    12      1       0.2046918       52.38871
2014    12      2       0.2048256       52.6626
2014    12      3       0.2579335       63.42922
2014    12      4       0.265243        64.98166
2014    12      5       0.2067299       53.52687
2014    12      6       0.1903526       49.77666
2014    12      7       0.1727166       45.88062
2014    13      0       0.1625105       43.63472
2014    13      1       0.183175        48.071
2014    13      2       0.2063503       52.93603
2014    13      3       0.2728323       65.89087
2014    13      4       0.2612654       63.73845
2014    13      5       0.1894868       49.58052
2014    13      6       0.160054        43.14277
2014    13      7       0.1338697       37.24619
2014    14      0       0.1189129       33.83432
2014    14      1       0.1169266       33.38161
2014    14      2       0.1261388       35.45335
2014    14      3       0.129312        36.28434
2014    14      4       0.1494504       40.817
2014    14      5       0.1366352       38.19043
2014    14      6       0.1249852       35.44092
2014    14      7       0.110928        32.10514
2014    15      0       0.1052714       30.69355
2014    15      1       0.1368305       37.68851
2014    15      2       0.1879043       48.75437
2014    15      3       0.2378824       59.00608
2014    15      4       0.2827521       67.85047
2014    15      5       0.2788147       66.93713
2014    15      6       0.2094623       53.29924
2014    15      7       0.2420486       59.54637
2014    16      0       0.2641731       64.33937
2014    16      1       0.1727087       45.69119
2014    16      2       0.2038786       52.07499
2014    16      3       0.1567152       42.19597
2014    16      4       0.1786138       46.87735
2014    16      5       0.1638323       43.68837
2014    16      6       0.1238693       34.88322
2014    16      7       0.1063716       30.94178
2014    17      0       0.09120051      27.35914
2014    17      1       0.1193755       33.80678
2014    17      2       0.1330897       36.84124
2014    17      3       0.1326331       36.72943
2014    17      4       0.1470307       39.80503
2014    17      5       0.1354744       37.37994
2014    17      6       0.1308002       36.31316
2014    17      7       0.1095292       31.51039
2014    18      0       0.06296279      20.50982
2014    18      1       0.05545761      18.65275
2014    18      2       0.05409021      18.28735
2014    18      3       0.05165062      17.70829
2014    18      4       0.05723212      19.05507
2014    18      5       0.0599667       19.70657
2014    18      6       0.04193216      15.24988
2014    18      7       0.03392013      13.21096
2014    19      0       0.03398452      13.22295
2014    19      1       0.04030968      14.85244
2014    19      2       0.05229386      17.81939
2014    19      3       0.05860668      19.3707
2014    19      4       0.09248753      27.58368
2014    19      5       0.0821395       25.1844
2014    19      6       0.07722504      23.92111
2014    19      7       0.06883877      21.91196
2014    20      0       0.05724596      19.05227
2014    20      1       0.06912757      21.88275
2014    20      2       0.08916304      26.55055
2014    20      3       0.1579089       41.63119
2014    20      4       0.1603123       42.46436
2014    20      5       0.1203156       33.68689
2014    20      6       0.08811577      26.21563
2014    20      7       0.0687646       21.60865
2014    21      0       0.06849112      21.5957
2014    21      1       0.07821481      23.87833
2014    21      2       0.1108617       31.28316
2014    21      3       0.1355047       36.79542
2014    21      4       0.1764357       45.64975
2014    21      5       0.09406508      27.84737
2014    21      6       0.05671887      18.84801
2014    21      7       0.04923324      16.90593
2014    22      0       0.0493264       16.8739
2014    22      1       0.06424401      20.54903
2014    22      2       0.07289109      22.68452
2014    22      3       0.1045105       29.69408
2014    22      4       0.1316136       35.94948
2014    22      5       0.1236426       34.36802
2014    22      6       0.1213566       33.71682
2014    22      7       0.1322671       36.12257
2014    23      0       0.1435463       38.5671
2014    23      1       0.1736807       45.03545
2014    23      2       0.2322918       56.7575
2014    23      3       0.204389        51.66084
2014    23      4       0.2228109       55.48425
2014    23      5       0.2079697       52.40319
2014    23      6       0.2547758       61.47582
2014    23      7       0.2413967       58.98882
2014    24      0       0.2375835       58.16589
2014    24      1       0.2375996       58.35127
2014    24      2       0.2661296       63.45589
2014    24      3       0.240813        58.88177
2014    24      4       0.2445721       59.7002
2014    24      5       0.2111729       52.99665
2014    24      6       0.20105         50.81696
2014    24      7       0.1941505       49.57729
2014    25      0       0.1863521       48.05598
2014    25      1       0.2342835       57.71818
2014    25      2       0.2090946       52.86723
2014    25      3       0.2231311       55.8819
2014    25      4       0.2150357       54.25516
2014    25      5       0.2029284       51.68742
2014    25      6       0.2031862       51.70167
2014    25      7       0.2428318       59.86828
2014    26      0       0.2704334       65.15076
2014    26      1       0.2899224       68.5706
2014    26      2       0.2865973       67.85055
2014    26      3       0.2923099       69.10359
2014    26      4       0.2564562       62.41619
2014    26      5       0.2231268       55.75776
2014    26      6       0.2373671       58.53995
2014    26      7       0.2494478       60.90688
2014    27      0       0.2533079       61.71324
2014    27      1       0.2971295       70.02328
2014    27      2       0.2920203       69.14573
2014    27      3       0.3167782       74.07779
2014    27      4       0.3531046       80.64164
2014    27      5       0.2975829       70.52602
2014    27      6       0.2906197       68.90059
2014    27      7       0.3151225       73.39547
2014    28      0       0.3063891       71.81743
2014    28      1       0.2644102       63.96949
2014    28      2       0.2450943       59.95481
2014    28      3       0.2326834       57.75934
2014    28      4       0.2587271       63.27807
2014    28      5       0.2583315       63.58652
2014    28      6       0.2387154       59.31402
2014    28      7       0.2551639       62.29618
2014    29      0       0.2825383       67.45115
2014    29      1       0.2770719       66.31073
2014    29      2       0.2517211       61.5422
2014    29      3       0.2497815       61.30591
2014    29      4       0.2822457       67.72186
2014    29      5       0.2693783       65.76734
2014    29      6       0.2245808       56.43958
2014    29      7       0.2266605       56.81282
2014    30      0       0.2151287       54.51584
2014    30      1       0.2203274       55.25752
2014    30      2       0.2112529       53.30439
2014    30      3       0.2009466       51.23334
2014    30      4       0.254297        62.15685
2014    30      5       0.2687493       65.5203
2014    30      6       0.2139207       54.36742
2014    30      7       0.2265571       56.85763
2014    31      0       0.2046745       52.2081
2014    31      1       0.2418494       59.06738
2014    31      2       0.2204744       55.0925
2014    31      3       0.2336432       57.92582
2014    31      4       0.2941058       69.76092
2014    31      5       0.2460618       60.71692
2014    31      6       0.1980186       50.97274
2014    31      7       0.1845867       47.98477
2015    1       0       0.3804093       87.09311
2015    1       1       0.4036412       90.57294
2015    1       2       0.4716535       101.6966
2015    1       3       0.3952286       89.94156
2015    1       4       0.3928363       89.77633
2015    1       5       0.4222591       95.3163
2015    1       6       0.4160412       94.22042
2015    1       7       0.3998871       91.31833
2015    2       0       0.3712372       86.00397
2015    2       1       0.397589        90.62609
2015    2       2       0.4253503       95.00271
2015    2       3       0.4409409       97.96495
2015    2       4       0.465094        101.9413
2015    2       5       0.4380748       97.70412
2015    2       6       0.4461844       98.6486
2015    2       7       0.416562        93.82457
2015    3       0       0.3957289       90.02863
2015    3       1       0.3765641       86.98555
2015    3       2       0.4949842       105.6236
2015    3       3       0.47437         102.4694
2015    3       4       0.4319713       95.55373
2015    3       5       0.3643756       84.17079
2015    3       6       0.38769         88.87392
2015    3       7       0.4115789       92.98143
2015    4       0       0.3661602       84.91123
2015    4       1       0.3755401       86.4683
2015    4       2       0.414906        92.87354
2015    4       3       0.473914        102.4141
2015    4       4       0.474272        102.0121
2015    4       5       0.380768        86.50057
2015    4       6       0.3345158       78.43862
2015    4       7       0.3025253       72.49072
2015    5       0       0.2994554       71.84022
2015    5       1       0.2712604       66.48613
2015    5       2       0.279294        68.01524
2015    5       3       0.4147047       91.50649
2015    5       4       0.4879145       103.5523
2015    5       5       0.3929983       88.62361
2015    5       6       0.3242878       76.40494
2015    5       7       0.2676389       65.54173
2015    6       0       0.2306996       58.27257
2015    6       1       0.216643        55.1995
2015    6       2       0.2508884       62.2594
2015    6       3       0.2926052       70.46824
2015    6       4       0.3623722       83.09739
2015    6       5       0.3320536       78.40701
2015    6       6       0.3143148       74.81663
2015    6       7       0.2920431       70.62361
2015    7       0       0.2902467       70.22236
2015    7       1       0.2739959       67.06162
2015    7       2       0.2609369       64.52788
2015    7       3       0.2874258       69.62233
2015    7       4       0.3249669       76.51349
2015    7       5       0.277021        68.04837
2015    7       6       0.2732361       67.03466
2015    7       7       0.2826348       68.76767
2015    8       0       0.2460795       61.52591
2015    8       1       0.2709809       66.48648
2015    8       2       0.3057286       73.12797
2015    8       3       0.3254804       76.85338
2015    8       4       0.2855723       69.63541
2015    8       5       0.2252734       57.77613
2015    8       6       0.2083199       54.04054
2015    8       7       0.1918211       50.52315
2015    9       0       0.1734818       46.46884
2015    9       1       0.1713767       45.97403
2015    9       2       0.2103381       54.27819
2015    9       3       0.2474274       61.8975
2015    9       4       0.2688666       66.262
2015    9       5       0.2433568       61.46696
2015    9       6       0.2219814       56.86531
2015    9       7       0.2234985       57.03126
2015    10      0       0.2159268       55.55777
2015    10      1       0.2500388       62.49528
2015    10      2       0.2889435       70.10684
2015    10      3       0.3218682       76.1591
2015    10      4       0.2949843       71.3082
2015    10      5       0.2477642       62.40333
2015    10      6       0.2414488       60.6563
2015    10      7       0.2206995       56.46185
2015    11      0       0.198137        51.79927
2015    11      1       0.1966963       51.44483
2015    11      2       0.2380611       60.11039
2015    11      3       0.2880464       69.69252
2015    11      4       0.2777477       67.7148
2015    11      5       0.2264282       57.52077
2015    11      6       0.1747116       46.62895
2015    11      7       0.1610124       43.59018
2015    12      0       0.1648084       44.32178
2015    12      1       0.1693557       45.21906
2015    12      2       0.2099452       53.8472
2015    12      3       0.2669696       65.43667
2015    12      4       0.3151532       74.67036
2015    12      5       0.246972        61.76362
2015    12      6       0.2008108       51.98991
2015    12      7       0.1934147       50.36391
2015    13      0       0.1852559       48.6212
2015    13      1       0.1926039       50.13729
2015    13      2       0.2463263       61.20388
2015    13      3       0.3203168       75.37574
2015    13      4       0.3667685       83.77024
2015    13      5       0.2777706       67.6626
2015    13      6       0.2490224       61.75217
2015    13      7       0.2469555       61.30642
2015    14      0       0.2887312       69.52415
2015    14      1       0.3756683       85.13122
2015    14      2       0.3671664       83.2902
2015    14      3       0.3967902       88.78545
2015    14      4       0.3702526       83.95458
2015    14      5       0.2977158       70.52732
2015    14      6       0.2936457       69.46312
2015    14      7       0.2454864       60.13193
2015    15      0       0.2441072       59.64197
2015    15      1       0.2774077       66.21138
2015    15      2       0.3125617       72.63272
2015    15      3       0.3486346       79.21345
2015    15      4       0.2999466       70.95951
2015    15      5       0.229018        57.2805
2015    15      6       0.2023365       51.73047
2015    15      7       0.1908825       49.25667
2015    16      0       0.1861201       48.20898
2015    16      1       0.2382511       58.95496
2015    16      2       0.2908113       69.09348
2015    16      3       0.3708504       83.28629
2015    16      4       0.2889261       68.96396
2015    16      5       0.1861964       48.91172
2015    16      6       0.1473948       40.37376
2015    16      7       0.1508812       41.10438
2015    17      0       0.1752643       46.4318
2015    17      1       0.1569033       42.25134
2015    17      2       0.1787145       46.78395
2015    17      3       0.2279192       56.70973
2015    17      4       0.1618212       42.95876
2015    17      5       0.1885739       48.51339
2015    17      6       0.2142315       53.58711
2015    17      7       0.2409571       58.73176
2015    18      0       0.2207053       54.64862
2015    18      1       0.1794264       46.3024
2015    18      2       0.1634775       42.9954
2015    18      3       0.1194144       33.40037
2015    18      4       0.0772711       23.85409
2015    18      5       0.04188653      15.22038
2015    18      6       0.03357284      13.07635
2015    18      7       0.02816493      11.64491
2015    19      0       0.02500631      10.80397
2015    19      1       0.02861959      11.77391
2015    19      2       0.03277721      12.86238
2015    19      3       0.04006803      14.75972
2015    19      4       0.05844832      19.37233
2015    19      5       0.05078741      17.55284
2015    19      6       0.04610874      16.34158
2015    19      7       0.04281876      15.51079
2015    20      0       0.03592382      13.71464
2015    20      1       0.04355036      15.63121
2015    20      2       0.05217119      17.77258
2015    20      3       0.06898002      21.79413
2015    20      4       0.09747163      28.50607
2015    20      5       0.09940741      28.95886
2015    20      6       0.134059        36.5193
2015    20      7       0.1451451       39.02812
2015    21      0       0.1257951       34.72112
2015    21      1       0.1269579       34.84197
2015    21      2       0.1971034       49.69868
2015    21      3       0.2349463       57.62668
2015    21      4       0.2078569       52.54835
2015    21      5       0.2096979       53.01851
2015    21      6       0.2101142       53.01197
2015    21      7       0.2603414       62.80215
2015    22      0       0.2667984       64.03189
2015    22      1       0.249129        60.61009
2015    22      2       0.2801661       66.75802
2015    22      3       0.2652417       64.23713
2015    22      4       0.2952186       70.01957
2015    22      5       0.2252555       56.1446
2015    22      6       0.1697504       44.58752
2015    22      7       0.1523145       40.83263
2015    23      0       0.1279691       35.51576
2015    23      1       0.137726        37.56418
2015    23      2       0.2410087       58.6209
2015    23      3       0.2033477       51.39866
2015    23      4       0.1765194       45.92271
2015    23      5       0.1484767       39.8378
2015    23      6       0.1464093       39.40223
2015    23      7       0.1522791       40.64058
2015    24      0       0.1496038       39.95771
2015    24      1       0.203681        51.35333
2015    24      2       0.2093607       52.68226
2015    24      3       0.2115928       53.02547
2015    24      4       0.1961025       49.95558
2015    24      5       0.1696587       44.42541
2015    24      6       0.1760175       45.62564
2015    24      7       0.1422011       38.52086
2015    25      0       0.1094074       31.2395
2015    25      1       0.136282        37.01934
2015    25      2       0.149906        40.10178
2015    25      3       0.1513012       40.28484
2015    25      4       0.1374079       37.35163
2015    25      5       0.1218365       33.98433
2015    25      6       0.09160491      27.21881
2015    25      7       0.07976291      24.49998
2015    26      0       0.05627642      18.84515
2015    26      1       0.05268763      17.91557
2015    26      2       0.06886215      21.82568
2015    26      3       0.1204593       33.43442
2015    26      4       0.2371118       58.2433
2015    26      5       0.1879633       48.70752
2015    26      6       0.1457265       39.4983
2015    26      7       0.1891294       48.34179
2015    27      0       0.1833899       47.40091
2015    27      1       0.152798        41.18863
2015    27      2       0.1854417       47.9626
2015    27      3       0.1923447       49.20751
2015    27      4       0.2346758       58.05943
2015    27      5       0.1795265       46.89825
2015    27      6       0.1597379       42.59813
2015    27      7       0.1501063       40.54864
2015    28      0       0.1447349       39.35561
2015    28      1       0.2165564       53.99476
2015    28      2       0.2287654       56.88721
2015    28      3       0.2469127       60.70968
2015    28      4       0.2682285       65.18843
2015    28      5       0.227408        57.34107
2015    28      6       0.1810302       47.58657
2015    28      7       0.1645521       43.97161
2015    29      0       0.1854418       48.14631
2015    29      1       0.2743441       65.87077
2015    29      2       0.2683894       64.93886
2015    29      3       0.3145361       73.63462
2015    29      4       0.2897413       69.41002
2015    29      5       0.1914203       49.88664
2015    29      6       0.1433918       39.36498
2015    29      7       0.1356846       37.52869
2015    30      0       0.1240088       34.86377
2015    30      1       0.1923854       49.47854
2015    30      2       0.1754514       46.07704
2015    30      3       0.1639178       43.69547
2015    30      4       0.1491953       40.54146
2015    30      5       0.1458051       39.87235
2015    30      6       0.1112919       31.9699
2015    30      7       0.1045238       30.37708
2015    31      0       0.1084517       31.26461
2015    31      1       0.1531475       41.13195
2015    31      2       0.2148783       53.78023
2015    31      3       0.1921624       49.21644
2015    31      4       0.2338764       57.79804
2015    31      5       0.1716147       45.14901
2015    31      6       0.1256491       35.07165
2015    31      7       0.1064267       30.65676
2016    1       0       0.2182507       56.00217
2016    1       1       0.2211425       56.62544
2016    1       2       0.2258916       57.50456
2016    1       3       0.2512835       62.4385
2016    1       4       0.2937676       71.05033
2016    1       5       0.2093216       54.35089
2016    1       6       0.1975664       51.67442
2016    1       7       0.2072981       53.61886
2016    2       0       0.2336174       58.89435
2016    2       1       0.2377724       59.81597
2016    2       2       0.2312002       58.52887
2016    2       3       0.2274168       57.88121
2016    2       4       0.2051908       53.2541
2016    2       5       0.18018         48.18308
2016    2       6       0.1805622       48.11022
2016    2       7       0.190606        49.94909
2016    3       0       0.2072841       53.29418
2016    3       1       0.2132732       54.60261
2016    3       2       0.2385382       59.81695
2016    3       3       0.2553993       63.41894
2016    3       4       0.2985568       71.79547
2016    3       5       0.3405405       79.82695
2016    3       6       0.3398236       79.50037
2016    3       7       0.3409481       79.77049
2016    4       0       0.3292297       77.55296
2016    4       1       0.3292318       77.41147
2016    4       2       0.3424409       79.99981
2016    4       3       0.4039812       90.80953
2016    4       4       0.3874826       88.12959
2016    4       5       0.3440488       80.66507
2016    4       6       0.3110994       74.35776
2016    4       7       0.2733737       67.18659
2016    5       0       0.242099        61.03439
2016    5       1       0.2396323       60.44899
2016    5       2       0.3021676       72.60357
2016    5       3       0.3354998       79.07557
2016    5       4       0.3501665       81.80962
2016    5       5       0.3310712       78.4362
2016    5       6       0.3192092       76.1789
2016    5       7       0.388921        88.61642
2016    6       0       0.3163689       75.44667
2016    6       1       0.3109351       74.3248
2016    6       2       0.3179888       75.65788
2016    6       3       0.3509199       81.62501
2016    6       4       0.4350107       96.26968
2016    6       5       0.3873258       89.03236
2016    6       6       0.3590786       83.61594
2016    6       7       0.3637441       84.26072
2016    7       0       0.3544741       82.51713
2016    7       1       0.398061        90.31531
2016    7       2       0.4552802       99.81822
2016    7       3       0.4856159       105.0455
2016    7       4       0.5431873       113.7482
2016    7       5       0.5258637       111.0264
2016    7       6       0.5155843       109.1993
2016    7       7       0.4491172       99.25367
2016    8       0       0.4498795       99.43159
2016    8       1       0.4455358       98.39278
2016    8       2       0.4310064       95.776
2016    8       3       0.42794         95.71087
2016    8       4       0.4864976       105.1926
2016    8       5       0.4597708       100.4752
2016    8       6       0.4118733       92.39822
2016    8       7       0.3636393       84.02123
2016    9       0       0.3337747       78.59716
2016    9       1       0.2913415       70.35095
2016    9       2       0.2994201       71.7897
2016    9       3       0.3573215       82.27924
2016    9       4       0.4194283       92.90307
2016    9       5       0.4002005       90.01123
2016    9       6       0.3761093       85.86802
2016    9       7       0.325362        76.78225
2016    10      0       0.2876017       69.61072
2016    10      1       0.2888857       69.77776
2016    10      2       0.3131988       74.29139
2016    10      3       0.4116825       91.50321
2016    10      4       0.4175168       92.58392
2016    10      5       0.4033653       90.50458
2016    10      6       0.3361757       78.93477
2016    10      7       0.3774356       86.17588
2016    11      0       0.3393332       79.45828
2016    11      1       0.3380855       78.70512
2016    11      2       0.4113761       91.10411
2016    11      3       0.5003872       105.7618
2016    11      4       0.4613077       100.1625
2016    11      5       0.366546        84.5635
2016    11      6       0.3768369       86.392
2016    11      7       0.3622216       83.9749
2016    12      0       0.2924129       71.02924
2016    12      1       0.266195        65.75335
2016    12      2       0.4023475       90.1391
2016    12      3       0.4625411       100.7595
2016    12      4       0.5092256       108.1066
2016    12      5       0.4205562       94.08257
2016    12      6       0.3913984       88.95042
2016    12      7       0.3962857       89.76273
2016    13      0       0.3749602       86.14463
2016    13      1       0.3947093       89.73151
2016    13      2       0.3799079       86.97468
2016    13      3       0.4348192       96.10055
2016    13      4       0.4901124       104.8345
2016    13      5       0.4012627       90.66038
2016    13      6       0.3025353       72.92478
2016    13      7       0.2907294       70.36734
2016    14      0       0.2561449       63.73725
2016    14      1       0.3416554       79.89459
2016    14      2       0.346544        81.11882
2016    14      3       0.4074436       91.60964
2016    14      4       0.4448106       97.76495
2016    14      5       0.401489        90.9515
2016    14      6       0.3503827       81.58561
2016    14      7       0.3656923       83.99485
2016    15      0       0.3122618       74.47449
2016    15      1       0.3093151       74.08072
2016    15      2       0.3590192       83.29319
2016    15      3       0.4159415       92.85141
2016    15      4       0.4213019       94.06437
2016    15      5       0.3353878       79.10358
2016    15      6       0.2788906       68.37233
2016    15      7       0.2842194       69.29902
2016    16      0       0.3074862       73.63851
2016    16      1       0.3002861       72.14737
2016    16      2       0.2830494       68.86737
2016    16      3       0.2692728       65.89468
2016    16      4       0.2459954       61.1958
2016    16      5       0.2262454       57.6199
2016    16      6       0.1949751       50.88556
2016    16      7       0.1464718       40.31561
2016    17      0       0.1209956       34.47468
2016    17      1       0.1531804       41.51882
2016    17      2       0.1310977       36.71296
2016    17      3       0.1376019       38.32237
2016    17      4       0.1544073       42.07691
2016    17      5       0.151658        41.57254
2016    17      6       0.1289301       36.46259
2016    17      7       0.136676        38.08549
2016    18      0       0.1575909       42.73807
2016    18      1       0.2286325       57.66261
2016    18      2       0.233275        58.81512
2016    18      3       0.2795152       67.68192
2016    18      4       0.2820374       68.45185
2016    18      5       0.2463174       61.83701
2016    18      6       0.2037284       52.95373
2016    18      7       0.1885665       49.77639
2016    19      0       0.1986697       51.79284
2016    19      1       0.2595755       64.12862
2016    19      2       0.2782921       68.01929
2016    19      3       0.3064943       73.55799
2016    19      4       0.352709        81.85267
2016    19      5       0.356056        82.62181
2016    19      6       0.3066473       73.34069
2016    19      7       0.3018692       72.47389
2016    20      0       0.3149677       75.04135
2016    20      1       0.3441164       80.45215
2016    20      2       0.3900562       88.0752
2016    20      3       0.4065907       90.7459
2016    20      4       0.4306057       94.32076
2016    20      5       0.3124649       74.23459
2016    20      6       0.2265067       57.22829
2016    20      7       0.2410672       59.82193
2016    21      0       0.2785758       66.93933
2016    21      1       0.3130278       73.70845
2016    21      2       0.4278403       93.57697
2016    21      3       0.4236951       93.40588
2016    21      4       0.4701442       100.7334
2016    21      5       0.3628501       82.56091
2016    21      6       0.2606891       63.65866
2016    21      7       0.2714947       65.586
2016    22      0       0.2779545       66.92287
2016    22      1       0.3632392       82.39271
2016    22      2       0.2845993       68.08837
2016    22      3       0.2668935       64.91324
2016    22      4       0.3091955       72.90936
2016    22      5       0.3133528       73.86097
2016    22      6       0.2848425       68.37738
2016    22      7       0.2906768       69.58372
2016    23      0       0.3319139       76.96774
2016    23      1       0.3092596       73.0701
2016    23      2       0.3537448       81.19551
2016    23      3       0.3738897       84.66599
2016    23      4       0.3949264       88.28606
2016    23      5       0.3618356       82.85786
2016    23      6       0.2805618       67.93893
2016    23      7       0.2620969       64.32862
2016    24      0       0.2807863       67.69408
2016    24      1       0.377235        85.02138
2016    24      2       0.4070406       90.06045
2016    24      3       0.3575901       81.60698
2016    24      4       0.4038714       89.70458
2016    24      5       0.3171599       74.87019
2016    24      6       0.2608634       64.13837
2016    24      7       0.2602306       63.99865
2016    25      0       0.2544822       62.90741
2016    25      1       0.3327524       77.84168
2016    25      2       0.3441382       79.96829
2016    25      3       0.3670757       84.02386
2016    25      4       0.3916661       88.66437
2016    25      5       0.3709246       85.08701
2016    25      6       0.3875662       87.82546
2016    25      7       0.3532069       81.87028
2016    26      0       0.2710041       66.57069
2016    26      1       0.2939379       70.94657
2016    26      2       0.368177        84.17503
2016    26      3       0.3527129       81.49234
2016    26      4       0.3936625       88.74309
2016    26      5       0.3775132       86.097
2016    26      6       0.3573946       82.66588
2016    26      7       0.2948694       71.02841
2016    27      0       0.2431153       60.75251
2016    27      1       0.2367505       59.39999
2016    27      2       0.334753        77.75163
2016    27      3       0.3667597       83.00038
2016    27      4       0.3456715       79.665
2016    27      5       0.3435425       79.66339
2016    27      6       0.2869379       69.03478
2016    27      7       0.2889928       69.43195
2016    28      0       0.314066        74.17825
2016    28      1       0.4579274       98.63623
2016    28      2       0.3698009       83.88847
2016    28      3       0.3848248       86.51474
2016    28      4       0.4084958       90.66866
2016    28      5       0.3561863       81.58716
2016    28      6       0.2908371       69.49288
2016    28      7       0.2772124       66.77977
2016    29      0       0.350204        80.08028
2016    29      1       0.418353        91.60664
2016    29      2       0.4478424       95.83827
2016    29      3       0.4268745       92.71101
2016    29      4       0.3732969       83.71377
2016    29      5       0.273894        66.36139
2016    29      6       0.2479775       61.30078
2016    29      7       0.2570904       63.01203
2016    30      0       0.2629833       64.20642
2016    30      1       0.3599744       82.00079
2016    30      2       0.3131613       73.74267
2016    30      3       0.3567628       81.31368
2016    30      4       0.3247139       75.87621
2016    30      5       0.2131183       54.38112
2016    30      6       0.1601078       43.05675
2016    30      7       0.1459242       39.88676
2016    31      0       0.1586048       42.57043
2016    31      1       0.2223634       55.93324
2016    31      2       0.2575448       62.79729
2016    31      3       0.2453184       60.56852
2016    31      4       0.2580963       63.09142
2016    31      5       0.2138416       54.3235
2016    31      6       0.1738298       45.85533
2016    31      7       0.1548157       41.72719
2017    1       0       0.3239304       76.83743
2017    1       1       0.3014676       72.37376
2017    1       2       0.384539        87.44595
2017    1       3       0.451621        98.35142
2017    1       4       0.4890275       104.4748
2017    1       5       0.3862774       87.82223
2017    1       6       0.3283742       77.93889
2017    1       7       0.3304017       78.19304
2017    2       0       0.3469366       80.84468
2017    2       1       0.3728126       85.25035
2017    2       2       0.4543006       98.87355
2017    2       3       0.515779        108.7257
2017    2       4       0.3752161       86.40411
2017    2       5       0.3419221       80.3939
2017    2       6       0.3427029       80.44179
2017    2       7       0.3633261       83.90614
2017    3       0       0.4656652       101.6038
2017    3       1       0.5222204       110.5781
2017    3       2       0.5486373       114.2862
2017    3       3       0.5201523       110.4297
2017    3       4       0.5381604       113.3634
2017    3       5       0.5623693       117.1724
2017    3       6       0.4687009       102.6123
2017    3       7       0.5085541       109.0606
2017    4       0       0.4415391       98.72244
2017    4       1       0.4975736       106.8823
2017    4       2       0.5497241       114.6238
2017    4       3       0.5946733       121.3805
2017    4       4       0.588223        120.7614
2017    4       5       0.500162        107.9191
2017    4       6       0.4238904       94.90721
2017    4       7       0.3559138       83.20227
2017    5       0       0.3908611       89.12745
2017    5       1       0.423215        94.7434
2017    5       2       0.4518129       99.60043
2017    5       3       0.4504303       99.02511
2017    5       4       0.4511355       98.88837
2017    5       5       0.3935591       89.45379
2017    5       6       0.3666974       85.08953
2017    5       7       0.3775567       86.68323
2017    6       0       0.3431652       80.39645
2017    6       1       0.3884161       88.80107
2017    6       2       0.462916        101.4187
2017    6       3       0.4458101       98.71004
2017    6       4       0.5278399       111.9918
2017    6       5       0.5169761       110.2928
2017    6       6       0.467575        102.673
2017    6       7       0.5229647       111.1839
2017    7       0       0.4819859       104.4602
2017    7       1       0.434595        96.47486
2017    7       2       0.4659471       101.3823
2017    7       3       0.5194958       109.8467
2017    7       4       0.4828953       104.1639
2017    7       5       0.3722902       86.30969
2017    7       6       0.4156009       93.33757
2017    7       7       0.38902         89.02626
2017    8       0       0.4341483       96.46148
2017    8       1       0.4582318       101.051
2017    8       2       0.4754047       102.9053
2017    8       3       0.5528456       114.57
2017    8       4       0.5770595       118.7503
2017    8       5       0.6363916       127.4359
2017    8       6       0.4780392       103.2678
2017    8       7       0.4364991       96.62669
2017    9       0       0.3348008       79.03784
2017    9       1       0.4307035       96.15417
2017    9       2       0.4653445       101.1334
2017    9       3       0.5367463       112.3218
2017    9       4       0.4830791       103.5592
2017    9       5       0.326493        76.94797
2017    9       6       0.2371655       59.10526
2017    9       7       0.1656922       44.39084
2017    10      0       0.1390612       38.68153
2017    10      1       0.1540881       42.12388
2017    10      2       0.226874        57.63518
2017    10      3       0.3032162       72.70838
2017    10      4       0.358401        82.35442
2017    10      5       0.3434432       79.95413
2017    10      6       0.2718192       66.86068
2017    10      7       0.264497        65.50233
2017    11      0       0.1896842       50.2285
2017    11      1       0.2407919       60.97175
2017    11      2       0.3146682       75.36031
2017    11      3       0.3484289       81.20241
2017    11      4       0.3493739       81.31067
2017    11      5       0.198284        51.99665
2017    11      6       0.1509686       41.56221
2017    11      7       0.132293        37.32969
2017    12      0       0.1108711       32.39395
2017    12      1       0.1147646       33.29902
2017    12      2       0.1675848       45.29937
2017    12      3       0.1953542       51.24575
2017    12      4       0.2752262       67.27223
2017    12      5       0.2119491       54.60608
2017    12      6       0.222828        56.99177
2017    12      7       0.3288734       78.09965
2017    13      0       0.1200644       34.54207
2017    13      1       0.08831628      26.95649
2017    13      2       0.1269319       36.0215
2017    13      3       0.1232491       35.19419
2017    13      4       0.1226252       35.00613
2017    13      5       0.1080457       31.52756
2017    13      6       0.1199981       34.11229
2017    13      7       0.1291154       36.16726
2017    14      0       0.1351498       37.67772
2017    14      1       0.1340378       37.44654
2017    14      2       0.1621736       43.62429
2017    14      3       0.1863438       48.88498
2017    14      4       0.2274096       57.43653
2017    14      5       0.2274859       57.47069
2017    14      6       0.2187515       55.57551
2017    14      7       0.2390059       59.7427
2017    15      0       0.2239096       56.76338
2017    15      1       0.213657        54.81787
2017    15      2       0.2270558       57.62769
2017    15      3       0.2272858       57.77908
2017    15      4       0.2475547       61.93262
2017    15      5       0.2060448       53.46173
2017    15      6       0.1690437       45.52106
2017    15      7       0.1481442       40.8375
2017    16      0       0.1353055       38.01598
2017    16      1       0.1288388       36.70066
2017    16      2       0.132646        37.59751
2017    16      3       0.1241988       35.75585
2017    16      4       0.127958        36.71738
2017    16      5       0.1109258       32.81275
2017    16      6       0.08956767      27.67553
2017    16      7       0.06850434      22.34991
2017    17      0       0.0439807       16.08228
2017    17      1       0.05792549      19.74958
2017    17      2       0.08641594      26.77744
2017    17      3       0.09488253      28.90648
2017    17      4       0.1219551       35.48234
2017    17      5       0.1036583       31.22264
2017    17      6       0.1029479       30.91646
2017    17      7       0.1009652       30.31706
2017    18      0       0.08792343      27.08071
2017    18      1       0.1048436       31.15142
2017    18      2       0.1255179       36.00769
2017    18      3       0.1374017       38.86796
2017    18      4       0.1709847       46.50152
2017    18      5       0.1675085       45.71691
2017    18      6       0.1237559       35.68522
2017    18      7       0.08046168      25.16821
2017    19      0       0.07374273      23.38005
2017    19      1       0.0848819       26.14276
2017    19      2       0.1341295       37.70772
2017    19      3       0.1887414       50.02867
2017    19      4       0.2797563       68.52943
2017    19      5       0.2621197       64.8657
2017    19      6       0.2832551       68.68936
2017    19      7       0.4063806       91.47242
2017    20      0       0.4443205       97.63093
2017    20      1       0.3803327       87.02962
2017    20      2       0.4658795       101.9702
2017    20      3       0.4638962       101.0664
2017    20      4       0.5360601       111.9184
2017    20      5       0.3850773       87.9571
2017    20      6       0.3182491       76.24396
2017    20      7       0.2985719       72.52466
2017    21      0       0.2840077       69.64783
2017    21      1       0.2424145       61.43678
2017    21      2       0.1962953       51.70727
2017    21      3       0.1649267       44.9008
2017    21      4       0.1510442       41.74209
2017    21      5       0.1834116       48.77456
2017    21      6       0.2245207       57.38812
2017    21      7       0.4533489       100.1832
2017    22      0       0.2893431       70.48951
2017    22      1       0.176038        47.11396
2017    22      2       0.1639899       44.49021
2017    22      3       0.1566479       42.88497
2017    22      4       0.1556642       42.56165
2017    22      5       0.150077        41.23468
2017    22      6       0.1331602       37.26293
2017    22      7       0.1394991       38.5745
2017    23      0       0.1509792       41.17705
2017    23      1       0.1867844       49.10396
2017    23      2       0.2463982       61.49866
2017    23      3       0.2870391       69.526
2017    23      4       0.3481345       80.8107
2017    23      5       0.3071878       73.6501
2017    23      6       0.284356        69.30201
2017    23      7       0.2643402       65.34189
2017    24      0       0.2880584       69.84817
2017    24      1       0.2883691       69.74472
2017    24      2       0.384892        87.3899
2017    24      3       0.3717052       84.52953
2017    24      4       0.4100411       91.13352
2017    24      5       0.3165195       74.5849
2017    24      6       0.3209884       75.2563
2017    24      7       0.3369762       77.98893
2017    25      0       0.2716825       66.07159
2017    25      1       0.3212466       75.6082
2017    25      2       0.4355608       94.85873
2017    25      3       0.4521013       97.0883
2017    25      4       0.4810207       101.7128
2017    25      5       0.3074738       72.37358
2017    25      6       0.2825665       67.78022
2017    25      7       0.2705361       65.32933
2017    26      0       0.2029302       51.63988
2017    26      1       0.2177054       54.92727
2017    26      2       0.2153665       54.60105
2017    26      3       0.3029802       71.32046
2017    26      4       0.3062927       71.9717
2017    26      5       0.223805        56.17507
2017    26      6       0.2013613       51.74905
2017    26      7       0.2268605       57.15815
2017    27      0       0.2541138       62.65253
2017    27      1       0.2622019       64.20538
2017    27      2       0.2905769       69.78304
2017    27      3       0.2873109       68.84056
2017    27      4       0.2669046       64.91891
2017    27      5       0.1672811       44.89172
2017    27      6       0.1522892       41.56779
2017    27      7       0.1429807       39.41931
2017    28      0       0.139405        38.61149
2017    28      1       0.2034091       52.62194
2017    28      2       0.2972651       71.16614
2017    28      3       0.3714445       84.04129
2017    28      4       0.436804        94.75807
2017    28      5       0.3316517       77.65299
2017    28      6       0.3010569       72.01906
2017    28      7       0.3113759       73.97374
2017    29      0       0.2833207       68.62535
2017    29      1       0.3120442       73.92257
2017    29      2       0.3428312       79.35738
2017    29      3       0.3769446       85.36061
2017    29      4       0.3653596       83.65113
2017    29      5       0.3053445       72.07207
2017    29      6       0.2676431       64.67059
2017    29      7       0.2456062       60.5884
2017    30      0       0.2519098       62.01307
2017    30      1       0.2937215       69.86069
2017    30      2       0.3939509       87.91385
2017    30      3       0.4039535       89.57927
2017    30      4       0.4334453       94.79646
2017    30      5       0.3133949       74.14652
2017    30      6       0.2370614       59.34744
2017    30      7       0.2344239       58.66444
2017    31      0       0.2790942       67.22703
2017    31      1       0.3710042       83.98909
2017    31      2       0.3699644       84.19448
2017    31      3       0.4011492       88.83814
2017    31      4       0.4209951       92.5861
2017    31      5       0.37688         85.27913
2017    31      6       0.3742381       84.85282
2017    31      7       0.2919341       69.78462
2018    1       0       0.4126088       92.86007
2018    1       1       0.4421681       97.98873
2018    1       2       0.4129028       92.9504
2018    1       3       0.4495274       98.70623
2018    1       4       0.4559583       99.89909
2018    1       5       0.2993571       72.88412
2018    1       6       0.3282785       78.47875
2018    1       7       0.3649052       85.14866
2018    2       0       0.2944721       71.63534
2018    2       1       0.3347474       79.24849
2018    2       2       0.3707747       85.94606
2018    2       3       0.3897815       89.40964
2018    2       4       0.4140996       93.40232
2018    2       5       0.3436347       81.33454
2018    2       6       0.3331982       79.2756
2018    2       7       0.2647034       66.0114
2018    3       0       0.213769        55.60655
2018    3       1       0.2223836       57.44317
2018    3       2       0.2323863       59.58117
2018    3       3       0.2736572       67.94231
2018    3       4       0.2417878       61.7747
2018    3       5       0.2328938       59.7121
2018    3       6       0.2477761       62.80493
2018    3       7       0.2566056       64.5241
2018    4       0       0.276223        68.35162
2018    4       1       0.2878821       70.83195
2018    4       2       0.3649979       85.20292
2018    4       3       0.3756621       87.081
2018    4       4       0.3940443       90.31885
2018    4       5       0.4163716       94.11439
2018    4       6       0.3399376       80.65154
2018    4       7       0.3258144       77.94881
2018    5       0       0.3151334       75.81045
2018    5       1       0.4228143       94.2035
2018    5       2       0.4525824       99.00764
2018    5       3       0.4759617       102.8307
2018    5       4       0.527269        110.9848
2018    5       5       0.4740191       102.7899
2018    5       6       0.4976764       106.8953
2018    5       7       0.4721981       103.1553
2018    6       0       0.3642427       84.93545
2018    6       1       0.345709        81.55658
2018    6       2       0.4367651       97.62962
2018    6       3       0.4794427       105.0508
2018    6       4       0.4939926       107.2294
2018    6       5       0.5068899       109.068
2018    6       6       0.5876501       121.7368
2018    6       7       0.6705333       132.8534
2018    7       0       0.4800505       104.6438
2018    7       1       0.4923336       105.8219
2018    7       2       0.5893012       119.5644
2018    7       3       0.5392997       113.2012
2018    7       4       0.5695769       117.6691
2018    7       5       0.5506693       115.0559
2018    7       6       0.5340465       112.4018
2018    7       7       0.483318        104.4256
2018    8       0       0.4644736       101.6193
2018    8       1       0.4846729       105.1328
2018    8       2       0.5131897       109.2879
2018    8       3       0.5774211       118.4606
2018    8       4       0.6091384       123.5603
2018    8       5       0.6155194       125.8912
2018    8       6       0.6357199       128.0744
2018    8       7       0.5015262       107.3952
2018    9       0       0.4897327       105.7171
2018    9       1       0.5465347       114.6557
2018    9       2       0.4988192       107.4667
2018    9       3       0.4865538       105.6948
2018    9       4       0.5418205       113.9481
2018    9       5       0.5036266       108.5797
2018    9       6       0.5277845       112.3096
2018    9       7       0.5216835       111.2778
2018    10      0       0.4495305       99.86737
2018    10      1       0.3698688       85.90484
2018    10      2       0.3956501       90.54467
2018    10      3       0.4245572       95.43655
2018    10      4       0.4363291       97.33069
2018    10      5       0.4155847       93.92297
2018    10      6       0.4110155       93.3673
2018    10      7       0.4495382       99.48494
2018    11      0       0.4121227       92.85759
2018    11      1       0.3816681       87.40439
2018    11      2       0.4338994       96.55011
2018    11      3       0.4890384       105.1944
2018    11      4       0.562412        115.9926
2018    11      5       0.378984        87.72331
2018    11      6       0.4550932       99.86549
2018    11      7       0.3736891       86.09896
2018    12      0       0.3349362       78.75415
2018    12      1       0.4622603       100.0755
2018    12      2       0.4960759       105.6733
2018    12      3       0.466081        101.2518
2018    12      4       0.3916224       89.26729
2018    12      5       0.4182089       93.99364
2018    12      6       0.4894404       105.9215
2018    12      7       0.5055319       107.7106
2018    13      0       0.4893895       105.1519
2018    13      1       0.5097629       108.4545
2018    13      2       0.5757041       118.3052
2018    13      3       0.475634        103.5671
2018    13      4       0.6078177       123.923
2018    13      5       0.4415072       98.85854
2018    13      6       0.318107        76.69524
2018    13      7       0.2489053       63.00818
2018    14      0       0.2269172       58.40123
2018    14      1       0.2988137       72.57259
2018    14      2       0.2897589       71.06914
2018    14      3       0.2571622       64.81296
2018    14      4       0.238571        60.94339
2018    14      5       0.2234525       57.64733
2018    14      6       0.2103408       54.76143
2018    14      7       0.2442969       61.5628
2018    15      0       0.2509058       62.98188
2018    15      1       0.2875566       70.17359
2018    15      2       0.3197163       76.46941
2018    15      3       0.3628066       84.52193
2018    15      4       0.4280379       95.70949
2018    15      5       0.3803915       87.70594
2018    15      6       0.3584848       83.53454
2018    15      7       0.3464896       81.14993
2018    16      0       0.3811819       86.68913
2018    16      1       0.3990316       90.01736
2018    16      2       0.4316767       95.96714
2018    16      3       0.483602        104.4459
2018    16      4       0.5914847       120.5263
2018    16      5       0.5527343       115.9013
2018    16      6       0.5933128       121.3884
2018    16      7       0.5308449       112.268
2018    17      0       0.5469513       114.8022
2018    17      1       0.5353954       113.3079
2018    17      2       0.5313943       112.1082
2018    17      3       0.5201171       110.7405
2018    17      4       0.5729636       118.6871
2018    17      5       0.555805        116.0412
2018    17      6       0.5890402       121.0044
2018    17      7       0.5721583       118.1429
2018    18      0       0.4613731       100.6588
2018    18      1       0.3511562       82.29881
2018    18      2       0.396758        90.43181
2018    18      3       0.4033566       91.52351
2018    18      4       0.4697961       102.4509
2018    18      5       0.4085949       92.54151
2018    18      6       0.3658141       85.17268
2018    18      7       0.3278187       77.90674
2018    19      0       0.2737508       67.43755
2018    19      1       0.3372871       79.50331
2018    19      2       0.3529181       82.22282
2018    19      3       0.362215        83.68741
2018    19      4       0.3516017       81.86614
2018    19      5       0.2988516       72.4296
2018    19      6       0.3190975       76.16641
2018    19      7       0.3333916       78.52163
2018    20      0       0.3459576       80.95119
2018    20      1       0.4682945       101.8126
2018    20      2       0.5167041       109.5634
2018    20      3       0.4573656       100.3952
2018    20      4       0.449707        99.29786
2018    20      5       0.3920655       89.74472
2018    20      6       0.4001873       91.09643
2018    20      7       0.4860664       105.4053
2018    21      0       0.494413        106.5555
2018    21      1       0.3902802       89.5589
2018    21      2       0.4355793       97.07061
2018    21      3       0.4935889       106.4801
2018    21      4       0.5083733       108.3543
2018    21      5       0.3976086       90.3242
2018    21      6       0.3769914       86.79196
2018    21      7       0.3824174       87.86686
2018    22      0       0.3662404       84.74614
2018    22      1       0.3771773       87.10636
2018    22      2       0.5060119       108.2721
2018    22      3       0.4254355       95.04812
2018    22      4       0.3829646       88.40581
2018    22      5       0.3250518       77.73103
2018    22      6       0.3713795       85.65921
2018    22      7       0.3568428       83.1475
2018    23      0       0.3177886       76.06702
2018    23      1       0.4665545       101.1507
2018    23      2       0.488258        104.9365
2018    23      3       0.505548        108.3039
2018    23      4       0.4171986       94.00353
2018    23      5       0.3110861       75.10378
2018    23      6       0.2640199       65.8559
2018    23      7       0.3202875       76.23447
2018    24      0       0.4621916       100.5688
2018    24      1       0.4026893       91.58128
2018    24      2       0.3883608       89.02566
2018    24      3       0.3215919       76.75306
2018    24      4       0.2580201       64.53619
2018    24      5       0.2165109       56.11139
2018    24      6       0.1817105       48.69807
2018    24      7       0.1622388       44.28612
2018    25      0       0.1484631       41.12006
2018    25      1       0.1454513       40.4476
2018    25      2       0.176388        47.28923
2018    25      3       0.1929781       51.01103
2018    25      4       0.2081732       54.36504
2018    25      5       0.1583469       43.60495
2018    25      6       0.1617785       44.19469
2018    25      7       0.1917522       50.66776
2018    26      0       0.2305479       59.11863
2018    26      1       0.3129784       75.58871
2018    26      2       0.364895        84.66503
2018    26      3       0.3118132       74.78076
2018    26      4       0.2074225       53.97871
2018    26      5       0.1420761       39.81895
2018    26      6       0.1419306       39.67618
2018    26      7       0.2190753       56.49801
2018    27      0       0.1864453       49.53638
2018    27      1       0.257711        64.38385
2018    27      2       0.279305        68.61968
2018    27      3       0.281467        69.0232
2018    27      4       0.2621823       65.07406
2018    27      5       0.1276252       36.35625
2018    27      6       0.1104587       32.31386
2018    27      7       0.2166429       55.4382
2018    28      0       0.2127429       53.84943
2018    28      1       0.1939334       50.17719
2018    28      2       0.1704532       45.37629
2018    28      3       0.1549771       42.24909
2018    28      4       0.1522121       41.63732
2018    28      5       0.1281996       36.11139
2018    28      6       0.09109794      27.49204
2018    28      7       0.1353598       37.72583
2018    29      0       0.1742798       46.44964
2018    29      1       0.1883365       49.81458
2018    29      2       0.2464388       62.17955
2018    29      3       0.3928167       89.82094
2018    29      4       0.456182        99.97587
2018    29      5       0.280161        68.68959
2018    29      6       0.197371        51.65162
2018    29      7       0.1657192       44.53967
2018    30      0       0.1073687       31.26482
2018    30      1       0.09894389      29.46122
2018    30      2       0.1351567       37.94801
2018    30      3       0.1716069       46.23867
2018    30      4       0.2073654       54.12653
2018    30      5       0.1618839       44.42234
2018    30      6       0.1196769       34.68405
2018    30      7       0.1401854       39.27852
2018    31      0       0.1029497       30.72947
2018    31      1       0.05440843      18.63513
2018    31      2       0.0936249       28.28541
2018    31      3       0.1057043       31.189
2018    31      4       0.09160792      27.76554
2018    31      5       0.07625708      23.9974
2018    31      6       0.08845675      26.80907
2018    31      7       0.1186982       33.8238
