####################################################################################################
# Month: 01Jan                                                                                     #
# Station: ROB                                                                                     #
# Frequency: 230 GHz                                                                               #
# Columns are: year    day     tau     Tb (K)                                                      #
####################################################################################################
2009    1       0.1932487       52.64302125
2009    2       0.11429094      33.71500875
2009    3       0.25327936      66.1597525
2009    4       0.38199562      92.09063625
2009    5       0.23301734      61.77507625
2009    6       0.26230435      66.65287
2009    7       0.24810635      63.5870625
2009    8       0.18716948      50.76088875
2009    9       0.1932307       52.5370475
2009    10      0.15062763      42.65384375
2009    11      0.14769121      41.834595
2009    12      0.15228858      42.50520125
2009    13      0.25970688      66.384235
2009    14      0.32441231      79.72563125
2009    15      0.35057758      84.45758625
2009    16      0.28604516      72.5048975
2009    17      0.47847036      105.38609625
2009    18      0.28443965      70.528535
2009    19      0.42164794      97.76557375
2009    20      0.57449399      123.7755
2009    21      0.5146909       114.0594625
2009    22      0.58215339      123.9670125
2009    23      0.61959908      129.872575
2009    24      0.22453888      59.1778975
2009    25      0.16407622      45.5563475
2009    26      0.10054592      30.53163
2009    27      0.08335473      26.55265375
2009    28      0.0897255       28.048795
2009    29      0.09149095      28.59106875
2009    30      0.12914993      37.41028375
2009    31      0.21616536      57.88455625
2010    1       0.37084308      87.97604125
2010    2       0.31357031      78.1093625
2010    3       0.3206641       79.8878625
2010    4       0.15752985      44.8281775
2010    5       0.17517485      48.74757
2010    6       0.20100593      54.1935875
2010    7       0.17240394      47.9020075
2010    8       0.16284942      45.74374375
2010    9       0.14908564      42.61300375
2010    10      0.18526434      51.12691125
2010    11      0.1846187       50.29235875
2010    12      0.11311115      33.01209
2010    13      0.09908677      29.98237125
2010    14      0.22760736      59.4235525
2010    15      0.37107154      88.78734875
2010    16      0.37013995      89.1666175
2010    17      0.23071148      60.55633
2010    18      0.42870859      95.6083225
2010    19      0.3852564       90.7014625
2010    20      0.29330548      74.1518675
2010    21      0.21284285      58.1205475
2010    22      0.28446392      73.03166375
2010    23      0.28448978      72.95737125
2010    24      0.72958665      145.2464
2010    25      0.66739336      138.7097875
2010    26      0.59936735      128.052775
2010    27      0.45157964      105.3224375
2010    28      0.35072644      86.3390875
2010    29      0.16380319      46.12874875
2010    30      0.12207512      35.93263375
2010    31      0.14281293      40.90395125
2011    1       0.38535825      91.38809875
2011    2       0.64729075      130.28476
2011    3       0.24851636      64.30790375
2011    4       0.29253285      72.47775125
2011    5       0.11375949      33.68575875
2011    6       0.21952332      58.32548125
2011    7       0.20387834      54.88568
2011    8       0.19367758      52.38371125
2011    9       0.48760996      108.8983225
2011    10      0.2572071       66.69999375
2011    11      0.16144679      45.09681625
2011    12      0.20358096      54.61986
2011    13      0.28582568      72.22521375
2011    14      0.25667584      66.27249625
2011    15      0.15779174      44.27257875
2011    16      0.20987504      55.44572875
2011    17      0.13356044      38.108175
2011    18      0.12500667      36.2835375
2011    19      0.23845453      61.87518875
2011    20      0.3075414       77.16262375
2011    21      0.27215576      69.933685
2011    22      0.32999449      80.36383625
2011    23      0.58510245      124.45735
2011    24      0.62183816      131.73135
2011    25      0.53321228      117.9793875
2011    26      0.3641156       88.61040625
2011    27      0.17979274      49.8746575
2011    28      0.17167764      48.0570875
2011    29      0.48125472      107.01435125
2011    30      0.32531308      80.56481
2011    31      0.14488344      41.50588375
2012    1       0.5094681       115.11210625
2012    2       0.54939848      120.31984625
2012    3       0.16134885      45.69593625
2012    4       0.30826796      77.7518575
2012    5       0.6054242       127.22193125
2012    6       0.76463099      147.9698375
2012    7       0.46564315      104.00745125
2012    8       0.20535081      55.3805675
2012    9       0.2040541       54.58618875
2012    10      0.22231876      58.16289
2012    11      0.25390155      64.87478875
2012    12      0.35167674      84.99151875
2012    13      0.49222296      110.77448375
2012    14      0.7637217       149.4262
2012    15      0.38395961      91.7086
2012    16      0.23252256      61.17296875
2012    17      0.14451919      41.14740625
2012    18      0.14328074      41.2406575
2012    19      0.17531867      48.5512075
2012    20      0.24828986      63.91876875
2012    21      0.26295449      67.26718
2012    22      0.2120197       56.1612925
2012    23      0.21665384      56.9067375
2012    24      0.1092466       32.38080625
2012    25      0.18783549      51.63015625
2012    26      0.13869038      40.472165
2012    27      0.13243382      38.36434125
2012    28      0.1109858       33.51928375
2012    29      0.09073561      28.01202125
2012    30      0.14356562      40.66124
2012    31      0.15722208      43.9591575
2013    1       0.15946453      44.29257625
2013    2       0.26520055      68.45707875
2013    3       0.24868331      64.8363175
2013    4       0.2014589       53.931125
2013    5       0.19755194      52.5968375
2013    6       0.20477342      54.6713675
2013    7       0.25331909      65.2822425
2013    8       0.29319087      73.39053875
2013    9       0.21772942      58.54131
2013    10      0.60639651      125.860195
2013    11      0.47534711      107.5220575
2013    12      0.3528484       87.0874375
2013    13      0.55369025      120.34997375
2013    14      0.59829513      129.393825
2013    15      0.47689362      109.5362125
2013    16      0.27646255      71.2575175
2013    17      0.35714981      87.26757625
2013    18      0.30766754      76.73982875
2013    19      0.27740922      70.77868625
2013    20      0.48141689      108.81645375
2013    21      0.83021012      155.689075
2013    22      0.60229629      127.02435
2013    23      0.30541565      76.18106125
2013    24      0.27524074      70.28070875
2013    25      0.36509261      87.40091625
2013    26      0.31012898      76.7805225
2013    27      0.57063526      121.7741375
2013    28      0.5070084       111.21483625
2013    29      0.16562551      45.77709875
2013    30      0.26724391      68.39463375
2013    31      0.28731198      72.93823375
2014    1       0.4910416       109.8722575
2014    2       0.34734009      82.765965
2014    3       0.09513196      29.01230875
2014    4       0.16179451      45.61306375
2014    5       0.19429039      53.9940625
2014    6       0.15459736      44.31510375
2014    7       0.1353774       39.4448225
2014    8       0.11855632      34.89273875
2014    9       0.13086311      38.0453425
2014    10      0.10805501      32.37724625
2014    11      0.14299092      41.3782175
2014    12      0.26786279      69.9659625
2014    13      0.30637362      77.45440875
2014    14      0.40352855      96.40800875
2014    15      0.61290829      129.89246625
2014    16      0.72594178      146.699325
2014    17      0.89574194      166.1843375
2014    18      0.97235009      172.491025
2014    19      0.51169239      111.45183875
2014    20      0.24358013      64.0666875
2014    21      0.12775846      37.32433875
2014    22      0.15338155      42.26438875
2014    23      0.23599934      59.7478325
2014    24      0.1568226       44.1280675
2014    25      0.22399878      59.55301125
2014    26      0.3625848       87.23563
2014    27      0.40478544      92.84342875
2014    28      0.16019767      44.881525
2014    29      0.19022962      52.16374125
2014    30      0.17716116      49.39771125
2014    31      0.1723699       47.38262
2015    1       0.3050697       75.17433625
2015    2       0.24606472      63.2714475
2015    3       0.267854        68.49388
2015    4       0.2640828       68.803985
2015    5       0.15197889      43.4632875
2015    6       0.34738205      83.09956375
2015    7       0.45438711      102.53144375
2015    8       0.16074324      45.038865
2015    9       0.12238462      35.92492375
2015    10      0.17680882      49.3382775
2015    11      0.13038374      38.35382875
2015    12      0.16236225      45.95621625
2015    13      0.14544206      41.37335125
2015    14      0.15752757      44.22088375
2015    15      0.19260246      53.05775375
2015    16      0.16478834      46.4795325
2015    17      0.18523418      51.37013
2015    18      0.12894886      37.591425
2015    19      0.1656091       46.22842375
2015    20      0.28698671      72.46464625
2015    21      0.27039534      69.55453125
2015    22      0.1534754       43.58111
2015    23      0.12581104      36.8827875
2015    24      0.27900204      70.99843625
2015    25      0.26520971      68.9287675
2015    26      0.38993311      93.44735625
2015    27      0.32559231      80.34777625
2015    28      0.31750884      77.95331
2015    29      0.26132796      67.90714375
2015    30      0.21152868      57.22783
2015    31      0.18326154      50.768675
2016    1       0.21646099      57.01675375
2016    5       0.7677682       146.6665625
2016    6       0.63866312      129.7967625
2016    7       0.49932526      110.201225
2016    8       0.38083861      88.58570875
2016    9       0.26482484      66.93998375
2016    10      0.26412566      67.14939125
2016    11      0.29875319      75.20786375
2016    12      0.28952471      71.92934625
2016    13      0.26891982      67.84353125
2016    14      0.23716288      61.54409375
2016    15      0.17222488      47.7215875
2016    16      0.12646943      36.98223625
2016    17      0.12819274      37.21893625
2016    18      0.13337254      38.5652725
2016    19      0.16591215      47.16234625
2016    20      0.23092605      61.62847125
2016    21      0.44780819      104.80370875
2016    22      0.20139138      54.7901425
2016    23      0.61646719      126.90982875
2016    24      0.49713091      107.16557125
2016    25      0.3566313       81.3639725
2016    26      0.37139285      86.83658125
2016    27      0.46922279      103.894025
2016    28      0.47089109      104.286535
2016    29      0.38450966      89.26516375
2016    30      0.23150779      60.2717175
2016    31      0.34711925      83.9457225
2017    1       0.19340239      52.05083625
2017    2       0.1407723       39.89975
2017    3       0.18301472      49.86607625
2017    4       0.15528961      43.64123625
2017    5       0.16579623      46.1066525
2017    6       0.25859881      66.18232375
2017    7       0.23143749      60.298545
2017    8       0.27822528      70.2105625
2017    9       0.45656578      102.221325
2017    10      0.49209098      109.00256
2017    11      0.22996924      60.92910625
2017    12      0.1866982       51.7882225
2017    13      0.21209936      57.0122925
2017    14      0.27659805      70.164505
2017    15      0.15427064      43.89643
2017    16      0.17505038      47.54050625
2017    17      0.1340819       38.87734875
2017    18      0.14540188      42.171015
2017    19      0.18807168      51.17131375
2017    20      0.21820154      58.66779625
2017    21      0.35356282      86.14736125
2017    22      0.30659494      76.25830375
2017    23      0.2027876       55.13793875
2017    24      0.28871741      73.14142375
2017    25      0.29254437      74.35478125
2017    26      0.29720451      76.1470825
2017    27      0.36952505      91.36121875
2017    28      0.33111522      83.7970075
2017    29      0.44114074      103.47577875
2017    30      0.43844539      101.8630175
2017    31      0.3249844       80.08878625
2018    1       0.28895898      71.69670125
2018    2       0.24931078      62.89850375
2018    3       0.31812892      77.49260625
2018    4       0.30518096      75.316555
2018    5       0.40976829      94.943835
2018    6       0.22782097      59.9514625
2018    7       0.2595886       67.40357875
2018    8       0.78543057      151.63425
2018    9       0.61021029      129.7435375
2018    10      0.36366542      87.54067875
2018    11      0.27203559      69.915685
2018    12      0.31085526      77.2667225
2018    13      0.43521586      98.65326625
2018    14      0.35904161      85.5221225
2018    15      0.26690629      66.82824875
2018    16      0.22850114      58.96097125
2018    17      0.12414612      36.16814625
2018    18      0.17462868      48.01475625
2018    19      0.38991858      90.27521375
2018    20      0.55295665      118.2877125
2018    21      0.36467952      86.90423
2018    22      0.30224532      73.9522075
2018    23      0.22585448      59.3633375
2018    24      0.21051236      56.41887
2018    25      0.25283038      65.9359825
2018    26      0.14034707      40.46275125
2018    27      0.10871892      32.83422625
2018    28      0.10491795      32.19175125
2018    29      0.18122421      50.32041125
2018    30      0.13578782      39.4067225
2018    31      0.13984236      40.65810875
2019    1       0.07946082      25.1758375
