####################################################################################################
# Month: 01Jan                                                                                     #
# Station: ROB                                                                                     #
# Frequency: 230 GHz                                                                               #
# Columns are: year    day     segment         tau     Tb (K)                                      #
####################################################################################################
2009    1       0       0.2663107       69.18122
2009    1       1       0.1826052       50.76726
2009    1       2       0.1545097       44.06785
2009    1       3       0.1456147       41.7134
2009    1       4       0.1553815       43.97715
2009    1       5       0.1717773       47.69652
2009    1       6       0.2443817       63.86976
2009    1       7       0.2254088       59.87101
2009    2       0       0.1501557       42.82246
2009    2       1       0.09533884      29.50323
2009    2       2       0.06963476      22.86237
2009    2       3       0.06954408      22.79916
2009    2       4       0.0667829       22.09003
2009    2       5       0.09158904      28.35543
2009    2       6       0.1732397       47.7861
2009    2       7       0.1980425       53.50129
2009    3       0       0.2187628       58.00023
2009    3       1       0.2642968       67.98265
2009    3       2       0.254857        66.4802
2009    3       3       0.26803         69.50447
2009    3       4       0.2625376       68.49814
2009    3       5       0.2335751       62.29382
2009    3       6       0.2412916       63.91847
2009    3       7       0.282884        72.60004
2009    4       0       0.3762128       91.09793
2009    4       1       0.4624675       106.8971
2009    4       2       0.4726866       108.891
2009    4       3       0.4433209       103.6844
2009    4       4       0.3841059       93.01439
2009    4       5       0.3334155       83.37218
2009    4       6       0.2938303       75.36602
2009    4       7       0.2899255       74.40207
2009    5       0       0.2550272       66.90792
2009    5       1       0.2405635       63.79402
2009    5       2       0.2384791       63.294
2009    5       3       0.2113562       57.11271
2009    5       4       0.1879647       51.66672
2009    5       5       0.2203482       58.8958
2009    5       6       0.2481006       64.88305
2009    5       7       0.2622992       67.64639
2009    6       0       0.2421663       63.40561
2009    6       1       0.2234644       59.35428
2009    6       2       0.2012807       54.07266
2009    6       3       0.225067        59.00311
2009    6       4       0.2268336       59.24747
2009    6       5       0.2687416       67.85163
2009    6       6       0.348563        83.91267
2009    6       7       0.3623182       86.37553
2009    7       0       0.2703601       68.10729
2009    7       1       0.2273978       58.89703
2009    7       2       0.2302898       59.41799
2009    7       3       0.2386101       61.20049
2009    7       4       0.2346269       60.679
2009    7       5       0.2377461       61.71634
2009    7       6       0.2672148       68.14032
2009    7       7       0.2786052       70.53804
2009    8       0       0.246219        63.91482
2009    8       1       0.2001694       53.98278
2009    8       2       0.1455389       41.40108
2009    8       3       0.1270833       36.845
2009    8       4       0.1365725       39.16093
2009    8       5       0.1733874       47.85617
2009    8       6       0.234547        61.53558
2009    8       7       0.2338383       61.39075
2009    9       0       0.2052594       55.09127
2009    9       1       0.1780433       48.96716
2009    9       2       0.1786542       49.10314
2009    9       3       0.1855658       50.75619
2009    9       4       0.1820331       50.18087
2009    9       5       0.1991876       54.07805
2009    9       6       0.2185124       58.26451
2009    9       7       0.1985898       53.85519
2009    10      0       0.1749086       48.52392
2009    10      1       0.1808744       49.88688
2009    10      2       0.1650584       46.31054
2009    10      3       0.1384237       39.97022
2009    10      4       0.09811114      29.91707
2009    10      5       0.1108072       33.04458
2009    10      6       0.1478908       42.01576
2009    10      7       0.1889468       51.56178
2009    11      0       0.1957569       53.23261
2009    11      1       0.1755806       48.81095
2009    11      2       0.1360582       39.51566
2009    11      3       0.09048917      28.16321
2009    11      4       0.07969591      25.31408
2009    11      5       0.1225438       35.93258
2009    11      6       0.1821769       49.92157
2009    11      7       0.1992282       53.7861
2009    12      0       0.1767567       48.78457
2009    12      1       0.1348889       39.08356
2009    12      2       0.1127297       33.73748
2009    12      3       0.08617662      27.13921
2009    12      4       0.0947767       29.15125
2009    12      5       0.1194805       35.09946
2009    12      6       0.1974454       53.13807
2009    12      7       0.2960541       73.90801
2009    13      0       0.3122549       77.03502
2009    13      1       0.2947126       73.57198
2009    13      2       0.2456997       63.37171
2009    13      3       0.2452731       63.23485
2009    13      4       0.2220967       58.71367
2009    13      5       0.2000892       54.01146
2009    13      6       0.2638214       67.56308
2009    13      7       0.2937074       73.57211
2009    14      0       0.2956102       73.93219
2009    14      1       0.2695917       68.7738
2009    14      2       0.280408        71.37372
2009    14      3       0.3051457       76.42521
2009    14      4       0.3226449       79.85101
2009    14      5       0.3403649       83.00757
2009    14      6       0.3792826       90.17947
2009    14      7       0.4022505       94.26208
2009    15      0       0.3417367       82.65121
2009    15      1       0.3031697       75.16159
2009    15      2       0.306401        75.86067
2009    15      3       0.3330811       80.84885
2009    15      4       0.3510111       84.36514
2009    15      5       0.3775361       89.36241
2009    15      6       0.3925671       92.7652
2009    15      7       0.3991178       94.64562
2009    16      0       0.3584766       87.34577
2009    16      1       0.2781803       71.43346
2009    16      2       0.2595685       67.14467
2009    16      3       0.2359253       61.67065
2009    16      4       0.2582934       65.8782
2009    16      5       0.2873493       72.55759
2009    16      6       0.2992254       75.74689
2009    16      7       0.3113425       78.26195
2009    17      0       0.3011804       75.64947
2009    17      1       0.3060479       76.31899
2009    17      2       0.3871657       91.34931
2009    17      3       0.5044939       111.1602
2009    17      4       0.6010095       125.4265
2009    17      5       0.6249022       128.4964
2009    17      6       0.5987782       124.6406
2009    17      7       0.5041851       110.0473
2009    18      0       0.4302992       97.44561
2009    18      1       0.2555208       65.73289
2009    18      2       0.1931279       52.59947
2009    18      3       0.202416        54.36494
2009    18      4       0.2467075       63.52599
2009    18      5       0.2647649       66.77452
2009    18      6       0.3216718       78.1661
2009    18      7       0.3610091       85.61876
2009    19      0       0.3949892       91.72863
2009    19      1       0.4060678       94.1832
2009    19      2       0.4229536       97.53497
2009    19      3       0.4319881       99.75371
2009    19      4       0.4158224       97.12963
2009    19      5       0.4680377       106.8566
2009    19      6       0.4038543       95.29999
2009    19      7       0.4294704       99.63786
2009    20      0       0.4793135       108.5498
2009    20      1       0.5106347       114.1463
2009    20      2       0.5288962       117.0653
2009    20      3       0.545923        119.594
2009    20      4       0.603037        128.0569
2009    20      5       0.6336835       132.6899
2009    20      6       0.5768856       124.6202
2009    20      7       0.7175784       145.4816
2009    21      0       0.4499825       103.8085
2009    21      1       0.3911144       93.3661
2009    21      2       0.4421397       102.4809
2009    21      3       0.498278        111.942
2009    21      4       0.5378712       118.2706
2009    21      5       0.5808169       124.8733
2009    21      6       0.6092813       129.0966
2009    21      7       0.6080432       128.6377
2009    22      0       0.5242475       115.8229
2009    22      1       0.5135005       114.0015
2009    22      2       0.531289        117.0489
2009    22      3       0.56544         122.3408
2009    22      4       0.546454        119.3971
2009    22      5       0.5973264       126.3752
2009    22      6       0.7365529       144.469
2009    22      7       0.6424168       132.2807
2009    23      0       0.5328315       116.383
2009    23      1       0.5769708       123.4817
2009    23      2       0.6619343       135.9677
2009    23      3       0.7252679       144.8324
2009    23      4       0.628843        131.6522
2009    23      5       0.5843955       125.1401
2009    23      6       0.696275        141.3299
2009    23      7       0.5502746       120.1936
2009    24      0       0.2459187       64.22003
2009    24      1       0.1765384       48.77506
2009    24      2       0.1806347       49.57307
2009    24      3       0.2118896       56.3906
2009    24      4       0.2320792       60.83878
2009    24      5       0.2386439       62.4316
2009    24      6       0.2538985       65.36075
2009    24      7       0.256708        65.83329
2009    25      0       0.2143208       56.89652
2009    25      1       0.1872739       50.79355
2009    25      2       0.1827441       49.86316
2009    25      3       0.1463308       41.5051
2009    25      4       0.1243643       36.18805
2009    25      5       0.124128        36.14439
2009    25      6       0.1553931       43.83512
2009    25      7       0.1780548       49.22489
2009    26      0       0.1448838       41.46948
2009    26      1       0.1069194       32.12912
2009    26      2       0.09166578      28.2691
2009    26      3       0.08363711      26.22699
2009    26      4       0.08199614      25.78787
2009    26      5       0.08485915      26.50628
2009    26      6       0.09577328      29.50816
2009    26      7       0.1146327       34.35604
2009    27      0       0.1003001       30.74754
2009    27      1       0.08268868      26.33543
2009    27      2       0.08120891      26.05454
2009    27      3       0.07405939      24.18839
2009    27      4       0.07398702      24.21821
2009    27      5       0.08268115      26.44526
2009    27      6       0.08530094      27.00971
2009    27      7       0.08661164      27.42215
2009    28      0       0.07998173      25.56074
2009    28      1       0.08698962      27.25677
2009    28      2       0.0845315       26.58015
2009    28      3       0.08530076      26.81871
2009    28      4       0.07962673      25.39574
2009    28      5       0.08772187      27.67227
2009    28      6       0.0954715       29.69884
2009    28      7       0.1181803       35.40714
2009    29      0       0.1010479       31.02608
2009    29      1       0.08057904      25.82378
2009    29      2       0.0682612       22.56287
2009    29      3       0.07832502      25.24723
2009    29      4       0.07648082      24.74691
2009    29      5       0.09261781      28.91312
2009    29      6       0.107884        32.85828
2009    29      7       0.1267318       37.55028
2009    30      0       0.1108957       33.62944
2009    30      1       0.09415176      29.45408
2009    30      2       0.07065927      23.20944
2009    30      3       0.0666026       22.16758
2009    30      4       0.07848252      25.26977
2009    30      5       0.1159381       34.81869
2009    30      6       0.2222759       59.79152
2009    30      7       0.2741936       70.94175
2009    31      0       0.2034283       55.49142
2009    31      1       0.1563664       44.51451
2009    31      2       0.1747565       48.75474
2009    31      3       0.209768        56.74682
2009    31      4       0.1950783       53.5391
2009    31      5       0.222369        59.41054
2009    31      6       0.2925408       74.13304
2009    31      7       0.2750156       70.48628
2010    1       0       0.4593528       103.5174
2010    1       1       0.4431533       100.7896
2010    1       2       0.4151874       95.96016
2010    1       3       0.362098        86.29615
2010    1       4       0.3308191       80.58603
2010    1       5       0.3174256       78.24977
2010    1       6       0.3163271       78.53623
2010    1       7       0.3223813       79.87299
2010    2       0       0.2881179       72.97522
2010    2       1       0.2546468       66.0841
2010    2       2       0.2414379       63.45498
2010    2       3       0.2723458       70.23357
2010    2       4       0.2800727       72.04776
2010    2       5       0.3586186       87.52876
2010    2       6       0.4290829       100.2145
2010    2       7       0.3842399       92.33601
2010    3       0       0.3653922       89.03596
2010    3       1       0.3788502       91.59102
2010    3       2       0.3517643       86.40563
2010    3       3       0.3577112       87.36019
2010    3       4       0.3219339       80.19486
2010    3       5       0.2348054       62.08547
2010    3       6       0.283964        72.49284
2010    3       7       0.2708916       69.93693
2010    4       0       0.2133572       57.79897
2010    4       1       0.1431217       41.59577
2010    4       2       0.1302699       38.45416
2010    4       3       0.1277345       37.74375
2010    4       4       0.1245197       36.95352
2010    4       5       0.1225847       36.50444
2010    4       6       0.1951225       53.75251
2010    4       7       0.2035286       55.8223
2010    5       0       0.1728987       48.82343
2010    5       1       0.1494468       43.20465
2010    5       2       0.1399855       40.82444
2010    5       3       0.1544395       44.13774
2010    5       4       0.1562123       44.33547
2010    5       5       0.1556904       44.04571
2010    5       6       0.2281363       60.5124
2010    5       7       0.2445893       64.09672
2010    6       0       0.2005706       54.48873
2010    6       1       0.1556377       44.15124
2010    6       2       0.1701313       47.50445
2010    6       3       0.1727585       47.89741
2010    6       4       0.1751918       48.32066
2010    6       5       0.2026055       54.54502
2010    6       6       0.2663361       68.4612
2010    6       7       0.2648159       68.17999
2010    7       0       0.1995714       54.13157
2010    7       1       0.1545406       43.86123
2010    7       2       0.1444605       41.43664
2010    7       3       0.143885        41.31931
2010    7       4       0.1513275       43.1496
2010    7       5       0.1663583       46.61165
2010    7       6       0.196003        53.36128
2010    7       7       0.2230852       59.34478
2010    8       0       0.2141531       57.38062
2010    8       1       0.1798984       49.58537
2010    8       2       0.1458548       41.85332
2010    8       3       0.1612206       45.45023
2010    8       4       0.1476494       42.22495
2010    8       5       0.1052525       31.95838
2010    8       6       0.1566131       44.61292
2010    8       7       0.1921535       52.88416
2010    9       0       0.1825232       50.5784
2010    9       1       0.1413053       40.93305
2010    9       2       0.1287619       37.9834
2010    9       3       0.1187533       35.46927
2010    9       4       0.1058476       32.15271
2010    9       5       0.1281273       37.64303
2010    9       6       0.1911158       52.4715
2010    9       7       0.1962507       53.67267
2010    10      0       0.1522488       43.60723
2010    10      1       0.1274961       37.72359
2010    10      2       0.1600455       45.5354
2010    10      3       0.1989058       54.46178
2010    10      4       0.2221408       59.37851
2010    10      5       0.2057625       55.69028
2010    10      6       0.2070428       56.16475
2010    10      7       0.2084724       56.45375
2010    11      0       0.2054774       55.74198
2010    11      1       0.1855515       51.09847
2010    11      2       0.1672679       46.61609
2010    11      3       0.1445336       41.09799
2010    11      4       0.1398785       39.95267
2010    11      5       0.1680223       46.47243
2010    11      6       0.2138766       56.67287
2010    11      7       0.2523418       64.68637
2010    12      0       0.2451851       62.83616
2010    12      1       0.1143658       33.70334
2010    12      2       0.0921745       28.45001
2010    12      3       0.06333347      21.08277
2010    12      4       0.05892569      19.89712
2010    12      5       0.06846543      22.32572
2010    12      6       0.1192513       35.02236
2010    12      7       0.1431879       40.77924
2010    13      0       0.1224523       35.83147
2010    13      1       0.08874814      27.4456
2010    13      2       0.07774707      24.64367
2010    13      3       0.08186933      25.56653
2010    13      4       0.08403134      26.18891
2010    13      5       0.08759252      27.19871
2010    13      6       0.1156509       34.21813
2010    13      7       0.1346026       38.76595
2010    14      0       0.1412607       40.30677
2010    14      1       0.1582257       44.29506
2010    14      2       0.1937514       52.3787
2010    14      3       0.2175406       57.63921
2010    14      4       0.2448363       63.55288
2010    14      5       0.2725374       69.29718
2010    14      6       0.2895501       72.72795
2010    14      7       0.3031567       75.19067
2010    15      0       0.354428        85.04759
2010    15      1       0.3890177       91.76903
2010    15      2       0.3811281       90.58796
2010    15      3       0.3690413       88.45243
2010    15      4       0.3564899       86.20251
2010    15      5       0.3532865       85.75071
2010    15      6       0.3693673       88.8106
2010    15      7       0.3958135       93.67796
2010    16      0       0.4200633       98.20669
2010    16      1       0.4101513       96.71108
2010    16      2       0.3890166       92.85922
2010    16      3       0.3768022       90.39747
2010    16      4       0.3472842       84.71902
2010    16      5       0.3287135       81.2735
2010    16      6       0.3401368       83.69068
2010    16      7       0.3489517       85.47528
2010    17      0       0.2935618       74.36698
2010    17      1       0.2175389       58.06849
2010    17      2       0.1963748       53.30239
2010    17      3       0.2152029       57.31287
2010    17      4       0.2124363       56.66696
2010    17      5       0.1948731       52.69277
2010    17      6       0.2364012       61.70328
2010    17      7       0.2793028       70.3369
2010    18      0       0.2409943       62.36423
2010    18      1       0.2347474       61.07363
2010    18      2       0.2711405       68.73725
2010    18      3       0.3889271       91.13318
2010    18      4       0.4402652       99.74929
2010    18      5       0.5915545       122.2873
2010    18      6       0.6188837       127.558
2010    18      7       0.643156        131.9637
2010    19      0       0.5614346       120.3453
2010    19      1       0.4239841       98.2292
2010    19      2       0.3559423       85.73045
2010    19      3       0.3011198       75.13372
2010    19      4       0.3253545       79.72615
2010    19      5       0.3437283       83.44449
2010    19      6       0.3728306       89.2255
2010    19      7       0.397657        93.77689
2010    20      0       0.4138537       96.57774
2010    20      1       0.3598743       87.06236
2010    20      2       0.3002282       75.60367
2010    20      3       0.2710399       69.83048
2010    20      4       0.2651226       68.83823
2010    20      5       0.2434185       64.51481
2010    20      6       0.2453228       65.09611
2010    20      7       0.2475838       65.69154
2010    21      0       0.2462328       65.4732
2010    21      1       0.2533658       67.1623
2010    21      2       0.2483715       66.21983
2010    21      3       0.2106544       57.79496
2010    21      4       0.1951053       54.19679
2010    21      5       0.1649729       47.15432
2010    21      6       0.1663419       47.533
2010    21      7       0.2176982       59.42998
2010    22      0       0.2499497       66.35201
2010    22      1       0.306305        77.9143
2010    22      2       0.3296893       82.56581
2010    22      3       0.3391494       84.25504
2010    22      4       0.310575        78.48773
2010    22      5       0.2827137       72.69032
2010    22      6       0.2286698       60.93214
2010    22      7       0.2286595       61.05596
2010    23      0       0.2491443       65.66283
2010    23      1       0.3101375       78.59189
2010    23      2       0.3324184       82.87925
2010    23      3       0.3175887       79.75888
2010    23      4       0.2689515       69.76335
2010    23      5       0.2452224       64.76597
2010    23      6       0.2599602       67.91312
2010    23      7       0.2924952       74.32368
2010    24      0       0.5267569       115.8571
2010    24      1       0.8462973       160.1057
2010    24      2       0.9287005       169.367
2010    24      3       0.881974        164.2916
2010    24      4       0.7362626       147.1499
2010    24      5       0.6334698       133.8067
2010    24      6       0.6294193       133.7766
2010    24      7       0.6538128       137.6166
2010    25      0       0.6077903       130.9567
2010    25      1       0.6248497       133.1918
2010    25      2       0.6602375       138.0207
2010    25      3       0.6390223       134.858
2010    25      4       0.6252526       132.8941
2010    25      5       0.6519849       136.7397
2010    25      6       0.7440489       148.9287
2010    25      7       0.7859607       154.0886
2010    26      0       0.7188377       145.3484
2010    26      1       0.647222        135.4161
2010    26      2       0.6438247       135.1284
2010    26      3       0.6416041       134.7667
2010    26      4       0.6288588       132.828
2010    26      5       0.573384        124.8221
2010    26      6       0.479041        109.463
2010    26      7       0.4621665       106.6495
2010    27      0       0.460357        106.7806
2010    27      1       0.5160017       116.3417
2010    27      2       0.4722107       108.9158
2010    27      3       0.4413982       103.4043
2010    27      4       0.4247557       100.6451
2010    27      5       0.4241584       100.8437
2010    27      6       0.4498862       105.2933
2010    27      7       0.4238692       100.355
2010    28      0       0.3845749       93.23795
2010    28      1       0.4014559       96.37749
2010    28      2       0.4427388       103.7146
2010    28      3       0.4220734       100.0381
2010    28      4       0.3308801       82.7642
2010    28      5       0.2757741       71.75708
2010    28      6       0.2707176       70.72523
2010    28      7       0.2775967       72.09805
2010    29      0       0.2358037       63.08568
2010    29      1       0.2010601       55.25898
2010    29      2       0.1645247       46.6479
2010    29      3       0.1074843       32.68143
2010    29      4       0.08232246      26.11465
2010    29      5       0.1188427       35.47172
2010    29      6       0.1968082       54.09819
2010    29      7       0.2035794       55.67144
2010    30      0       0.1621947       45.81445
2010    30      1       0.1235142       36.18903
2010    30      2       0.1064657       32.05504
2010    30      3       0.08503353      26.48087
2010    30      4       0.08387063      26.43796
2010    30      5       0.1091057       32.98337
2010    30      6       0.1485541       42.63216
2010    30      7       0.1578624       44.86819
2010    31      0       0.09949932      30.59866
2010    31      1       0.07738004      24.8683
2010    31      2       0.09219539      28.73088
2010    31      3       0.115556        34.70223
2010    31      4       0.1691117       47.57166
2010    31      5       0.1920655       52.72877
2010    31      6       0.1921241       52.62163
2010    31      7       0.2045714       55.40948
2011    1       0       0.2759868       70.75024
2011    1       1       0.2737456       70.46842
2011    1       2       0.3018191       76.44401
2011    1       3       0.3436655       84.84562
2011    1       4       0.38956         93.4136
2011    1       5       0.4725458       107.8708
2011    1       6       0.5048044       112.7429
2011    1       7       0.5207388       114.5692
2011    2       0       0.5743468       122.1481
2011    2       1       0.7601408       147.28
2011    2       2       0.9109991       165.4775
2011    2       3       0.9945874       174.4599
2011    2       4       0.5752656       123.0107
2011    2       5       0.5087249       112.5231
2011    2       6       0.4605877       104.535
2011    2       7       0.3936737       92.84378
2011    3       0       0.2992895       74.86426
2011    3       1       0.2285126       60.20575
2011    3       2       0.2212876       58.6433
2011    3       3       0.2262895       59.68984
2011    3       4       0.2042803       54.87043
2011    3       5       0.2260931       59.65217
2011    3       6       0.2922926       73.46908
2011    3       7       0.2900857       73.0684
2011    4       0       0.2756155       69.99242
2011    4       1       0.2655317       67.58592
2011    4       2       0.2326287       60.44502
2011    4       3       0.230032        59.79416
2011    4       4       0.2825698       70.59491
2011    4       5       0.3952894       92.07638
2011    4       6       0.3843032       90.14589
2011    4       7       0.2742925       69.18731
2011    5       0       0.1856631       50.49385
2011    5       1       0.09267875      28.57507
2011    5       2       0.07599121      24.24363
2011    5       3       0.09160197      28.19266
2011    5       4       0.09882157      30.13579
2011    5       5       0.09318895      28.85809
2011    5       6       0.1148537       34.34802
2011    5       7       0.1572767       44.63896
2011    6       0       0.1610652       45.52926
2011    6       1       0.1620672       45.75479
2011    6       2       0.1634049       46.13089
2011    6       3       0.1905234       52.35162
2011    6       4       0.2229905       59.43609
2011    6       5       0.2448256       64.11354
2011    6       6       0.3056685       76.64696
2011    6       7       0.3056413       76.6407
2011    7       0       0.2634783       67.94801
2011    7       1       0.2080613       55.98216
2011    7       2       0.1885512       51.67089
2011    7       3       0.2001042       54.15796
2011    7       4       0.1625403       45.52249
2011    7       5       0.1481815       42.17289
2011    7       6       0.2208953       58.79
2011    7       7       0.2392146       62.84104
2011    8       0       0.1985171       53.79023
2011    8       1       0.1457516       41.57356
2011    8       2       0.1417745       40.57795
2011    8       3       0.1509062       42.7257
2011    8       4       0.1728474       47.93719
2011    8       5       0.1691968       47.25214
2011    8       6       0.2595188       67.27937
2011    8       7       0.3109082       77.93355
2011    9       0       0.2883237       73.48403
2011    9       1       0.3697542       89.47295
2011    9       2       0.4946056       111.5689
2011    9       3       0.643917        133.705
2011    9       4       0.677191        138.3371
2011    9       5       0.5127007       114.5771
2011    9       6       0.4857578       109.9116
2011    9       7       0.4286297       100.1299
2011    10      0       0.3536965       86.5112
2011    10      1       0.3250775       81.0639
2011    10      2       0.2846098       72.80991
2011    10      3       0.2187759       58.65538
2011    10      4       0.1955378       53.45816
2011    10      5       0.1849279       51.07701
2011    10      6       0.2393447       63.26007
2011    10      7       0.2556867       66.76432
2011    11      0       0.1925161       52.88612
2011    11      1       0.1521293       43.42825
2011    11      2       0.1165199       34.72155
2011    11      3       0.09622119      29.5219
2011    11      4       0.1099162       32.86908
2011    11      5       0.1413363       40.43182
2011    11      6       0.2289203       60.64803
2011    11      7       0.254015        66.26778
2011    12      0       0.2162255       57.95569
2011    12      1       0.1776629       49.07709
2011    12      2       0.1624124       45.40532
2011    12      3       0.1605017       44.51681
2011    12      4       0.172752        47.45311
2011    12      5       0.1934211       52.47085
2011    12      6       0.2542968       66.09382
2011    12      7       0.2913753       73.98619
2011    13      0       0.2773076       71.16005
2011    13      1       0.2575426       67.07292
2011    13      2       0.2360059       62.35946
2011    13      3       0.229003        60.57624
2011    13      4       0.2422136       63.08772
2011    13      5       0.2724342       69.54447
2011    13      6       0.3680718       88.66721
2011    13      7       0.4040267       95.33364
2011    14      0       0.3530988       85.55956
2011    14      1       0.2993973       74.59558
2011    14      2       0.2696875       68.91929
2011    14      3       0.2350343       61.89682
2011    14      4       0.2233872       59.42757
2011    14      5       0.192562        52.82269
2011    14      6       0.2265888       60.50497
2011    14      7       0.2536508       66.45349
2011    15      0       0.1966987       53.65903
2011    15      1       0.1275735       37.3209
2011    15      2       0.1229169       36.15567
2011    15      3       0.133366        38.53265
2011    15      4       0.1465962       41.52246
2011    15      5       0.1551096       43.38256
2011    15      6       0.2195152       58.42648
2011    15      7       0.1605578       45.18088
2011    16      0       0.1502111       42.58501
2011    16      1       0.1972654       52.69034
2011    16      2       0.2368067       60.9742
2011    16      3       0.2567986       65.49677
2011    16      4       0.268851        68.18824
2011    16      5       0.1473212       41.63002
2011    16      6       0.1824845       49.66757
2011    16      7       0.2392618       62.33368
2011    17      0       0.2364324       61.28895
2011    17      1       0.1468704       40.87296
2011    17      2       0.1116773       32.83862
2011    17      3       0.08551104      26.28652
2011    17      4       0.09938998      30.11737
2011    17      5       0.09588656      29.44656
2011    17      6       0.1403893       40.54142
2011    17      7       0.1523265       43.473
2011    18      0       0.1344955       39.20359
2011    18      1       0.09510721      29.34381
2011    18      2       0.07375687      23.67578
2011    18      3       0.08675738      26.88701
2011    18      4       0.1020031       30.7873
2011    18      5       0.1168837       34.425
2011    18      6       0.1908426       51.96398
2011    18      7       0.200207        53.98183
2011    19      0       0.1626189       45.45304
2011    19      1       0.1432189       40.81383
2011    19      2       0.1692111       46.88519
2011    19      3       0.2436416       63.31983
2011    19      4       0.2868931       72.27956
2011    19      5       0.2907008       73.24081
2011    19      6       0.2833773       71.93517
2011    19      7       0.3279745       81.07408
2011    20      0       0.3261813       80.83625
2011    20      1       0.3012839       76.01871
2011    20      2       0.3168722       79.1955
2011    20      3       0.3246171       80.60603
2011    20      4       0.3108052       77.76456
2011    20      5       0.2857151       72.68974
2011    20      6       0.3029866       76.21099
2011    20      7       0.2918698       73.97921
2011    21      0       0.2790546       71.43698
2011    21      1       0.2901087       73.88911
2011    21      2       0.2825158       72.242
2011    21      3       0.2684512       69.05541
2011    21      4       0.2557328       66.34764
2011    21      5       0.2537822       65.98853
2011    21      6       0.2758119       70.63905
2011    21      7       0.2717889       69.87076
2011    22      0       0.2222811       59.33143
2011    22      1       0.2184042       58.49878
2011    22      2       0.2500693       65.46586
2011    22      3       0.2864868       73.03571
2011    22      4       0.3102563       77.90519
2011    22      5       0.3449716       84.63452
2011    22      6       0.4457823       102.8258
2011    22      7       0.5617043       121.2134
2011    23      0       0.6674347       136.8716
2011    23      1       0.6626979       136.7794
2011    23      2       0.6000793       127.9682
2011    23      3       0.5074127       113.5111
2011    23      4       0.4440787       102.8724
2011    23      5       0.4441296       102.8292
2011    23      6       0.5840424       125.1029
2011    23      7       0.7709443       149.724
2011    24      0       0.7112326       142.8354
2011    24      1       0.5805496       125.7676
2011    24      2       0.5542745       122.1909
2011    24      3       0.6302523       133.8004
2011    24      4       0.639874        134.723
2011    24      5       0.621385        131.8733
2011    24      6       0.6149973       130.8895
2011    24      7       0.62214         131.7707
2011    25      0       0.5565671       121.8226
2011    25      1       0.4641773       106.7621
2011    25      2       0.5100109       114.4139
2011    25      3       0.5878582       126.5775
2011    25      4       0.5688442       123.5338
2011    25      5       0.5496216       120.5302
2011    25      6       0.5374455       118.7473
2011    25      7       0.4911734       111.4477
2011    26      0       0.3987728       95.47846
2011    26      1       0.3319424       82.79176
2011    26      2       0.3329068       82.79693
2011    26      3       0.3503467       85.93341
2011    26      4       0.3997178       95.19221
2011    26      5       0.416338        98.28331
2011    26      6       0.3758604       90.85872
2011    26      7       0.3070399       77.54845
2011    27      0       0.2317234       61.83191
2011    27      1       0.1688056       47.66789
2011    27      2       0.154846        44.26744
2011    27      3       0.1618806       45.81067
2011    27      4       0.1526565       43.52079
2011    27      5       0.1561611       44.31293
2011    27      6       0.1963664       53.58834
2011    27      7       0.2159023       57.99729
2011    28      0       0.1846443       51.05167
2011    28      1       0.1443582       41.77701
2011    28      2       0.1214761       36.2957
2011    28      3       0.1449277       41.92421
2011    28      4       0.1725115       48.30155
2011    28      5       0.1979534       54.15257
2011    28      6       0.2083972       56.512
2011    28      7       0.1991527       54.44199
2011    29      0       0.2371538       62.82619
2011    29      1       0.3036528       76.86674
2011    29      2       0.3829019       92.17178
2011    29      3       0.4578055       105.3402
2011    29      4       0.563761        122.1789
2011    29      5       0.6883319       139.9678
2011    29      6       0.673335        137.7802
2011    29      7       0.5430959       118.983
2011    30      0       0.4203361       98.71545
2011    30      1       0.3578452       87.36589
2011    30      2       0.3579379       87.2027
2011    30      3       0.3405848       83.62449
2011    30      4       0.2934235       74.28759
2011    30      5       0.2716467       69.88498
2011    30      6       0.2897559       73.65508
2011    30      7       0.2709745       69.7823
2011    31      0       0.216577        58.24542
2011    31      1       0.1404619       40.82157
2011    31      2       0.1095066       33.21361
2011    31      3       0.09919805      30.45282
2011    31      4       0.1239898       36.30195
2011    31      5       0.13675         39.4575
2011    31      6       0.1778882       49.38975
2011    31      7       0.154696        44.16445
2012    1       0       0.3926047       94.84125
2012    1       1       0.4820235       111.022
2012    1       2       0.5605685       123.8386
2012    1       3       0.5640536       124.2757
2012    1       4       0.4746977       109.7168
2012    1       5       0.4497829       105.4009
2012    1       6       0.5124934       116.033
2012    1       7       0.6395205       135.7686
2012    2       0       0.6943336       143.0745
2012    2       1       0.630923        134.2639
2012    2       2       0.6409212       135.2711
2012    2       3       0.6506781       135.9726
2012    2       4       0.556742        122.2494
2012    2       5       0.4754059       109.4644
2012    2       6       0.4213164       100.2463
2012    2       7       0.3248676       82.01657
2012    3       0       0.2522819       66.84028
2012    3       1       0.2048335       56.45168
2012    3       2       0.1602173       45.765
2012    3       3       0.139214        40.46415
2012    3       4       0.1096794       33.05859
2012    3       5       0.1279212       37.69405
2012    3       6       0.1411124       40.94106
2012    3       7       0.1555311       44.35268
2012    4       0       0.1759322       49.06393
2012    4       1       0.2861923       73.46163
2012    4       2       0.3540445       87.13999
2012    4       3       0.3619859       88.66893
2012    4       4       0.3218568       80.89586
2012    4       5       0.3200413       80.51513
2012    4       6       0.3271289       81.93867
2012    4       7       0.3189618       80.33072
2012    5       0       0.3356158       83.55865
2012    5       1       0.4260293       100.2504
2012    5       2       0.5784643       125.0167
2012    5       3       0.6952892       141.3266
2012    5       4       0.7284879       145.4416
2012    5       5       0.6686237       137.5669
2012    5       6       0.6590172       136.4044
2012    5       7       0.7518662       148.2102
2012    6       0       0.9161914       166.5901
2012    6       1       1.017304        176.2795
2012    6       2       0.7723482       149.7984
2012    6       3       0.741963        145.9341
2012    6       4       0.6733257       136.9104
2012    6       5       0.6161768       128.966
2012    6       6       0.6662407       136.239
2012    6       7       0.7134981       143.0412
2012    7       0       0.6915754       140.5
2012    7       1       0.6596375       136.3737
2012    7       2       0.6024287       128.3229
2012    7       3       0.5326734       117.6067
2012    7       4       0.4009939       95.04546
2012    7       5       0.3279286       81.34951
2012    7       6       0.2574065       66.92284
2012    7       7       0.2525012       65.9385
2012    8       0       0.2330365       61.83521
2012    8       1       0.1954495       53.53466
2012    8       2       0.2076194       56.07798
2012    8       3       0.2262842       59.89741
2012    8       4       0.1766909       48.63583
2012    8       5       0.1798352       49.34383
2012    8       6       0.2059522       55.45947
2012    8       7       0.2179386       58.26015
2012    9       0       0.1845296       50.78053
2012    9       1       0.1694404       47.19275
2012    9       2       0.1742874       48.05115
2012    9       3       0.1896193       51.43261
2012    9       4       0.1807993       49.26031
2012    9       5       0.2030112       54.20517
2012    9       6       0.2643921       67.63747
2012    9       7       0.2663535       68.12952
2012    10      0       0.2325742       60.92141
2012    10      1       0.2172          57.42359
2012    10      2       0.1597474       44.44124
2012    10      3       0.1891577       51.10584
2012    10      4       0.1770768       48.3479
2012    10      5       0.1841822       50.02818
2012    10      6       0.2805393       70.83661
2012    10      7       0.3380725       82.19835
2012    11      0       0.3138105       77.27557
2012    11      1       0.2628289       66.74114
2012    11      2       0.2074679       54.90891
2012    11      3       0.2135417       56.22753
2012    11      4       0.2152037       56.59767
2012    11      5       0.2459518       63.32814
2012    11      6       0.2988052       74.48205
2012    11      7       0.2736027       69.4373
2012    12      0       0.286071        71.96157
2012    12      1       0.3909204       92.15934
2012    12      2       0.4514315       102.028
2012    12      3       0.3524639       84.96705
2012    12      4       0.3124183       77.90029
2012    12      5       0.3262888       80.9128
2012    12      6       0.338594        83.4885
2012    12      7       0.355226        86.5146
2012    13      0       0.3987389       94.72547
2012    13      1       0.5059122       113.3483
2012    13      2       0.4920322       111.331
2012    13      3       0.4850683       109.9315
2012    13      4       0.4850554       109.5608
2012    13      5       0.5028658       112.4596
2012    13      6       0.5084124       113.5081
2012    13      7       0.5596985       121.3311
2012    14      0       0.6039049       128.4814
2012    14      1       0.6691427       138.0577
2012    14      2       0.7313892       146.4019
2012    14      3       0.7855181       153.2249
2012    14      4       0.773559        151.2906
2012    14      5       0.8378719       158.2
2012    14      6       0.9057921       165.4585
2012    14      7       0.8025957       154.2946
2012    15      0       0.5779004       124.338
2012    15      1       0.411242        97.28223
2012    15      2       0.3479866       85.83328
2012    15      3       0.3397659       84.27161
2012    15      4       0.3301302       82.14843
2012    15      5       0.3469328       85.27522
2012    15      6       0.3729827       89.97519
2012    15      7       0.3447363       84.54484
2012    16      0       0.3313245       82.07926
2012    16      1       0.2833814       72.42485
2012    16      2       0.2176191       58.28865
2012    16      3       0.2195415       58.59499
2012    16      4       0.1966519       53.438
2012    16      5       0.2014035       54.31334
2012    16      6       0.1955572       52.98461
2012    16      7       0.2147014       57.26005
2012    17      0       0.1846468       50.52797
2012    17      1       0.1638889       45.75324
2012    17      2       0.133579        38.60289
2012    17      3       0.1151422       34.0952
2012    17      4       0.1099984       32.87152
2012    17      5       0.110616        33.043
2012    17      6       0.1520285       43.10015
2012    17      7       0.1862537       51.18528
2012    18      0       0.1509817       43.04837
2012    18      1       0.1143157       34.2706
2012    18      2       0.1171676       35.00177
2012    18      3       0.1346316       39.20717
2012    18      4       0.1458296       41.95496
2012    18      5       0.1285241       37.86483
2012    18      6       0.1463202       42.1222
2012    18      7       0.2084754       56.45536
2012    19      0       0.1982413       54.16181
2012    19      1       0.193621        53.11718
2012    19      2       0.1825823       50.48383
2012    19      3       0.1658039       46.38585
2012    19      4       0.152529        43.15546
2012    19      5       0.1659369       45.98366
2012    19      6       0.1773862       48.61763
2012    19      7       0.1664488       46.50424
2012    20      0       0.1423859       40.91766
2012    20      1       0.1628342       45.90838
2012    20      2       0.1506012       43.12454
2012    20      3       0.194379        53.23781
2012    20      4       0.258036        67.06198
2012    20      5       0.3031257       76.45945
2012    20      6       0.3706776       89.29498
2012    20      7       0.4042793       95.34535
2012    21      0       0.2965378       74.67803
2012    21      1       0.2722527       69.55509
2012    21      2       0.2882227       72.713
2012    21      3       0.271616        69.31423
2012    21      4       0.2101983       55.93337
2012    21      5       0.1964476       52.78274
2012    21      6       0.2773132       70.16838
2012    21      7       0.2910476       72.9926
2012    22      0       0.2571495       65.96058
2012    22      1       0.2322538       60.76495
2012    22      2       0.2140201       56.97467
2012    22      3       0.164406        45.69057
2012    22      4       0.1653207       45.80334
2012    22      5       0.1719424       47.17949
2012    22      6       0.2337409       60.91764
2012    22      7       0.2573242       65.9991
2012    23      0       0.2417513       62.54221
2012    23      1       0.2318242       60.34506
2012    23      2       0.2587903       66.06265
2012    23      3       0.228582        59.56906
2012    23      4       0.1613047       44.65743
2012    23      5       0.1634321       45.10994
2012    23      6       0.2328103       60.43059
2012    23      7       0.2147358       56.53696
2012    24      0       0.1669046       45.92522
2012    24      1       0.117611        34.46859
2012    24      2       0.08078367      25.45269
2012    24      3       0.07573469      24.14501
2012    24      4       0.07373459      23.62419
2012    24      5       0.08204709      25.79632
2012    24      6       0.1177978       34.816
2012    24      7       0.1593594       44.81843
2012    25      0       0.1448172       41.39026
2012    25      1       0.1420566       40.69123
2012    25      2       0.200543        54.47294
2012    25      3       0.2247048       59.93621
2012    25      4       0.2157058       58.12456
2012    25      5       0.1844519       51.19109
2012    25      6       0.1906894       52.60295
2012    25      7       0.1997152       54.63201
2012    26      0       0.1611787       45.8223
2012    26      1       0.1560074       44.68745
2012    26      2       0.1448473       42.07783
2012    26      3       0.1375284       40.26228
2012    26      4       0.1340962       39.35197
2012    26      5       0.1110851       33.68774
2012    26      6       0.1176055       35.27816
2012    26      7       0.1471744       42.60959
2012    27      0       0.1254227       36.7474
2012    27      1       0.1455976       41.44391
2012    27      2       0.1697941       46.82556
2012    27      3       0.1352511       38.99713
2012    27      4       0.09442496      28.91824
2012    27      5       0.1079401       32.51592
2012    27      6       0.1168868       34.93308
2012    27      7       0.1641532       46.53349
2012    28      0       0.1378767       40.32074
2012    28      1       0.1006989       31.03965
2012    28      2       0.08469066      26.96437
2012    28      3       0.08241744      26.3375
2012    28      4       0.09490309      29.47052
2012    28      5       0.1097632       33.24712
2012    28      6       0.1343914       39.34094
2012    28      7       0.143145        41.43343
2012    29      0       0.1037218       31.80844
2012    29      1       0.05751053      19.85818
2012    29      2       0.05267861      18.4512
2012    29      3       0.05978067      20.14514
2012    29      4       0.07400241      23.75556
2012    29      5       0.09189744      28.28088
2012    29      6       0.1336524       38.61036
2012    29      7       0.152641        43.18641
2012    30      0       0.105153        31.71281
2012    30      1       0.09256084      28.54606
2012    30      2       0.1073557       32.28083
2012    30      3       0.1414627       40.36793
2012    30      4       0.1486338       41.98197
2012    30      5       0.1695506       46.74288
2012    30      6       0.1969154       52.93483
2012    30      7       0.1868929       50.72261
2012    31      0       0.1671252       46.04371
2012    31      1       0.1682803       46.30377
2012    31      2       0.1560399       43.52787
2012    31      3       0.1364345       39.10354
2012    31      4       0.1244521       36.39235
2012    31      5       0.1289295       37.62042
2012    31      6       0.1603335       45.1294
2012    31      7       0.2161816       57.5522
2013    1       0       0.1286153       36.77674
2013    1       1       0.08915533      27.30625
2013    1       2       0.1008479       30.42813
2013    1       3       0.1242552       36.32552
2013    1       4       0.1438753       41.20744
2013    1       5       0.1649435       46.35197
2013    1       6       0.2438425       64.12202
2013    1       7       0.2801812       71.82254
2013    2       0       0.2576267       67.24689
2013    2       1       0.3503788       86.13617
2013    2       2       0.3270859       81.74082
2013    2       3       0.3170954       79.76644
2013    2       4       0.2320969       61.81175
2013    2       5       0.1614493       45.57403
2013    2       6       0.2115849       56.98675
2013    2       7       0.2642865       68.39378
2013    3       0       0.2610933       67.6773
2013    3       1       0.2234951       59.65505
2013    3       2       0.2133025       57.4165
2013    3       3       0.2535106       66.02613
2013    3       4       0.2315339       61.17432
2013    3       5       0.2337961       61.65284
2013    3       6       0.2549911       66.20305
2013    3       7       0.3177439       78.88535
2013    4       0       0.2569841       66.50679
2013    4       1       0.2648437       68.18655
2013    4       2       0.2467637       64.35081
2013    4       3       0.1645873       46.02317
2013    4       4       0.1439084       41.06607
2013    4       5       0.1476931       41.6025
2013    4       6       0.170565        46.9496
2013    4       7       0.2163259       56.76351
2013    5       0       0.1794952       48.88455
2013    5       1       0.1689332       46.31414
2013    5       2       0.1810334       49.02659
2013    5       3       0.1747982       46.99707
2013    5       4       0.1866414       50.12403
2013    5       5       0.1966412       52.38443
2013    5       6       0.2310559       60.11119
2013    5       7       0.261817        66.9327
2013    6       0       0.2163206       57.39288
2013    6       1       0.1735129       47.86343
2013    6       2       0.1796301       49.3497
2013    6       3       0.1634411       45.49633
2013    6       4       0.165098        45.82112
2013    6       5       0.1860872       50.72443
2013    6       6       0.246831        64.10023
2013    6       7       0.3072665       76.62282
2013    7       0       0.280919        71.16676
2013    7       1       0.2173326       57.8898
2013    7       2       0.2084717       55.98672
2013    7       3       0.1869916       51.00548
2013    7       4       0.2179273       57.98884
2013    7       5       0.2476437       64.55642
2013    7       6       0.3060308       76.58252
2013    7       7       0.361236        87.0814
2013    8       0       0.3398541       82.86853
2013    8       1       0.2596113       66.56383
2013    8       2       0.2638645       67.15161
2013    8       3       0.2748252       69.17486
2013    8       4       0.2635539       67.20557
2013    8       5       0.2711853       69.04381
2013    8       6       0.3357496       82.30524
2013    8       7       0.3368831       82.81086
2013    9       0       0.2992978       75.42414
2013    9       1       0.243246        64.0578
2013    9       2       0.2180651       58.88356
2013    9       3       0.1998282       54.69757
2013    9       4       0.1749584       49.05284
2013    9       5       0.1846105       51.26629
2013    9       6       0.2047958       56.00482
2013    9       7       0.2170336       58.94346
2013    10      0       0.2312153       62.02656
2013    10      1       0.3182071       80.5895
2013    10      2       0.4325459       102.4492
2013    10      3       0.5666562       124.9279
2013    10      4       0.7197794       146.8257
2013    10      5       0.882757        166.2498
2013    10      6       0.9097023       169.173
2013    10      7       0.7903089       154.6399
2013    11      0       0.6525107       136.2357
2013    11      1       0.524712        116.779
2013    11      2       0.53952         118.7903
2013    11      3       0.5401656       118.8321
2013    11      4       0.4626694       106.1098
2013    11      5       0.3892549       93.03754
2013    11      6       0.3552151       86.76824
2013    11      7       0.3387292       83.62378
2013    12      0       0.280846        72.09485
2013    12      1       0.2910366       74.51103
2013    12      2       0.3649481       89.52431
2013    12      3       0.4018265       96.59866
2013    12      4       0.3941973       95.42405
2013    12      5       0.37789         92.53922
2013    12      6       0.3644487       89.77769
2013    12      7       0.347594        86.22969
2013    13      0       0.3007894       76.88342
2013    13      1       0.3704935       90.31837
2013    13      2       0.5563291       122.503
2013    13      3       0.7116646       144.5029
2013    13      4       0.63336         133.1529
2013    13      5       0.6155838       130.8602
2013    13      6       0.6452333       135.8297
2013    13      7       0.5960683       128.7493
2013    14      0       0.5211779       117.1589
2013    14      1       0.5256149       118.1578
2013    14      2       0.6152378       132.2479
2013    14      3       0.642459        136.3108
2013    14      4       0.6144341       132.3051
2013    14      5       0.6499458       137.2664
2013    14      6       0.666637        139.5162
2013    14      7       0.5508545       122.1875
2013    15      0       0.4570673       106.7654
2013    15      1       0.4407148       103.8607
2013    15      2       0.504147        114.4713
2013    15      3       0.514071        115.7919
2013    15      4       0.4994188       113.2035
2013    15      5       0.518959        116.1987
2013    15      6       0.4584387       105.7576
2013    15      7       0.4223324       100.2406
2013    16      0       0.3426615       84.69232
2013    16      1       0.2664349       69.3567
2013    16      2       0.2757399       71.28486
2013    16      3       0.2677151       69.60973
2013    16      4       0.2397027       63.49912
2013    16      5       0.2316464       61.6346
2013    16      6       0.282403        72.54671
2013    16      7       0.3053969       77.4361
2013    17      0       0.2800167       72.34785
2013    17      1       0.263484        69.01125
2013    17      2       0.3007432       76.82813
2013    17      3       0.340024        84.63876
2013    17      4       0.3659552       89.47661
2013    17      5       0.4465393       104.0058
2013    17      6       0.4616825       106.6306
2013    17      7       0.3987536       95.20161
2013    18      0       0.3552229       86.85462
2013    18      1       0.3880329       93.02996
2013    18      2       0.4195242       98.79979
2013    18      3       0.3815506       91.83265
2013    18      4       0.2825368       72.15241
2013    18      5       0.2169206       58.17552
2013    18      6       0.2151325       57.92412
2013    18      7       0.2024198       55.14956
2013    19      0       0.1777137       49.69779
2013    19      1       0.1810125       50.40322
2013    19      2       0.2524129       66.08727
2013    19      3       0.3059729       77.01765
2013    19      4       0.3374309       83.37821
2013    19      5       0.3386888       83.5622
2013    19      6       0.3239119       80.39715
2013    19      7       0.3021302       75.686
2013    20      0       0.3259796       80.69465
2013    20      1       0.3963118       94.54708
2013    20      2       0.4822012       109.4288
2013    20      3       0.5272952       116.6507
2013    20      4       0.4942757       111.3584
2013    20      5       0.4975447       112.1018
2013    20      6       0.5450405       119.9876
2013    20      7       0.5826864       125.7626
2013    21      0       0.5933164       127.3379
2013    21      1       0.6162869       130.7127
2013    21      2       0.695297        141.4312
2013    21      3       0.8437486       159.0571
2013    21      4       0.9564834       170.4996
2013    21      5       0.9499142       169.4671
2013    21      6       1.018455        176.0455
2013    21      7       0.9681795       170.9615
2013    22      0       0.7748521       150.2202
2013    22      1       0.6847016       139.0645
2013    22      2       0.6833211       139.384
2013    22      3       0.6098589       129.0094
2013    22      4       0.5376146       117.994
2013    22      5       0.5082504       113.3323
2013    22      6       0.5140222       114.299
2013    22      7       0.5057494       112.8914
2013    23      0       0.4225906       98.66541
2013    23      1       0.362938        87.65927
2013    23      2       0.3401415       83.3211
2013    23      3       0.288456        73.0265
2013    23      4       0.2600298       67.10048
2013    23      5       0.2337868       61.59405
2013    23      6       0.2532099       65.98501
2013    23      7       0.2821726       72.09667
2013    24      0       0.2359841       62.28876
2013    24      1       0.2481275       64.93971
2013    24      2       0.2619459       67.67642
2013    24      3       0.2867773       72.62598
2013    24      4       0.2801127       71.22393
2013    24      5       0.2624493       67.60907
2013    24      6       0.3101565       77.39111
2013    24      7       0.3163726       78.49069
2013    25      0       0.350659        85.13071
2013    25      1       0.3548188       85.89727
2013    25      2       0.3566341       86.06346
2013    25      3       0.3394483       82.48015
2013    25      4       0.3481751       83.86223
2013    25      5       0.3370899       81.71501
2013    25      6       0.4252881       98.39723
2013    25      7       0.4086276       95.66127
2013    26      0       0.2892736       72.7968
2013    26      1       0.2570874       66.32525
2013    26      2       0.2614987       67.50464
2013    26      3       0.2515125       65.36827
2013    26      4       0.2623834       67.42957
2013    26      5       0.3093893       76.91818
2013    26      6       0.3987489       94.19417
2013    26      7       0.451138        103.7073
2013    27      0       0.4444863       102.5936
2013    27      1       0.4670134       106.5599
2013    27      2       0.4865004       109.9377
2013    27      3       0.5258252       116.2085
2013    27      4       0.5529321       119.9675
2013    27      5       0.6084291       127.6812
2013    27      6       0.7560227       147.6475
2013    27      7       0.7238729       143.5972
2013    28      0       0.651903        133.847
2013    28      1       0.5928076       125.708
2013    28      2       0.5889823       125.0575
2013    28      3       0.5836613       123.9177
2013    28      4       0.4833759       107.9162
2013    28      5       0.3612729       86.4478
2013    28      6       0.4108248       95.7443
2013    28      7       0.3832394       91.08019
2013    29      0       0.2630953       67.72548
2013    29      1       0.1830271       50.14605
2013    29      2       0.1619284       44.97231
2013    29      3       0.1315884       37.60278
2013    29      4       0.114577        33.65761
2013    29      5       0.1188294       34.77817
2013    29      6       0.1699946       47.12106
2013    29      7       0.1819639       50.21333
2013    30      0       0.1341269       39.20536
2013    30      1       0.1442072       41.5532
2013    30      2       0.2318959       61.58866
2013    30      3       0.3545369       86.77528
2013    30      4       0.3707727       90.09262
2013    30      5       0.3592773       87.90705
2013    30      6       0.2824329       72.35699
2013    30      7       0.2607015       67.67791
2013    31      0       0.2479243       65.11262
2013    31      1       0.2319682       61.61432
2013    31      2       0.2486862       65.28093
2013    31      3       0.3050383       76.83438
2013    31      4       0.3115312       78.07454
2013    31      5       0.2928123       74.21579
2013    31      6       0.333494        82.0171
2013    31      7       0.3270413       80.35619
2014    1       0       0.3976012       93.82754
2014    1       1       0.6179346       131.1431
2014    1       2       0.4263166       99.06012
2014    1       3       0.463756        105.6165
2014    1       4       0.4992896       111.4081
2014    1       5       0.5052827       112.3671
2014    1       6       0.5047133       112.1272
2014    1       7       0.5134388       113.4284
2014    2       0       0.5058942       112.1132
2014    2       1       0.4764861       107.0891
2014    2       2       0.4690908       105.7757
2014    2       3       0.4103491       95.72549
2014    2       4       0.2677606       68.81479
2014    2       5       0.2415174       63.25969
2014    2       6       0.2139291       57.09384
2014    2       7       0.1936934       52.25591
2014    3       0       0.1570187       43.70235
2014    3       1       0.1073624       31.986
2014    3       2       0.08420796      26.29853
2014    3       3       0.07009535      22.83128
2014    3       4       0.06049513      20.43761
2014    3       5       0.06318924      21.2032
2014    3       6       0.09674181      29.69856
2014    3       7       0.1219451       35.94094
2014    4       0       0.1264563       37.12305
2014    4       1       0.1325061       38.63772
2014    4       2       0.149078        42.51386
2014    4       3       0.1588732       44.77911
2014    4       4       0.1694635       47.25094
2014    4       5       0.176539        49.09934
2014    4       6       0.183999        51.09042
2014    4       7       0.197441        54.41007
2014    5       0       0.1915223       53.16981
2014    5       1       0.1999425       55.40577
2014    5       2       0.201702        55.83982
2014    5       3       0.2186505       59.5133
2014    5       4       0.2059763       56.61556
2014    5       5       0.1890287       52.81029
2014    5       6       0.1708961       48.64986
2014    5       7       0.1766047       49.94809
2014    6       0       0.1485135       43.24538
2014    6       1       0.148004        43.12396
2014    6       2       0.1414253       41.48681
2014    6       3       0.1144537       34.68534
2014    6       4       0.1121111       34.0621
2014    6       5       0.1219522       36.52225
2014    6       6       0.2042036       56.07088
2014    6       7       0.2461155       65.32411
2014    7       0       0.2120487       57.69492
2014    7       1       0.1677005       47.48559
2014    7       2       0.1296826       38.30817
2014    7       3       0.1019066       31.25385
2014    7       4       0.09380573      29.2076
2014    7       5       0.1014981       31.24209
2014    7       6       0.1382832       40.31475
2014    7       7       0.1380938       40.05161
2014    8       0       0.1152934       34.29818
2014    8       1       0.09040317      28.0549
2014    8       2       0.09036257      27.92068
2014    8       3       0.08852364      27.41813
2014    8       4       0.08479814      26.62456
2014    8       5       0.09694611      29.90229
2014    8       6       0.1411295       40.95712
2014    8       7       0.240994        63.96605
2014    9       0       0.1986971       54.46448
2014    9       1       0.1055629       32.05526
2014    9       2       0.09941386      30.39643
2014    9       3       0.1100442       32.91863
2014    9       4       0.1229371       36.01398
2014    9       5       0.1281117       37.2977
2014    9       6       0.1441283       41.32146
2014    9       7       0.1380097       39.8948
2014    10      0       0.1019369       31.15285
2014    10      1       0.0660425       22.07138
2014    10      2       0.07799582      25.20605
2014    10      3       0.06498755      21.74843
2014    10      4       0.08249299      26.17412
2014    10      5       0.1074442       32.29443
2014    10      6       0.1810457       49.89755
2014    10      7       0.1824944       50.47316
2014    11      0       0.1511148       43.21826
2014    11      1       0.1291868       37.98502
2014    11      2       0.1532361       44.03456
2014    11      3       0.1191462       35.77695
2014    11      4       0.1109157       33.70988
2014    11      5       0.1194          35.80618
2014    11      6       0.1539932       44.19577
2014    11      7       0.2069346       56.29912
2014    12      0       0.2683018       69.73366
2014    12      1       0.2776656       72.03801
2014    12      2       0.2906098       74.86616
2014    12      3       0.295245        75.81369
2014    12      4       0.2675878       70.08406
2014    12      5       0.249665        66.21899
2014    12      6       0.2388492       63.85847
2014    12      7       0.2549781       67.11466
2014    13      0       0.2606288       68.08793
2014    13      1       0.2804081       72.34655
2014    13      2       0.2976278       75.88473
2014    13      3       0.3394856       83.97984
2014    13      4       0.3399129       83.98363
2014    13      5       0.3157557       79.28779
2014    13      6       0.3110613       78.50156
2014    13      7       0.3061088       77.56324
2014    14      0       0.303854        77.25521
2014    14      1       0.406282        97.30839
2014    14      2       0.4852416       111.4127
2014    14      3       0.5015123       114.1624
2014    14      4       0.4512407       105.3561
2014    14      5       0.3756822       91.72335
2014    14      6       0.3650992       89.58012
2014    14      7       0.3393164       84.4658
2014    15      0       0.3884648       94.02443
2014    15      1       0.6057161       130.6641
2014    15      2       0.7974669       156.1969
2014    15      3       0.7680415       151.9436
2014    15      4       0.6160969       131.3025
2014    15      5       0.5084814       114.8215
2014    15      6       0.5342272       119.0844
2014    15      7       0.6847715       141.1023
2014    16      0       0.7919445       155.1914
2014    16      1       0.7921307       155.5558
2014    16      2       0.7571197       151.241
2014    16      3       0.6984276       143.3364
2014    16      4       0.6816688       140.6738
2014    16      5       0.6965254       142.5976
2014    16      6       0.7005085       143.2451
2014    16      7       0.689209        141.7535
2014    17      0       0.7269792       147.1773
2014    17      1       0.7595292       151.6331
2014    17      2       0.7937277       156.0024
2014    17      3       0.8963066       167.2477
2014    17      4       0.9666387       174.0117
2014    17      5       0.9542971       172.6478
2014    17      6       1.014767        178.5796
2014    17      7       1.05369         182.1751
2014    18      0       0.961655        173.0217
2014    18      1       0.8831659       164.8216
2014    18      2       0.8472647       160.3922
2014    18      3       0.8123011       155.9901
2014    18      4       0.847153        160.0335
2014    18      5       1.046007        180.1053
2014    18      6       1.160801        190.3751
2014    18      7       1.220453        195.1887
2014    19      0       0.9744414       173.364
2014    19      1       0.7064509       142.7405
2014    19      2       0.4900603       111.149
2014    19      3       0.3670109       89.79128
2014    19      4       0.3609562       88.58621
2014    19      5       0.3910091       94.09896
2014    19      6       0.3941774       94.65193
2014    19      7       0.4094329       97.23283
2014    20      0       0.3484784       85.93451
2014    20      1       0.3002151       76.75762
2014    20      2       0.2389749       63.617
2014    20      3       0.2192497       59.08603
2014    20      4       0.170798        47.96132
2014    20      5       0.1799724       50.02498
2014    20      6       0.2642569       68.63707
2014    20      7       0.2266956       60.51497
2014    21      0       0.1784425       49.59908
2014    21      1       0.1105898       33.22013
2014    21      2       0.107747        32.36543
2014    21      3       0.1032594       31.2583
2014    21      4       0.09231139      28.67414
2014    21      5       0.1071398       32.44203
2014    21      6       0.1646501       46.26461
2014    21      7       0.1579277       44.77099
2014    22      0       0.118469        35.15035
2014    22      1       0.1037242       31.35653
2014    22      2       0.1059585       31.82272
2014    22      3       0.1102467       32.71991
2014    22      4       0.1304223       37.44058
2014    22      5       0.1640645       44.67261
2014    22      6       0.2469231       62.74676
2014    22      7       0.2472441       62.20565
2014    23      0       0.2101612       53.44881
2014    23      1       0.2482784       60.89819
2014    23      2       0.2603327       63.76984
2014    23      3       0.2452251       61.17208
2014    23      4       0.2035092       52.93297
2014    23      5       0.230843        59.05608
2014    23      6       0.2471604       63.65329
2014    23      7       0.2424847       63.0514
2014    24      0       0.1526851       43.11158
2014    24      1       0.1255216       36.82366
2014    24      2       0.1123657       33.8092
2014    24      3       0.111797        33.58613
2014    24      4       0.1365188       39.49122
2014    24      5       0.1705001       47.48732
2014    24      6       0.2219893       59.17879
2014    24      7       0.2232032       59.53664
2014    25      0       0.2164321       58.089
2014    25      1       0.2531507       66.06584
2014    25      2       0.2295332       60.96175
2014    25      3       0.1984553       53.97466
2014    25      4       0.2044298       55.1862
2014    25      5       0.1768819       48.99968
2014    25      6       0.2416732       63.39426
2014    25      7       0.271434        69.7527
2014    26      0       0.2660879       68.75214
2014    26      1       0.2934869       74.48079
2014    26      2       0.3363159       82.83387
2014    26      3       0.3605178       87.24894
2014    26      4       0.3684939       88.67037
2014    26      5       0.3631546       87.72644
2014    26      6       0.4293919       99.44249
2014    26      7       0.4832295       108.73
2014    27      0       0.5337314       117.1169
2014    27      1       0.6937262       140.3762
2014    27      2       0.5308005       116.7384
2014    27      3       0.4467814       102.828
2014    27      4       0.3526649       85.66313
2014    27      5       0.2054107       55.36936
2014    27      6       0.2172196       57.95726
2014    27      7       0.2579488       66.69818
2014    28      0       0.1961874       53.2376
2014    28      1       0.1461321       41.64227
2014    28      2       0.1470491       41.82885
2014    28      3       0.1503138       42.59319
2014    28      4       0.1334116       38.59142
2014    28      5       0.1203365       35.49891
2014    28      6       0.1814572       49.99206
2014    28      7       0.2066937       55.6679
2014    29      0       0.1636534       45.74252
2014    29      1       0.1815119       49.83622
2014    29      2       0.200494        54.3504
2014    29      3       0.2166224       58.14761
2014    29      4       0.2022615       55.05846
2014    29      5       0.1718158       48.12993
2014    29      6       0.193658        53.18425
2014    29      7       0.19182         52.86054
2014    30      0       0.1767072       49.37311
2014    30      1       0.1586996       45.32438
2014    30      2       0.158461        45.28312
2014    30      3       0.1530685       43.77673
2014    30      4       0.16204         45.84522
2014    30      5       0.178674        49.69325
2014    30      6       0.2170647       58.41608
2014    30      7       0.2125743       57.4698
2014    31      0       0.1799353       50.07258
2014    31      1       0.132529        38.85361
2014    31      2       0.09890572      30.34176
2014    31      3       0.1261363       36.76815
2014    31      4       0.1481012       41.76198
2014    31      5       0.1688207       46.59489
2014    31      6       0.2536227       65.40782
2014    31      7       0.2709083       69.26017
2015    1       0       0.4210754       97.20763
2015    1       1       0.2963966       73.88847
2015    1       2       0.267716        67.84916
2015    1       3       0.2693866       67.35697
2015    1       4       0.2755371       68.87521
2015    1       5       0.2708763       68.57273
2015    1       6       0.3154764       77.93441
2015    1       7       0.3240932       79.71011
2015    2       0       0.2780437       70.51981
2015    2       1       0.213216        56.82712
2015    2       2       0.1949145       52.71584
2015    2       3       0.196065        52.74821
2015    2       4       0.2165201       56.85935
2015    2       5       0.2433078       62.66559
2015    2       6       0.2925158       72.83338
2015    2       7       0.3339349       81.00228
2015    3       0       0.3338108       81.23694
2015    3       1       0.3266555       80.12463
2015    3       2       0.2928555       73.65998
2015    3       3       0.2584875       66.56424
2015    3       4       0.234932        61.59472
2015    3       5       0.229765        60.65699
2015    3       6       0.2392143       63.18124
2015    3       7       0.2271114       60.9323
2015    4       0       0.200909        54.97031
2015    4       1       0.2323732       61.88492
2015    4       2       0.2778503       71.93327
2015    4       3       0.2891998       74.49137
2015    4       4       0.2906403       74.64045
2015    4       5       0.2976754       75.82859
2015    4       6       0.2869164       73.6141
2015    4       7       0.237098        63.06887
2015    5       0       0.1856294       51.70539
2015    5       1       0.1457876       42.35343
2015    5       2       0.1122571       34.07459
2015    5       3       0.1279573       37.70207
2015    5       4       0.1397175       40.47897
2015    5       5       0.1353411       39.32941
2015    5       6       0.1691789       47.50944
2015    5       7       0.1999622       54.553
2015    6       0       0.2486796       63.97529
2015    6       1       0.2577961       65.61489
2015    6       2       0.3377885       80.99679
2015    6       3       0.3503699       83.61481
2015    6       4       0.3439121       82.9152
2015    6       5       0.3472588       83.951
2015    6       6       0.4029088       94.45793
2015    6       7       0.4903426       109.2706
2015    7       0       0.4767629       106.8558
2015    7       1       0.5217298       114.1672
2015    7       2       0.5799259       123.7748
2015    7       3       0.5716029       123.1135
2015    7       4       0.4950061       110.6838
2015    7       5       0.3874932       91.67261
2015    7       6       0.3062306       75.91669
2015    7       7       0.2963455       74.06715
2015    8       0       0.2228461       58.9312
2015    8       1       0.1687696       46.97206
2015    8       2       0.17291         47.94235
2015    8       3       0.1462772       41.75229
2015    8       4       0.1268603       37.14591
2015    8       5       0.1247272       36.66468
2015    8       6       0.1534791       43.51233
2015    8       7       0.1700764       47.3901
2015    9       0       0.1236295       36.40384
2015    9       1       0.08842052      27.62031
2015    9       2       0.08871286      27.67611
2015    9       3       0.09042824      28.03191
2015    9       4       0.09528772      29.27432
2015    9       5       0.1119049       33.57497
2015    9       6       0.1720805       48.2081
2015    9       7       0.2086127       56.60983
2015    10      0       0.180926        50.43845
2015    10      1       0.1568359       44.8444
2015    10      2       0.1452583       42.00857
2015    10      3       0.1569208       44.70502
2015    10      4       0.1723774       48.29873
2015    10      5       0.185751        51.39218
2015    10      6       0.2055374       55.90793
2015    10      7       0.2108638       57.11094
2015    11      0       0.1588587       45.12752
2015    11      1       0.1243798       36.90562
2015    11      2       0.126002        37.33016
2015    11      3       0.1116171       33.70816
2015    11      4       0.1125915       33.94056
2015    11      5       0.1174347       35.15622
2015    11      6       0.1326576       39.04738
2015    11      7       0.1595285       45.61501
2015    12      0       0.1728024       48.70464
2015    12      1       0.184541        51.40245
2015    12      2       0.1884719       52.17918
2015    12      3       0.1726453       48.3309
2015    12      4       0.1434728       41.40655
2015    12      5       0.1433757       41.37681
2015    12      6       0.141971        41.01943
2015    12      7       0.1516179       43.22977
2015    13      0       0.1475727       42.3017
2015    13      1       0.1394656       40.40595
2015    13      2       0.08929463      28.05034
2015    13      3       0.09608805      29.70919
2015    13      4       0.1179927       34.82407
2015    13      5       0.1497529       42.33048
2015    13      6       0.2034814       54.76102
2015    13      7       0.2198885       58.60406
2015    14      0       0.2023171       54.81555
2015    14      1       0.169883        47.48656
2015    14      2       0.1351714       39.17051
2015    14      3       0.09778926      29.79091
2015    14      4       0.1138837       33.7792
2015    14      5       0.1401323       40.16303
2015    14      6       0.1817456       49.98553
2015    14      7       0.2192982       58.57578
2015    15      0       0.1999882       54.38533
2015    15      1       0.1774944       49.47489
2015    15      2       0.1517504       43.70765
2015    15      3       0.1663589       47.26004
2015    15      4       0.1858152       51.68299
2015    15      5       0.2072769       56.52652
2015    15      6       0.2178503       58.93098
2015    15      7       0.2342854       62.49363
2015    16      0       0.1846816       51.37103
2015    16      1       0.1525243       43.8017
2015    16      2       0.1376992       40.16187
2015    16      3       0.1340146       39.1294
2015    16      4       0.1376367       39.99593
2015    16      5       0.1430049       41.42278
2015    16      6       0.18626         51.66914
2015    16      7       0.2424854       64.28441
2015    17      0       0.233009        62.29954
2015    17      1       0.2197457       59.41524
2015    17      2       0.1898519       52.61927
2015    17      3       0.1907016       52.84349
2015    17      4       0.1930206       53.30021
2015    17      5       0.1642623       46.52724
2015    17      6       0.1403835       40.74849
2015    17      7       0.1508988       43.20756
2015    18      0       0.1483764       42.52075
2015    18      1       0.147617        42.40879
2015    18      2       0.1187558       35.32111
2015    18      3       0.09335274      28.72043
2015    18      4       0.09634306      29.41869
2015    18      5       0.1084052       32.41966
2015    18      6       0.1366468       39.49509
2015    18      7       0.1820939       50.42688
2015    19      0       0.1644014       46.32599
2015    19      1       0.1763952       49.11273
2015    19      2       0.1993311       54.41551
2015    19      3       0.1687954       47.17659
2015    19      4       0.121043        35.63907
2015    19      5       0.1335039       38.41458
2015    19      6       0.1801531       48.95402
2015    19      7       0.1812497       49.7889
2015    20      0       0.1750879       48.12716
2015    20      1       0.1828034       50.2696
2015    20      2       0.2613393       67.77011
2015    20      3       0.3195029       79.6103
2015    20      4       0.3294544       81.48921
2015    20      5       0.3213498       79.73787
2015    20      6       0.358406        87.08052
2015    20      7       0.34795         85.6324
2015    21      0       0.2910245       73.772
2015    21      1       0.301601        76.33595
2015    21      2       0.3554038       87.1957
2015    21      3       0.3095997       78.03655
2015    21      4       0.2115218       57.05572
2015    21      5       0.2172157       58.14578
2015    21      6       0.2282359       60.5941
2015    21      7       0.2485603       65.30045
2015    22      0       0.1724882       48.24079
2015    22      1       0.1480904       42.17034
2015    22      2       0.1527727       43.36002
2015    22      3       0.1521729       43.11019
2015    22      4       0.1521385       43.07095
2015    22      5       0.1416857       40.90809
2015    22      6       0.1408287       40.81511
2015    22      7       0.1676261       46.97339
2015    23      0       0.1602396       44.96464
2015    23      1       0.141131        40.24235
2015    23      2       0.1441974       41.1689
2015    23      3       0.1126774       33.76123
2015    23      4       0.1049868       31.94637
2015    23      5       0.1019749       31.33659
2015    23      6       0.1128623       33.92252
2015    23      7       0.1284189       37.7197
2015    24      0       0.1623992       45.34279
2015    24      1       0.2174464       57.75316
2015    24      2       0.2257416       59.62009
2015    24      3       0.2576597       66.58792
2015    24      4       0.3131624       78.3566
2015    24      5       0.330295        82.21739
2015    24      6       0.3651402       89.27673
2015    24      7       0.3601718       88.83281
2015    25      0       0.2884765       74.21668
2015    25      1       0.251986        66.52703
2015    25      2       0.2466801       65.46241
2015    25      3       0.2485615       65.49091
2015    25      4       0.2343776       62.12174
2015    25      5       0.2199376       58.79978
2015    25      6       0.2919419       74.4788
2015    25      7       0.3397165       84.33279
2015    26      0       0.3790334       91.55249
2015    26      1       0.3747787       90.90198
2015    26      2       0.4373169       102.316
2015    26      3       0.4765467       108.9927
2015    26      4       0.4178816       98.71542
2015    26      5       0.339679        84.10007
2015    26      6       0.3356529       83.1229
2015    26      7       0.3585757       87.87729
2015    27      0       0.3190372       80.2554
2015    27      1       0.3185295       79.81609
2015    27      2       0.3193827       79.62349
2015    27      3       0.3100836       77.63545
2015    27      4       0.2761251       70.27171
2015    27      5       0.2748486       70.07327
2015    27      6       0.364855        87.58443
2015    27      7       0.4218768       97.52237
2015    28      0       0.4486496       102.1055
2015    28      1       0.4066498       94.99352
2015    28      2       0.3590254       86.09155
2015    28      3       0.2816358       71.10432
2015    28      4       0.2628409       67.16014
2015    28      5       0.2526513       65.36006
2015    28      6       0.2617472       67.74205
2015    28      7       0.2668707       69.06934
2015    29      0       0.2584862       67.30509
2015    29      1       0.2386575       63.09807
2015    29      2       0.2249541       60.12754
2015    29      3       0.2261535       60.41203
2015    29      4       0.2601517       67.68381
2015    29      5       0.2958241       75.15597
2015    29      6       0.3055261       77.28182
2015    29      7       0.2808705       72.19282
2015    30      0       0.2402189       63.45473
2015    30      1       0.2087022       56.4533
2015    30      2       0.1882941       51.86744
2015    30      3       0.200532        54.70912
2015    30      4       0.210512        57.03934
2015    30      5       0.2049249       55.89857
2015    30      6       0.2095157       56.96157
2015    30      7       0.2295296       61.43857
2015    31      0       0.1997215       54.90034
2015    31      1       0.1775306       49.84286
2015    31      2       0.1732981       48.70914
2015    31      3       0.1640519       46.35267
2015    31      4       0.1674821       46.96947
2015    31      5       0.1788847       49.59396
2015    31      6       0.1916069       52.43662
2015    31      7       0.2135165       57.34434
2016    1       0       0.2452529       62.75466
2016    1       1       0.2365961       61.50567
2016    1       2       0.2209596       57.72909
2016    1       3       0.1985066       52.77395
2016    1       4       0.1871918       50.56265
2016    1       5       0.1936727       52.29319
2016    1       6       0.2246472       59.01407
2016    1       7       0.224861        59.50075
2016    5       0       0.6207946       127.0989
2016    5       1       0.6943881       137.1119
2016    5       2       0.8069795       151.755
2016    5       3       0.824174        152.9348
2016    5       4       0.8345866       154.6871
2016    5       5       0.7822545       149.325
2016    5       6       0.7982742       151.5052
2016    5       7       0.7806941       148.9146
2016    6       0       0.7401151       142.5373
2016    6       1       0.6138159       126.174
2016    6       2       0.7536529       144.4323
2016    6       3       0.6121087       125.8234
2016    6       4       0.628017        128.4388
2016    6       5       0.6352627       130.2839
2016    6       6       0.5818872       123.4218
2016    6       7       0.5444455       117.2626
2016    7       0       0.4951828       109.3892
2016    7       1       0.4674843       105.4646
2016    7       2       0.5034207       111.2722
2016    7       3       0.5369177       116.0977
2016    7       4       0.5098084       111.5094
2016    7       5       0.48722         108.0231
2016    7       6       0.4870513       108.2271
2016    7       7       0.5075169       111.6265
2016    8       0       0.4777443       106.999
2016    8       1       0.3765558       89.5887
2016    8       2       0.3694973       87.91384
2016    8       3       0.282638        70.94142
2016    8       4       0.2705901       67.88626
2016    8       5       0.3975344       90.23766
2016    8       6       0.4423855       98.55767
2016    8       7       0.4297635       96.56112
2016    9       0       0.3160522       76.40123
2016    9       1       0.2562578       65.09201
2016    9       2       0.2495367       63.69613
2016    9       3       0.2329542       60.34682
2016    9       4       0.2295801       59.63786
2016    9       5       0.2393997       61.92175
2016    9       6       0.2789638       70.3498
2016    9       7       0.3158542       78.07427
2016    10      0       0.2835601       71.63279
2016    10      1       0.2359614       61.30246
2016    10      2       0.228747        59.67433
2016    10      3       0.2151685       56.45396
2016    10      4       0.2087947       55.07478
2016    10      5       0.2549041       65.25872
2016    10      6       0.3251805       80.14843
2016    10      7       0.360689        87.64966
2016    11      0       0.3474467       85.2709
2016    11      1       0.2934661       74.63109
2016    11      2       0.3086199       77.49096
2016    11      3       0.2836678       72.06233
2016    11      4       0.2673988       68.37966
2016    11      5       0.2841746       72.05108
2016    11      6       0.2876395       72.85224
2016    11      7       0.3176121       78.92465
2016    12      0       0.2987458       74.93364
2016    12      1       0.2442409       63.54989
2016    12      2       0.2153747       57.08029
2016    12      3       0.2165505       57.06307
2016    12      4       0.273547        68.7485
2016    12      5       0.3287146       79.50429
2016    12      6       0.370337        87.38092
2016    12      7       0.3686872       87.17417
2016    13      0       0.292256        72.13522
2016    13      1       0.2626645       66.3894
2016    13      2       0.2446623       62.83861
2016    13      3       0.2330446       60.47932
2016    13      4       0.2355414       61.09465
2016    13      5       0.2538774       64.97885
2016    13      6       0.311964        76.87221
2016    13      7       0.3173484       77.95999
2016    14      0       0.2909226       72.56338
2016    14      1       0.2315693       60.38437
2016    14      2       0.2149884       56.89047
2016    14      3       0.2177992       57.21913
2016    14      4       0.2274796       59.3009
2016    14      5       0.2126523       56.3583
2016    14      6       0.2418697       62.83331
2016    14      7       0.2600219       66.80289
2016    15      0       0.2013349       54.17611
2016    15      1       0.1782724       49.01332
2016    15      2       0.1767435       48.57961
2016    15      3       0.1615408       45.04003
2016    15      4       0.1485286       42.15063
2016    15      5       0.1505364       42.8207
2016    15      6       0.1721038       48.03688
2016    15      7       0.1887386       51.95542
2016    16      0       0.1837227       50.92315
2016    16      1       0.1306378       38.44818
2016    16      2       0.09484596      29.55342
2016    16      3       0.07776479      25.09749
2016    16      4       0.07065759      23.21097
2016    16      5       0.09200851      28.49176
2016    16      6       0.1684745       47.09732
2016    16      7       0.1936436       53.0356
2016    17      0       0.1407802       40.58439
2016    17      1       0.102226        30.92969
2016    17      2       0.1043112       31.27819
2016    17      3       0.1046422       31.27533
2016    17      4       0.1011633       30.58953
2016    17      5       0.122766        35.95001
2016    17      6       0.1556412       43.96505
2016    17      7       0.1940118       53.1793
2016    18      0       0.1799879       50.05036
2016    18      1       0.1534328       43.56402
2016    18      2       0.145909        41.02705
2016    18      3       0.1243019       35.90596
2016    18      4       0.1102141       32.86346
2016    18      5       0.1084568       32.67052
2016    18      6       0.1107928       33.33035
2016    18      7       0.133885        39.11046
2016    19      0       0.1395421       40.68386
2016    19      1       0.1596017       45.77397
2016    19      2       0.1746818       49.39484
2016    19      3       0.17779         50.02623
2016    19      4       0.1704849       48.24281
2016    19      5       0.1741738       49.04725
2016    19      6       0.1733121       48.90405
2016    19      7       0.1577108       45.22576
2016    20      0       0.1249316       37.26293
2016    20      1       0.1530973       44.21637
2016    20      2       0.1919886       53.4109
2016    20      3       0.2125684       58.11219
2016    20      4       0.2282467       61.4988
2016    20      5       0.2706657       70.56569
2016    20      6       0.321227        81.25246
2016    20      7       0.3446831       86.70843
2016    21      0       0.383799        93.14991
2016    21      1       0.409045        97.62076
2016    21      2       0.4799545       110.6153
2016    21      3       0.5141959       116.6029
2016    21      4       0.463593        108.0119
2016    21      5       0.4383306       103.4441
2016    21      6       0.4699677       108.737
2016    21      7       0.4235798       100.2478
2016    22      0       0.3123823       78.92407
2016    22      1       0.2248041       60.40611
2016    22      2       0.1658307       46.99438
2016    22      3       0.142696        41.3068
2016    22      4       0.1591946       45.04553
2016    22      5       0.176002        49.00871
2016    22      6       0.1914222       52.83877
2016    22      7       0.2387991       63.79677
2016    23      0       0.2336909       62.80478
2016    23      1       0.2558936       67.79245
2016    23      2       0.4687014       108.6044
2016    23      3       0.8966223       167.7578
2016    23      4       0.8569369       164.5206
2016    23      5       0.7029677       144.5397
2016    23      6       0.7277616       146.6053
2016    23      7       0.7891631       152.6536
2016    24      0       0.759822        147.5392
2016    24      1       0.784085        153.0444
2016    24      2       0.6533516       134.1359
2016    24      3       0.4238733       97.02888
2016    24      4       0.364464        85.99008
2016    24      5       0.3735311       87.66297
2016    24      6       0.3407953       81.95845
2016    24      7       0.277125        69.96469
2016    25      0       0.1654975       45.64047
2016    25      1       0.1793695       48.65571
2016    25      2       0.2126934       55.96338
2016    25      3       0.2688628       67.19337
2016    25      4       0.3873651       88.08395
2016    25      5       0.5520507       114.5205
2016    25      6       0.5976188       123.1416
2016    25      7       0.4895926       107.7128
2016    26      0       0.3455585       82.68651
2016    26      1       0.3085407       75.65641
2016    26      2       0.2855333       71.01486
2016    26      3       0.3006204       73.72766
2016    26      4       0.3283342       78.77921
2016    26      5       0.4799301       106.4888
2016    26      6       0.454857        102.0636
2016    26      7       0.4677686       104.2756
2016    27      0       0.483631        106.5044
2016    27      1       0.4625915       102.8439
2016    27      2       0.4184376       95.36373
2016    27      3       0.4040485       92.55997
2016    27      4       0.452604        100.8933
2016    27      5       0.467633        104.0399
2016    27      6       0.5335681       115.069
2016    27      7       0.5312686       113.878
2016    28      0       0.4182976       95.66765
2016    28      1       0.4348507       98.22214
2016    28      2       0.4870405       106.1442
2016    28      3       0.4908875       106.653
2016    28      4       0.429152        97.02184
2016    28      5       0.4401149       99.56495
2016    28      6       0.5284837       114.7171
2016    28      7       0.5383018       116.3014
2016    29      0       0.4175471       96.62809
2016    29      1       0.3306198       80.70632
2016    29      2       0.3008603       74.89926
2016    29      3       0.2987942       73.87353
2016    29      4       0.332593        80.23497
2016    29      5       0.402863        92.46104
2016    29      6       0.4984748       107.5435
2016    29      7       0.4943251       107.7746
2016    30      0       0.3736506       88.08892
2016    30      1       0.2904016       72.73122
2016    30      2       0.313973        78.20684
2016    30      3       0.2197453       58.3379
2016    30      4       0.1838286       50.58989
2016    30      5       0.159673        45.29366
2016    30      6       0.1487781       42.89047
2016    30      7       0.1620121       46.03484
2016    31      0       0.179063        49.87373
2016    31      1       0.2334588       62.02386
2016    31      2       0.2757084       70.96605
2016    31      3       0.3244249       80.63466
2016    31      4       0.3765434       90.4233
2016    31      5       0.4156206       97.55818
2016    31      6       0.4723656       107.6798
2016    31      7       0.4997693       112.4062
2017    1       0       0.2148717       56.64918
2017    1       1       0.1655619       45.51154
2017    1       2       0.1693825       46.25765
2017    1       3       0.1815863       49.0731
2017    1       4       0.1898752       51.27452
2017    1       5       0.2090952       55.78127
2017    1       6       0.2136802       57.06078
2017    1       7       0.2031661       54.79865
2017    2       0       0.1738929       48.11825
2017    2       1       0.1213354       35.50282
2017    2       2       0.1061121       31.67016
2017    2       3       0.09882721      29.83443
2017    2       4       0.1128044       33.25617
2017    2       5       0.1403263       39.74883
2017    2       6       0.1760946       48.2036
2017    2       7       0.1967855       52.86374
2017    3       0       0.1932011       51.87328
2017    3       1       0.1896493       51.43126
2017    3       2       0.1751971       48.50572
2017    3       3       0.1666749       46.4229
2017    3       4       0.1504844       42.42007
2017    3       5       0.1620779       45.06857
2017    3       6       0.2003991       53.73246
2017    3       7       0.226434        59.47435
2017    4       0       0.1982391       53.29571
2017    4       1       0.1748837       48.14361
2017    4       2       0.1467361       41.69692
2017    4       3       0.1186761       35.03988
2017    4       4       0.1257306       36.69143
2017    4       5       0.1407834       40.33325
2017    4       6       0.168856        46.99119
2017    4       7       0.1684119       46.9379
2017    5       0       0.1423459       40.90896
2017    5       1       0.1448857       41.30028
2017    5       2       0.1691822       46.73954
2017    5       3       0.1695907       46.85143
2017    5       4       0.1528855       43.16072
2017    5       5       0.1468289       41.8166
2017    5       6       0.1796832       49.49758
2017    5       7       0.2209677       58.57811
2017    6       0       0.2442481       62.89578
2017    6       1       0.2402004       61.73181
2017    6       2       0.2352021       60.88184
2017    6       3       0.2800392       70.15442
2017    6       4       0.2636452       67.28913
2017    6       5       0.2507512       65.02305
2017    6       6       0.2720654       69.6364
2017    6       7       0.2826389       71.84616
2017    7       0       0.2211934       58.66398
2017    7       1       0.1656452       46.00509
2017    7       2       0.1633622       45.4566
2017    7       3       0.1722252       47.5065
2017    7       4       0.2019139       54.161
2017    7       5       0.2413217       62.80419
2017    7       6       0.3258797       80.51501
2017    7       7       0.3599586       87.27599
2017    8       0       0.3130615       78.35679
2017    8       1       0.2748726       70.79998
2017    8       2       0.2240006       59.68036
2017    8       3       0.1994842       53.46179
2017    8       4       0.2309419       60.29902
2017    8       5       0.2780472       69.72801
2017    8       6       0.3369318       81.6044
2017    8       7       0.3684624       87.75415
2017    9       0       0.4038238       93.63884
2017    9       1       0.3878653       90.81434
2017    9       2       0.3744629       88.20723
2017    9       3       0.4229737       96.29439
2017    9       4       0.5036181       109.7295
2017    9       5       0.6145004       126.7758
2017    9       6       0.5003886       110.3038
2017    9       7       0.4448934       102.0067
2017    10      0       0.4971707       110.5938
2017    10      1       0.5899609       124.8507
2017    10      2       0.6345622       130.5228
2017    10      3       0.5320962       115.166
2017    10      4       0.4218149       97.34083
2017    10      5       0.4037817       94.47669
2017    10      6       0.4489675       102.8475
2017    10      7       0.4083737       96.22216
2017    11      0       0.3291914       81.49042
2017    11      1       0.2638828       68.26964
2017    11      2       0.2378387       62.65838
2017    11      3       0.2350533       61.8621
2017    11      4       0.2066231       55.70895
2017    11      5       0.1759479       48.97296
2017    11      6       0.190751        53.03291
2017    11      7       0.2004657       55.43749
2017    12      0       0.1718165       48.82513
2017    12      1       0.1826577       51.44794
2017    12      2       0.1801552       50.77308
2017    12      3       0.1685586       47.68969
2017    12      4       0.1749981       48.79471
2017    12      5       0.1916366       52.45935
2017    12      6       0.2033289       55.09075
2017    12      7       0.220434        59.22513
2017    13      0       0.2217295       59.57269
2017    13      1       0.2178977       59.04803
2017    13      2       0.2360821       63.22064
2017    13      3       0.2263986       60.48358
2017    13      4       0.1932465       52.6685
2017    13      5       0.1872746       50.55522
2017    13      6       0.1942173       52.65143
2017    13      7       0.2199486       57.89825
2017    14      0       0.2127898       56.25215
2017    14      1       0.2261255       59.739
2017    14      2       0.2399351       62.79342
2017    14      3       0.2491186       64.75838
2017    14      4       0.265312        68.15955
2017    14      5       0.3264433       79.9004
2017    14      6       0.3553452       86.37434
2017    14      7       0.3377149       83.3388
2017    15      0       0.2454115       64.58735
2017    15      1       0.1830908       50.78862
2017    15      2       0.1471882       42.59468
2017    15      3       0.1140497       34.53176
2017    15      4       0.1059159       32.37374
2017    15      5       0.1163554       35.04306
2017    15      6       0.1449074       41.97203
2017    15      7       0.1772462       49.2802
2017    16      0       0.1440106       41.4092
2017    16      1       0.1111017       33.1246
2017    16      2       0.1105051       32.70356
2017    16      3       0.1234756       35.8569
2017    16      4       0.1499775       42.14954
2017    16      5       0.1979317       53.0989
2017    16      6       0.2743303       69.33028
2017    16      7       0.2890705       72.65107
2017    17      0       0.2335565       60.90307
2017    17      1       0.1788376       49.13644
2017    17      2       0.1226202       36.38636
2017    17      3       0.09631929      30.10037
2017    17      4       0.08376775      26.96425
2017    17      5       0.08493859      27.29516
2017    17      6       0.1077368       33.11718
2017    17      7       0.1648785       47.11596
2017    18      0       0.1632947       46.71585
2017    18      1       0.1511798       43.75699
2017    18      2       0.141601        41.37639
2017    18      3       0.1283579       38.15262
2017    18      4       0.1269877       37.77442
2017    18      5       0.1335113       39.11982
2017    18      6       0.1496381       43.12976
2017    18      7       0.1686445       47.34227
2017    19      0       0.1856548       51.0044
2017    19      1       0.2096714       56.23305
2017    19      2       0.2750895       69.20996
2017    19      3       0.2349951       61.32799
2017    19      4       0.1466189       41.89315
2017    19      5       0.1330792       38.69837
2017    19      6       0.1612877       45.68547
2017    19      7       0.1581768       45.31812
2017    20      0       0.1474054       42.89961
2017    20      1       0.1726581       49.03347
2017    20      2       0.2383401       63.96684
2017    20      3       0.2594531       68.40206
2017    20      4       0.2497704       66.141
2017    20      5       0.2261743       60.55596
2017    20      6       0.2105378       55.65413
2017    20      7       0.2412731       62.6893
2017    21      0       0.2746485       70.46451
2017    21      1       0.2945934       74.77908
2017    21      2       0.3552108       86.82486
2017    21      3       0.3907306       93.53649
2017    21      4       0.4031152       95.54459
2017    21      5       0.3741578       90.17233
2017    21      6       0.3296479       81.4891
2017    21      7       0.4063984       96.36793
2017    22      0       0.4343738       100.9978
2017    22      1       0.3930888       93.55827
2017    22      2       0.3334262       82.20221
2017    22      3       0.2822944       71.73347
2017    22      4       0.2662376       68.21208
2017    22      5       0.273085        69.52597
2017    22      6       0.2539313       65.79186
2017    22      7       0.2163224       58.04477
2017    23      0       0.1668301       47.02882
2017    23      1       0.163681        46.3488
2017    23      2       0.2304089       61.59817
2017    23      3       0.2431078       64.29034
2017    23      4       0.2026559       55.21786
2017    23      5       0.1624299       45.7868
2017    23      6       0.1980521       54.15626
2017    23      7       0.2551351       66.67646
2017    24      0       0.2803967       71.84877
2017    24      1       0.3054415       76.62774
2017    24      2       0.2965827       74.34263
2017    24      3       0.304777        75.95292
2017    24      4       0.3296863       80.95129
2017    24      5       0.3125993       78.4404
2017    24      6       0.2241129       60.09061
2017    24      7       0.2561429       66.87703
2017    25      0       0.2691883       69.40038
2017    25      1       0.2691157       69.2015
2017    25      2       0.3018681       76.21255
2017    25      3       0.2889645       73.84835
2017    25      4       0.2643324       68.35328
2017    25      5       0.2756103       70.71782
2017    25      6       0.3145309       79.29896
2017    25      7       0.3567448       87.80541
2017    26      0       0.3580232       87.99275
2017    26      1       0.345555        85.74234
2017    26      2       0.3125217       79.46465
2017    26      3       0.3029788       77.56028
2017    26      4       0.2877261       74.45808
2017    26      5       0.2517561       66.87081
2017    26      6       0.2324047       62.64379
2017    26      7       0.2866705       74.44396
2017    27      0       0.4059095       98.01277
2017    27      1       0.43851         104.1532
2017    27      2       0.3933707       96.06069
2017    27      3       0.3264629       83.05456
2017    27      4       0.3045699       78.57604
2017    27      5       0.3388992       85.6651
2017    27      6       0.3723472       92.38726
2017    27      7       0.376131        92.98013
2017    28      0       0.3080786       79.30455
2017    28      1       0.2785386       73.31293
2017    28      2       0.3122266       80.39167
2017    28      3       0.3714078       91.95294
2017    28      4       0.350898        87.56446
2017    28      5       0.3331283       83.87126
2017    28      6       0.3288794       83.40182
2017    28      7       0.3657645       90.57643
2017    29      0       0.4149726       98.93763
2017    29      1       0.4125605       98.37934
2017    29      2       0.4081524       97.34644
2017    29      3       0.4216555       99.35972
2017    29      4       0.4366271       102.7133
2017    29      5       0.466644        108.6115
2017    29      6       0.4692667       108.9029
2017    29      7       0.4992471       113.5554
2017    30      0       0.5130539       115.3679
2017    30      1       0.4693666       107.7935
2017    30      2       0.4477324       103.7386
2017    30      3       0.4546296       104.6687
2017    30      4       0.4539451       104.417
2017    30      5       0.430685        100.5583
2017    30      6       0.39326         93.80859
2017    30      7       0.3448905       84.55155
2017    31      0       0.3157312       78.85464
2017    31      1       0.2905433       73.75344
2017    31      2       0.2736782       70.08574
2017    31      3       0.2760019       70.23589
2017    31      4       0.3120886       77.29978
2017    31      5       0.3438765       83.70925
2017    31      6       0.3790333       90.60463
2017    31      7       0.4089222       96.16692
2018    1       0       0.4242255       97.31434
2018    1       1       0.3538529       84.49241
2018    1       2       0.3048639       75.06711
2018    1       3       0.2581127       65.68477
2018    1       4       0.233822        60.88276
2018    1       5       0.2128089       56.53224
2018    1       6       0.2460233       63.63419
2018    1       7       0.2779626       69.96579
2018    2       0       0.2592769       65.82899
2018    2       1       0.2273275       57.94586
2018    2       2       0.1735338       46.29305
2018    2       3       0.2089051       54.29708
2018    2       4       0.2575105       64.57188
2018    2       5       0.2508575       63.476
2018    2       6       0.2999434       73.65496
2018    2       7       0.3171315       77.12021
2018    3       0       0.2914358       72.00715
2018    3       1       0.3134751       76.18695
2018    3       2       0.3305025       79.69526
2018    3       3       0.3143354       76.57623
2018    3       4       0.2967626       73.43713
2018    3       5       0.2968362       73.45726
2018    3       6       0.3451818       83.10913
2018    3       7       0.356502        85.47174
2018    4       0       0.3089043       76.43461
2018    4       1       0.2594234       66.52909
2018    4       2       0.2416468       62.87522
2018    4       3       0.2455461       63.81575
2018    4       4       0.2514144       65.09385
2018    4       5       0.3091158       76.60408
2018    4       6       0.4064136       94.4586
2018    4       7       0.4189833       96.72124
2018    5       0       0.4594632       103.6842
2018    5       1       0.4582485       103.2881
2018    5       2       0.4895174       108.1105
2018    5       3       0.4534462       102.4309
2018    5       4       0.372244        88.60612
2018    5       5       0.359533        86.55046
2018    5       6       0.372044        88.97145
2018    5       7       0.31365         77.90895
2018    6       0       0.2509995       65.20208
2018    6       1       0.2204673       58.28949
2018    6       2       0.2311609       60.449
2018    6       3       0.2314009       60.32474
2018    6       4       0.2210688       58.01031
2018    6       5       0.1995238       53.58817
2018    6       6       0.2138428       57.37772
2018    6       7       0.2541038       66.37019
2018    7       0       0.2514895       66.0234
2018    7       1       0.2252732       60.44802
2018    7       2       0.2171364       58.67761
2018    7       3       0.2350688       62.39008
2018    7       4       0.2567883       66.64737
2018    7       5       0.2772883       70.6712
2018    7       6       0.2901417       73.61612
2018    7       7       0.3235226       80.75483
2018    8       0       0.4997649       113.3886
2018    8       1       0.6045236       130.0645
2018    8       2       0.7189014       145.8974
2018    8       3       0.9720618       174.5567
2018    8       4       1.106363        186.2466
2018    8       5       0.8480462       160.5117
2018    8       6       0.7646436       151.1673
2018    8       7       0.7691401       151.2412
2018    9       0       0.6704672       138.6276
2018    9       1       0.6112697       130.4022
2018    9       2       0.6147945       130.9158
2018    9       3       0.5796243       125.6123
2018    9       4       0.5315261       118.0318
2018    9       5       0.5603234       122.3725
2018    9       6       0.6327723       132.8246
2018    9       7       0.6809048       139.1615
2018    10      0       0.5327496       117.0702
2018    10      1       0.3833905       90.94268
2018    10      2       0.3367213       82.8148
2018    10      3       0.3029944       76.49148
2018    10      4       0.3007619       75.9464
2018    10      5       0.3171791       79.36775
2018    10      6       0.3792563       91.06233
2018    10      7       0.3562703       86.62979
2018    11      0       0.3035827       75.97258
2018    11      1       0.2680646       68.42577
2018    11      2       0.2455133       64.27412
2018    11      3       0.2393634       63.08916
2018    11      4       0.2396558       63.13963
2018    11      5       0.2651837       68.77766
2018    11      6       0.2988663       76.02312
2018    11      7       0.3160549       79.62344
2018    12      0       0.2971925       75.92177
2018    12      1       0.2806985       72.46827
2018    12      2       0.2986071       76.01863
2018    12      3       0.289783        73.89925
2018    12      4       0.2495818       65.34506
2018    12      5       0.2564346       66.65195
2018    12      6       0.3642102       86.88415
2018    12      7       0.4503344       100.9447
2018    13      0       0.3807033       89.51587
2018    13      1       0.3995103       92.57047
2018    13      2       0.4208356       96.42015
2018    13      3       0.5218121       112.3002
2018    13      4       0.5183058       112.1682
2018    13      5       0.4598396       103.4067
2018    13      6       0.4038429       93.79294
2018    13      7       0.3768773       89.0516
2018    14      0       0.3305015       80.3638
2018    14      1       0.2889283       72.39906
2018    14      2       0.3344789       81.6391
2018    14      3       0.4371167       100.7499
2018    14      4       0.4549382       103.5578
2018    14      5       0.3817295       89.52103
2018    14      6       0.3656594       85.719
2018    14      7       0.2789804       70.22729
2018    15      0       0.2701104       68.3011
2018    15      1       0.2269351       58.79513
2018    15      2       0.2492164       62.77137
2018    15      3       0.284893        69.93035
2018    15      4       0.2687018       67.1985
2018    15      5       0.2610838       65.7231
2018    15      6       0.2904933       71.70767
2018    15      7       0.2838165       70.19877
2018    16      0       0.2515378       63.30151
2018    16      1       0.2259817       57.77694
2018    16      2       0.2385406       60.15279
2018    16      3       0.2011577       53.0172
2018    16      4       0.2006751       53.24266
2018    16      5       0.2219711       57.99913
2018    16      6       0.2415756       62.46313
2018    16      7       0.2465695       63.73441
2018    17      0       0.1794184       49.15065
2018    17      1       0.1217783       35.80524
2018    17      2       0.1009254       30.73866
2018    17      3       0.09025887      28.08189
2018    17      4       0.08512552      26.72144
2018    17      5       0.09699823      29.65392
2018    17      6       0.1341504       38.71726
2018    17      7       0.1845138       50.47611
2018    18      0       0.1715547       47.4471
2018    18      1       0.1561289       43.70409
2018    18      2       0.1451498       41.15535
2018    18      3       0.1517268       42.73461
2018    18      4       0.1676815       46.42358
2018    18      5       0.1836624       50.01288
2018    18      6       0.2086089       55.78919
2018    18      7       0.2125164       56.85125
2018    19      0       0.186993        51.26551
2018    19      1       0.2298573       60.97428
2018    19      2       0.3112032       78.06939
2018    19      3       0.3752631       90.41359
2018    19      4       0.3744672       90.07451
2018    19      5       0.4046209       95.15643
2018    19      6       0.551413        119.0429
2018    19      7       0.6855309       137.2051
2018    20      0       0.7407942       144.4319
2018    20      1       0.6644417       134.3312
2018    20      2       0.5105352       112.4268
2018    20      3       0.471017        106.1951
2018    20      4       0.4994408       110.7372
2018    20      5       0.5040422       111.2589
2018    20      6       0.5202093       113.8951
2018    20      7       0.5131728       113.0255
2018    21      0       0.5015203       111.3195
2018    21      1       0.4236697       98.03992
2018    21      2       0.3260041       80.03043
2018    21      3       0.2996883       74.74189
2018    21      4       0.3305777       80.74243
2018    21      5       0.3425193       83.02826
2018    21      6       0.3398209       82.3694
2018    21      7       0.3536359       84.96201
2018    22      0       0.2809527       70.60931
2018    22      1       0.2244201       58.31073
2018    22      2       0.240361        61.36224
2018    22      3       0.2995964       73.13816
2018    22      4       0.3319253       79.50019
2018    22      5       0.3504223       83.20601
2018    22      6       0.3719461       87.58977
2018    22      7       0.3183387       77.90125
2018    23      0       0.2280117       59.49915
2018    23      1       0.1915254       51.46935
2018    23      2       0.1961696       52.88572
2018    23      3       0.2142788       56.97521
2018    23      4       0.2248062       59.16318
2018    23      5       0.2355713       61.5329
2018    23      6       0.2658147       68.16975
2018    23      7       0.2506581       65.21144
2018    24      0       0.1748701       48.57851
2018    24      1       0.1328055       38.78138
2018    24      2       0.1446513       41.73294
2018    24      3       0.1777067       49.53504
2018    24      4       0.2083441       56.45892
2018    24      5       0.2335586       61.87826
2018    24      6       0.302111        76.33588
2018    24      7       0.3100516       78.05003
2018    25      0       0.286712        73.3125
2018    25      1       0.2732604       70.6828
2018    25      2       0.2930992       74.74178
2018    25      3       0.3040833       76.78721
2018    25      4       0.2541281       66.2567
2018    25      5       0.168202        47.13015
2018    25      6       0.2175604       58.35619
2018    25      7       0.2255976       60.22053
2018    26      0       0.1595249       45.21446
2018    26      1       0.1155197       34.57975
2018    26      2       0.1360529       39.53213
2018    26      3       0.1601972       45.20081
2018    26      4       0.141097        40.57531
2018    26      5       0.1247343       36.55809
2018    26      6       0.1362607       39.40217
2018    26      7       0.1493899       42.63929
2018    27      0       0.1054614       32.09486
2018    27      1       0.08732365      27.45894
2018    27      2       0.09730727      29.85504
2018    27      3       0.1055967       31.8504
2018    27      4       0.1065259       32.14528
2018    27      5       0.1032838       31.57882
2018    27      6       0.1266644       37.50391
2018    27      7       0.1375882       40.18656
2018    28      0       0.1188395       35.62547
2018    28      1       0.09390966      29.39787
2018    28      2       0.08513066      27.09182
2018    28      3       0.1024714       31.47099
2018    28      4       0.1031943       31.7951
2018    28      5       0.1108414       33.75162
2018    28      6       0.1143268       34.66965
2018    28      7       0.1106299       33.73149
2018    29      0       0.1003786       31.13238
2018    29      1       0.1172195       35.42624
2018    29      2       0.187949        52.31912
2018    29      3       0.2338771       62.38291
2018    29      4       0.2223352       59.77026
2018    29      5       0.1952297       53.71052
2018    29      6       0.1879087       52.01619
2018    29      7       0.2048959       55.80567
2018    30      0       0.1872015       51.76311
2018    30      1       0.1362407       39.69352
2018    30      2       0.1236434       36.52857
2018    30      3       0.128483        37.53821
2018    30      4       0.1109259       33.34392
2018    30      5       0.1030338       31.44312
2018    30      6       0.1330345       38.76217
2018    30      7       0.1637398       46.18116
2018    31      0       0.1441685       41.69033
2018    31      1       0.1438261       41.55229
2018    31      2       0.1667096       46.93111
2018    31      3       0.1281469       37.8105
2018    31      4       0.1088423       33.08829
2018    31      5       0.1240986       36.97596
2018    31      6       0.1393158       40.71641
2018    31      7       0.1636311       46.49998
2019    1       0       0.0767993       25.03875
2019    1       1       0.06068398      20.73608
2019    1       2       0.06051734      20.4643
2019    1       3       0.06221135      20.67495
2019    1       4       0.06772707      22.00022
2019    1       5       0.07556756      24.01965
2019    1       6       0.1085732       32.41629
2019    1       7       0.1236068       36.05646
