####################################################################################################
# Month: 09Sep                                                                                     #
# Station: FLWO                                                                                    #
# Frequency: 230 GHz                                                                               #
# Columns are: year    day     tau     Tb (K)                                                      #
####################################################################################################
2009    1       0.70867729      140.406725
2009    2       0.88280692      161.05085
2009    3       1.13432572      185.7235875
2009    4       0.94074614      168.030825
2009    5       0.78033425      150.543275
2009    6       0.81096844      154.19145
2009    7       0.81400201      152.9132625
2009    8       0.9024683       162.6132875
2009    9       0.76529052      147.3811
2009    10      0.66320202      135.390625
2009    11      0.78502909      151.6228625
2009    12      0.77362588      150.0772125
2009    13      0.8312566       156.462975
2009    14      0.59858926      124.5866925
2009    15      0.40666334      95.282955
2009    16      0.29399884      73.57117125
2009    17      0.3182727       78.35499375
2009    18      0.40353229      94.03321875
2009    19      0.63272201      130.473675
2009    20      0.56722761      120.79725
2009    21      0.517277        113.8823625
2009    22      0.34525414      83.67176
2009    23      0.1778353       47.9651975
2009    24      0.2135266       56.5796175
2009    25      0.25274208      65.4609625
2009    26      0.26314169      67.66766
2009    27      0.24490261      63.90139375
2009    28      0.27550781      69.74313875
2009    29      0.38155831      90.55897
2009    30      0.37576678      88.29910875
2010    1       0.4306669       98.93807625
2010    2       0.21847343      57.910235
2010    3       0.34036675      82.1886975
2010    4       0.42954786      99.56421125
2010    5       0.35246002      85.7399025
2010    6       0.81940656      150.304725
2010    7       0.9305716       165.1051125
2010    8       0.62109416      127.4384625
2010    9       0.14495227      40.39641625
2010    10      0.090225        28.33246625
2010    11      0.08332784      26.2923825
2010    12      0.50158978      103.73671125
2010    13      0.84754011      157.8153375
2010    14      0.8938997       164.1153375
2010    15      0.49128635      110.5829325
2010    16      0.42890429      99.7082
2010    17      0.42600948      99.2363375
2010    18      0.38944109      93.04115125
2010    19      0.41297952      97.0464125
2010    20      0.72298611      145.293325
2010    21      0.86060722      160.6452375
2010    22      1.56493888      218.12465
2010    23      0.68935119      122.1844175
2010    24      0.45672624      103.3367475
2010    25      0.4878019       108.537745
2010    26      0.45392749      103.66997125
2010    27      0.46584066      104.84187375
2010    28      0.40478162      93.7242925
2010    29      0.33894289      82.5487175
2010    30      0.37900102      90.52380375
2011    1       1.19893102      194.042
2011    2       1.07429948      181.2671375
2011    3       0.8456821       158.3265875
2011    4       0.77640212      149.9660375
2011    5       1.1886625       192.8357875
2011    6       1.1541446       187.2423375
2011    7       0.83409859      158.252175
2011    8       0.80625816      152.0286
2011    9       0.62951699      130.9796625
2011    10      0.63510259      130.901425
2011    11      0.63948046      131.189475
2011    12      0.86633706      156.557725
2011    13      0.97012119      168.0063125
2011    14      0.79087048      150.273575
2011    15      0.62079009      127.2476625
2011    16      0.55532211      119.11874875
2011    17      0.26435429      63.51602
2011    18      0.15428709      43.3623325
2011    19      0.19107618      51.74602375
2011    20      0.2791689       70.80781625
2011    21      0.39550729      92.44427875
2011    22      0.49674215      109.504625
2011    23      0.46207509      104.24677125
2011    24      0.46612429      104.96551375
2011    25      0.5301239       114.9547
2011    26      0.29865358      74.30633875
2011    27      0.64325451      131.520025
2011    28      0.57210468      120.2705975
2011    29      0.52289844      114.2328825
2011    30      0.53509608      115.9171375
2012    1       0.89758651      164.497375
2012    2       0.66696021      136.434775
2012    3       0.97958114      173.6093625
2012    4       1.05326079      179.166925
2012    5       1.02387188      176.9182125
2012    6       1.06355974      180.975725
2012    7       1.48784488      211.9243625
2012    8       1.223022        194.6000875
2012    9       1.19812375      192.4823375
2012    10      0.96663459      169.7126
2012    11      1.0399218       175.1253125
2012    12      0.7543547       145.1082375
2012    13      0.36167716      85.366785
2012    14      0.51872864      112.283
2012    15      0.3301853       79.4940975
2012    16      0.19309381      52.17770375
2012    17      0.19188442      51.518415
2012    18      0.26286182      67.27906375
2012    19      0.29080328      73.14246875
2012    20      0.44813979      102.060435
2012    21      0.53636175      117.2563375
2012    22      0.51334022      113.2583125
2012    23      0.49193738      108.82102
2012    24      0.48112298      107.06003
2012    25      0.36316801      86.576335
2012    26      0.28959497      72.38580625
2012    27      0.43391934      98.0233425
2012    28      0.86030174      157.9850125
2012    29      0.43528508      98.14580625
2012    30      0.32378005      79.07184375
2013    1       0.7678016       149.5253875
2013    2       1.03018604      179.1623375
2013    3       1.01159759      175.671375
2013    4       0.74976385      140.82877625
2013    5       0.69086557      138.5343625
2013    6       0.95919389      170.3271125
2013    7       1.37577225      205.0036125
2013    8       1.31550225      201.3094375
2013    9       1.37242325      204.179875
2013    10      0.77608296      143.2686
2013    11      0.56664706      117.9602675
2013    12      0.55579913      120.6293
2013    13      0.55717794      119.73975125
2013    14      0.52842755      117.2502625
2013    15      0.68984229      138.4348825
2013    16      0.70871725      141.4936625
2013    17      0.7554359       149.3339375
2013    18      0.74505545      146.537025
2013    19      0.53777962      118.7997625
2013    20      0.69013141      140.458575
2013    21      0.72896538      143.0210875
2013    22      0.69664729      136.39470375
2013    23      0.13485822      39.22441625
2013    24      0.14030279      40.82405625
2013    25      0.30287624      76.7414525
2013    26      0.33396819      81.75155625
2013    27      0.28722305      72.44199625
2013    28      0.13969818      40.344025
2013    29      0.17556604      49.49172875
2013    30      0.1102488       33.37763875
2014    1       0.25993652      67.16930875
2014    2       0.35388779      85.86138125
2014    3       0.70733738      142.195175
2014    4       0.9760053       172.1737625
2014    5       0.80282631      151.8811625
2014    6       1.15937658      189.018875
2014    7       1.16295061      188.1508875
2014    8       1.37561838      207.3525125
2014    9       0.54416684      116.786975
2014    10      0.43095206      99.61218875
2014    11      0.64018904      132.375875
2014    12      0.81607588      156.424175
2014    13      0.81814352      155.652125
2014    14      0.83376245      157.2500875
2014    15      0.96227919      171.516225
2014    16      1.22067325      193.561125
2014    17      1.407108        207.5953
2014    18      1.56341175      219.854725
2014    19      0.90039385      164.78925
2014    20      1.33537138      204.4747625
2014    21      1.11486781      186.3584875
2014    22      1.4620015       213.752725
2014    23      0.84637908      157.787825
2014    24      0.62748439      132.3605125
2014    25      0.58415976      125.3083625
2014    26      0.87882363      161.698875
2014    27      0.84889385      158.3555375
2014    28      0.52484481      106.6441575
2014    29      0.25652356      66.2557075
2014    30      0.19808575      53.6192625
2015    1       0.78071451      149.0631125
2015    2       0.84530054      157.1941875
2015    3       1.00033008      173.3954375
2015    4       1.26306544      195.8129
2015    5       1.11521925      184.9903125
2015    6       0.89983604      163.183925
2015    7       1.02737126      174.7470375
2015    8       1.15811978      188.2314375
2015    9       1.06350862      178.62965
2015    10      1.19353388      190.4560125
2015    11      0.82511325      153.090625
2015    12      0.55225058      118.1383275
2015    13      0.76696311      147.1093375
2015    14      0.59411864      122.31864375
2015    15      0.44122442      97.03546
2015    16      0.25361089      65.0943175
2015    17      0.44996291      102.81863875
2015    18      0.62880838      131.2166125
2015    19      0.90105743      163.4681125
2015    20      0.82578722      152.74545
2015    21      1.34713555      198.242725
2015    22      0.91392548      162.447475
2015    23      0.43945489      99.30705125
2015    24      0.37884494      91.2845075
2015    25      0.35984594      86.68579875
2015    26      0.41918306      98.20575
2015    27      0.28102036      70.6977475
2015    28      0.3193162       79.21711
2015    29      0.2842477       71.49436375
2015    30      0.27443901      70.76665125
2016    1       0.86695908      159.405375
2016    2       0.60845596      127.35311125
2016    3       0.38089276      89.740375
2016    4       0.26073134      66.3994225
2016    5       0.3385336       81.9888325
2016    6       0.66476899      133.5479375
2016    7       1.24963262      195.9342875
2016    8       1.04466115      178.1668125
2016    9       0.30735341      75.68442375
2016    10      0.44043306      98.62097
2016    11      0.67680092      136.5766875
2016    12      0.61388978      126.67415
2016    13      0.46988036      102.59241
2016    14      0.49584069      109.2402925
2016    15      0.36946151      87.6049825
2016    16      0.26060504      66.09984
2016    17      0.30259526      74.28043375
2016    18      0.38480736      90.89094875
2016    19      0.48834996      107.72155
2016    20      1.04221702      177.6252875
2016    21      0.83342922      157.47295
2016    22      0.21559901      55.9717875
2016    23      0.19056955      50.27550375
2016    24      0.25446642      63.536975
2016    25      0.27275365      68.13069125
2016    26      0.62979329      127.9803375
2016    27      0.56793394      118.8161
2016    28      0.83462202      153.626
2016    29      0.95532862      168.7965375
2016    30      0.52311874      112.37108
2017    1       0.21159559      56.83779
2017    2       0.49697204      108.78871375
2017    3       0.80092049      152.596775
2017    4       0.6199805       129.8820875
2017    5       0.6343928       132.0374625
2017    6       0.35877471      86.33476
2017    7       0.56997185      122.404275
2017    8       1.045006        178.89495
2017    9       1.14616259      186.1509
2017    10      0.78388385      149.0746625
2017    11      0.74343172      145.9290625
2017    12      0.71363244      141.1547125
2017    13      0.58559922      125.4862375
2017    14      0.6052241       126.69824
2017    15      0.29579642      74.06205125
2017    16      0.22682852      58.9926425
2017    17      0.22497309      58.59097125
2017    18      0.13286188      38.21630875
2017    19      0.1474174       41.92941
2017    20      0.11445011      33.87979125
2017    21      0.12897011      36.98567125
2017    22      0.33693491      81.78663375
2017    23      0.27528245      68.8880375
2017    24      0.09888193      29.9336175
2017    25      0.10732748      32.00165
2017    26      0.17163594      46.4764825
2017    27      0.23729674      60.8997775
2017    28      0.20641434      55.0781775
2017    29      0.30196126      75.2015375
2017    30      0.34308339      83.24982875
2018    1       0.64683475      133.5826375
2018    2       0.44147746      100.50433125
2018    3       0.38512105      90.781885
2018    4       0.52710377      114.28177875
2018    5       0.51754899      111.98256
2018    6       0.50221159      110.64273875
2018    7       0.42057589      97.99731375
2018    8       0.586908        124.8124
2018    9       0.57467696      123.841775
2018    10      0.48199271      108.64196375
2018    11      0.47030154      107.15075125
2018    12      0.47980882      108.59419
2018    13      0.53688899      117.55795
2018    14      0.47816605      108.468875
2018    15      0.53248863      117.15219125
2018    16      0.6851642       139.619625
2018    17      0.72165864      144.3945125
2018    18      0.74175746      147.0028
2018    19      1.3617652       203.281
2018    20      0.76699946      143.50266375
2018    21      0.34803354      84.16310875
2018    22      0.28318125      71.83552
2018    23      0.27834481      69.52352875
2018    24      0.83695298      156.4159375
2018    25      0.50801688      110.25745375
2018    26      0.40224949      94.4636775
2018    27      0.33723376      83.33405625
2018    28      0.33883302      83.7389975
2018    29      0.34791361      85.10801125
2018    30      0.77125655      148.453125
