####################################################################################################
# Month: 09Sep                                                                                     #
# Station: FLWO                                                                                    #
# Frequency: 345 GHz                                                                               #
# Columns are: year    day     segment         tau     Tb (K)                                      #
####################################################################################################
2009    1       0       2.762333        261.162
2009    1       1       2.393975        252.795
2009    1       2       2.125765        245.547
2009    1       3       2.028179        242.1812
2009    1       4       1.924397        237.3824
2009    1       5       2.129796        243.9572
2009    1       6       2.539248        254.9751
2009    1       7       3.078751        264.7776
2009    2       0       3.028301        264.8197
2009    2       1       3.00816         264.8886
2009    2       2       2.597408        257.6322
2009    2       3       2.641367        258.2662
2009    2       4       2.50646         255.0997
2009    2       5       2.360494        250.9423
2009    2       6       2.947049        261.486
2009    2       7       3.83286         271.1427
2009    3       0       3.606107        270.2268
2009    3       1       3.350303        268.3615
2009    3       2       3.540469        269.6907
2009    3       3       3.38017         267.8887
2009    3       4       3.206944        266.1959
2009    3       5       3.154           265.7357
2009    3       6       3.511405        269.328
2009    3       7       3.99455         272.9086
2009    4       0       3.327064        268.2654
2009    4       1       2.933917        263.8292
2009    4       2       3.32951         268.4088
2009    4       3       3.509062        269.8237
2009    4       4       2.729738        260.0179
2009    4       5       2.508391        255.1665
2009    4       6       2.440284        253.4755
2009    4       7       2.899162        262.3904
2009    5       0       2.899187        262.9205
2009    5       1       2.414884        253.6665
2009    5       2       2.333279        251.4699
2009    5       3       2.347645        251.4719
2009    5       4       2.419223        252.8568
2009    5       5       2.52005         254.8173
2009    5       6       2.4027          252.2359
2009    5       7       2.78735         260.3105
2009    6       0       2.776857        260.5736
2009    6       1       2.524624        256.0648
2009    6       2       2.496395        255.166
2009    6       3       2.582406        256.5531
2009    6       4       2.781408        260.0738
2009    6       5       2.635809        257.356
2009    6       6       2.752906        259.4082
2009    6       7       2.806105        260.7052
2009    7       0       2.455649        253.9113
2009    7       1       2.231484        248.2198
2009    7       2       2.430014        253.318
2009    7       3       2.728338        259.0921
2009    7       4       2.703245        258.4376
2009    7       5       2.548935        255.2971
2009    7       6       2.793952        259.5863
2009    7       7       3.383317        267.6092
2009    8       0       3.182544        266.0575
2009    8       1       2.716999        259.5709
2009    8       2       2.409515        252.9757
2009    8       3       2.408084        252.4253
2009    8       4       2.575437        255.7734
2009    8       5       2.535432        254.6386
2009    8       6       2.962614        262.1721
2009    8       7       3.491854        268.8652
2009    9       0       2.987114        263.4117
2009    9       1       2.433847        253.3447
2009    9       2       2.328002        250.6727
2009    9       3       2.349881        251.1453
2009    9       4       2.210072        247.3281
2009    9       5       2.198251        246.8397
2009    9       6       2.338567        250.4086
2009    9       7       2.928104        262.5253
2009    10      0       2.569499        256.493
2009    10      1       2.175302        247.0114
2009    10      2       2.250307        249.3206
2009    10      3       2.516152        256.0434
2009    10      4       2.183371        247.14
2009    10      5       1.754948        230.7557
2009    10      6       1.774416        231.8082
2009    10      7       2.316638        251.1266
2009    11      0       2.617873        258.3326
2009    11      1       2.589708        257.5642
2009    11      2       2.528111        256.4348
2009    11      3       2.434192        254.5057
2009    11      4       2.152403        246.7777
2009    11      5       2.070108        243.8312
2009    11      6       2.542337        256.6187
2009    11      7       2.760419        261.2302
2009    12      0       2.565735        257.6502
2009    12      1       2.43209         254.5379
2009    12      2       2.474438        255.6728
2009    12      3       2.579909        257.5065
2009    12      4       2.637464        257.9496
2009    12      5       2.660121        258.0569
2009    12      6       2.645583        257.7636
2009    12      7       2.787252        260.8819
2009    13      0       2.962564        264.0047
2009    13      1       3.079729        265.561
2009    13      2       2.831634        261.7567
2009    13      3       2.551496        256.2737
2009    13      4       2.379163        252.1871
2009    13      5       2.212247        247.5369
2009    13      6       2.308402        249.9534
2009    13      7       2.693783        258.9886
2009    14      0       2.795855        261.4119
2009    14      1       2.630595        258.5981
2009    14      2       2.187758        247.6514
2009    14      3       1.974549        239.9933
2009    14      4       1.700863        227.9738
2009    14      5       1.519835        218.122
2009    14      6       1.418516        211.9195
2009    14      7       1.58054         222.3961
2009    15      0       1.704535        228.7828
2009    15      1       1.512484        217.5868
2009    15      2       1.44499         213.2171
2009    15      3       1.402251        210.5765
2009    15      4       1.445351        213.1549
2009    15      5       1.365108        207.6976
2009    15      6       1.249035        199.2615
2009    15      7       1.352728        207.6413
2009    16      0       1.385203        210.122
2009    16      1       1.121352        189.5385
2009    16      2       0.9139444       167.791
2009    16      3       0.948238        171.2276
2009    16      4       0.9836169       174.6081
2009    16      5       0.89175         164.5613
2009    16      6       0.9306373       169.7074
2009    16      7       1.152038        191.5247
2009    17      0       1.245427        199.2846
2009    17      1       1.169372        192.9959
2009    17      2       1.067775        183.6192
2009    17      3       1.031878        179.8564
2009    17      4       0.990265        175.4347
2009    17      5       0.9485999       170.84
2009    17      6       1.174928        192.2659
2009    17      7       1.369604        207.1968
2009    18      0       1.422537        211.053
2009    18      1       1.401565        209.6841
2009    18      2       1.382782        208.674
2009    18      3       1.215703        196.3531
2009    18      4       1.192098        193.9635
2009    18      5       1.265507        199.4253
2009    18      6       1.526893        217.3691
2009    18      7       1.926693        236.8499
2009    19      0       2.313389        249.7863
2009    19      1       2.480557        253.6927
2009    19      2       2.320154        249.5184
2009    19      3       1.945572        237.6863
2009    19      4       1.910022        236.0647
2009    19      5       1.998883        239.1523
2009    19      6       1.968042        237.9716
2009    19      7       2.150231        244.6813
2009    20      0       2.349086        250.7162
2009    20      1       2.342131        251.0365
2009    20      2       1.85829         234.2325
2009    20      3       1.600253        221.5288
2009    20      4       1.574509        219.8416
2009    20      5       1.717931        227.1599
2009    20      6       1.966835        237.9342
2009    20      7       2.087083        242.7427
2009    21      0       1.953545        238.4945
2009    21      1       1.768611        230.8466
2009    21      2       1.702398        227.6733
2009    21      3       1.683611        226.5812
2009    21      4       1.739134        228.9678
2009    21      5       1.791896        231.1102
2009    21      6       1.844797        233.4719
2009    21      7       1.924134        237.15
2009    22      0       1.69447         227.6462
2009    22      1       1.27358         202.1482
2009    22      2       1.102351        187.9889
2009    22      3       1.072377        184.9972
2009    22      4       1.020458        179.8468
2009    22      5       1.074208        184.3135
2009    22      6       1.170625        192.0542
2009    22      7       1.311183        202.3446
2009    23      0       1.116345        187.2266
2009    23      1       0.77563         151.028
2009    23      2       0.5916419       125.5017
2009    23      3       0.4696851       105.6642
2009    23      4       0.4177219       96.79795
2009    23      5       0.3681144       87.99063
2009    23      6       0.3516313       85.40446
2009    23      7       0.9031872       167.2483
2009    24      0       1.127034        189.2893
2009    24      1       1.007726        178.2126
2009    24      2       0.7877998       153.9314
2009    24      3       0.6598742       136.8537
2009    24      4       0.627997        132.1887
2009    24      5       0.4685745       106.7352
2009    24      6       0.4863998       110.1973
2009    24      7       0.8200747       157.9681
2009    25      0       0.9699161       174.6845
2009    25      1       0.949464        172.6171
2009    25      2       0.8735383       164.2699
2009    25      3       0.8530048       161.7296
2009    25      4       0.7872246       153.7789
2009    25      5       0.7005261       142.6185
2009    25      6       0.8683486       163.4697
2009    25      7       1.100593        187.0493
2009    26      0       1.158971        192.2514
2009    26      1       1.09991         187.1926
2009    26      2       1.018489        179.7827
2009    26      3       0.9121339       168.9042
2009    26      4       0.8446272       161.1484
2009    26      5       0.7504839       149.4234
2009    26      6       0.7265808       146.3747
2009    26      7       0.883196        165.4464
2009    27      0       0.9369477       171.594
2009    27      1       1.105916        189.3117
2009    27      2       0.9232697       170.6484
2009    27      3       0.8978256       167.4279
2009    27      4       0.7627652       151.0573
2009    27      5       0.640943        134.3839
2009    27      6       0.7434284       147.9133
2009    27      7       0.8631384       162.0498
2009    28      0       0.9218734       168.3934
2009    28      1       0.9191019       168.1575
2009    28      2       0.9264859       169.0334
2009    28      3       0.9645558       172.9445
2009    28      4       0.9343258       169.8894
2009    28      5       0.8859346       164.6251
2009    28      6       0.9793132       174.2912
2009    28      7       1.253623        198.4432
2009    29      0       1.41702         210.2751
2009    29      1       1.389541        208.9781
2009    29      2       1.289063        202.5634
2009    29      3       1.310675        204.2206
2009    29      4       1.26442         200.2438
2009    29      5       1.382487        208.75
2009    29      6       1.468905        214.4742
2009    29      7       1.241099        197.9449
2009    30      0       1.202589        195.0353
2009    30      1       1.115232        187.2443
2009    30      2       1.031789        179.583
2009    30      3       1.020815        178.4347
2009    30      4       1.069913        182.6538
2009    30      5       1.428032        210.4946
2009    30      6       1.706243        226.5318
2009    30      7       1.993155        239.4435
2010    1       0       2.347252        254.1527
2010    1       1       1.773615        234.2089
2010    1       2       1.391571        212.4213
2010    1       3       1.332745        207.8222
2010    1       4       1.172666        195.1127
2010    1       5       0.9532242       174.5724
2010    1       6       1.054068        185.0702
2010    1       7       1.536261        221.5741
2010    2       0       1.540513        222.2869
2010    2       1       1.131314        192.9315
2010    2       2       0.7599553       153.1255
2010    2       3       0.5477842       122.2191
2010    2       4       0.485023        111.7806
2010    2       5       0.4822503       111.1957
2010    2       6       0.547974        122.1066
2010    2       7       0.6050462       131.106
2010    3       0       0.6318607       135.0401
2010    3       1       0.5751102       126.476
2010    3       2       0.7378921       149.5938
2010    3       3       1.169772        194.9745
2010    3       4       1.548403        221.3759
2010    3       5       1.41763         213.0915
2010    3       6       1.499582        218.8447
2010    3       7       1.921812        240.655
2010    4       0       2.124297        247.9467
2010    4       1       1.279993        203.5824
2010    4       2       1.19915         197.1685
2010    4       3       1.666976        227.5999
2010    4       4       1.605795        223.9657
2010    4       5       1.380532        209.7631
2010    4       6       1.283739        202.7375
2010    4       7       1.496047        217.8887
2010    5       0       1.501093        218.7515
2010    5       1       1.316459        206.4129
2010    5       2       1.166725        194.1837
2010    5       3       1.02604         180.6571
2010    5       4       1.05031         182.5852
2010    5       5       1.165259        193.1542
2010    5       6       1.159471        193.2763
2010    5       7       1.521681        219.2235
2010    6       0       1.79009         233.3299
2010    6       1       1.78562         233.2604
2010    6       2       2.037569        243.1013
2010    6       3       2.453108        254.27
2010    6       4       2.438093        253.4569
2010    6       5       2.402631        252.789
2010    6       6       2.926783        262.8731
2010    6       7       4.068682        273.7975
2010    7       0       4.166579        274.5432
2010    7       1       3.009849        264.5807
2010    7       2       2.818398        261.882
2010    7       3       2.809261        260.6482
2010    7       4       2.678465        258.3783
2010    7       5       2.51761         255.3655
2010    7       6       2.511721        255.677
2010    7       7       2.935226        264.0306
2010    8       0       3.361316        269.2925
2010    8       1       2.769834        261.5984
2010    8       2       2.080494        243.4589
2010    8       3       1.829245        233.6001
2010    8       4       1.729233        229.5275
2010    8       5       1.615688        224.0957
2010    8       6       1.479422        217.0513
2010    8       7       1.395956        211.9779
2010    9       0       1.253317        201.4869
2010    9       1       0.7757093       153.572
2010    9       2       0.4269659       101.1169
2010    9       3       0.3151314       80.12226
2010    9       4       0.3228785       81.333
2010    9       5       0.2177723       59.5045
2010    9       6       0.1705888       48.9072
2010    9       7       0.3684518       90.52718
2010    10      0       0.4242375       100.6204
2010    10      1       0.2930053       75.5061
2010    10      2       0.2984225       76.49962
2010    10      3       0.3070382       78.22295
2010    10      4       0.275933        71.76065
2010    10      5       0.2628821       68.94814
2010    10      6       0.2687783       70.27953
2010    10      7       0.3407068       84.77625
2010    11      0       0.3686031       90.19389
2010    11      1       0.2716814       71.13777
2010    11      2       0.2124043       58.07092
2010    11      3       0.2146993       58.16143
2010    11      4       0.2264215       60.35079
2010    11      5       0.2161923       57.95707
2010    11      6       0.2722218       70.19376
2010    11      7       0.4915758       110.4455
2010    12      0       0.5749089       123.095
2010    12      1       0.7063509       140.052
2010    12      2       0.9327887       166.005
2010    12      3       1.334382        200.3533
2010    12      4       1.761456        227.1334
2010    12      5       2.322065        248.7727
2010    12      6       2.829634        260.2822
2010    12      7       3.030176        262.907
2010    13      0       2.794839        259.3131
2010    13      1       2.439411        251.8419
2010    13      2       2.603283        256.4531
2010    13      3       2.751623        259.7837
2010    13      4       2.895742        262.2756
2010    13      5       3.017929        264.416
2010    13      6       2.739577        259.7541
2010    13      7       3.206275        266.7565
2010    14      0       3.562727        270.8411
2010    14      1       3.235543        268.114
2010    14      2       2.869301        263.0712
2010    14      3       2.970118        264.8368
2010    14      4       2.762554        261.4527
2010    14      5       2.690447        260.5962
2010    14      6       2.53897         258.0731
2010    14      7       2.440572        256.1214
2010    15      0       2.288166        252.4341
2010    15      1       1.970485        241.7852
2010    15      2       1.677381        228.9021
2010    15      3       1.585846        223.6687
2010    15      4       1.564647        222.2462
2010    15      5       1.498567        218.5832
2010    15      6       1.447843        215.674
2010    15      7       1.543962        222.1107
2010    16      0       1.848134        237.5046
2010    16      1       1.990381        242.835
2010    16      2       1.495683        219.2315
2010    16      3       1.164793        194.999
2010    16      4       1.190384        196.8663
2010    16      5       1.227735        199.4108
2010    16      6       1.343069        208.2007
2010    16      7       1.605511        224.8594
2010    17      0       1.708741        230.1841
2010    17      1       1.673206        228.0943
2010    17      2       1.63883         226.0686
2010    17      3       1.599313        223.8723
2010    17      4       1.334662        207.2827
2010    17      5       1.087495        187.2688
2010    17      6       1.223928        199.0801
2010    17      7       1.550832        221.6399
2010    18      0       1.46216         216.248
2010    18      1       1.259751        201.8151
2010    18      2       1.257421        201.4652
2010    18      3       1.350643        208.4118
2010    18      4       1.48252         217.2998
2010    18      5       1.376732        210.3904
2010    18      6       1.184878        196.3394
2010    18      7       1.553528        222.7444
2010    19      0       1.759999        233.6499
2010    19      1       1.504252        219.9022
2010    19      2       1.630969        226.8459
2010    19      3       1.685246        229.5097
2010    19      4       1.021263        181.7537
2010    19      5       0.8887919       167.8708
2010    19      6       1.219726        200.2161
2010    19      7       1.818002        236.1118
2010    20      0       2.080294        246.3278
2010    20      1       2.408718        255.7277
2010    20      2       2.707382        262.3453
2010    20      3       2.68957         261.9522
2010    20      4       2.569562        259.1433
2010    20      5       2.440552        255.8267
2010    20      6       2.412736        254.897
2010    20      7       2.566694        258.9513
2010    21      0       2.633678        260.8191
2010    21      1       2.629841        260.665
2010    21      2       2.607636        259.9052
2010    21      3       2.507585        257.5561
2010    21      4       2.549356        258.0692
2010    21      5       2.613948        259.0158
2010    21      6       2.993986        266.1623
2010    21      7       3.724149        273.9924
2010    22      0       4.06131         276.1808
2010    22      1       4.086362        276.4366
2010    22      2       4.667171        277.808
2010    22      3       4.823276        278.0325
2010    22      4       4.615351        277.6312
2010    22      5       4.856754        278.21
2010    22      6       4.96263         278.3818
2010    22      7       5.411861        279.1912
2010    23      0       5.048351        279.0812
2010    23      1       3.936089        275.1095
2010    23      2       2.459767        256.7395
2010    23      3       1.812308        235.6959
2010    23      4       1.142565        192.953
2010    23      5       0.6467266       136.6059
2010    23      6       0.6691416       139.7934
2010    23      7       0.9522423       174.1879
2010    24      0       1.08633         187.8357
2010    24      1       1.17344         195.6821
2010    24      2       1.320907        207.6025
2010    24      3       1.412215        213.8797
2010    24      4       1.343454        208.9916
2010    24      5       1.331842        207.9474
2010    24      6       1.724935        231.8697
2010    24      7       2.583021        260.0431
2010    25      0       2.598106        260.4326
2010    25      1       2.1547          249.088
2010    25      2       1.741737        232.891
2010    25      3       1.502767        219.7021
2010    25      4       1.286969        204.7997
2010    25      5       1.064021        185.3339
2010    25      6       1.029352        182.7772
2010    25      7       1.602648        225.5208
2010    26      0       2.120952        247.8131
2010    26      1       2.069045        245.8519
2010    26      2       1.491574        218.717
2010    26      3       1.379946        210.7074
2010    26      4       1.305045        205.0376
2010    26      5       0.9515155       173.5759
2010    26      6       1.37963         210.6003
2010    26      7       1.809921        234.668
2010    27      0       1.893739        237.9796
2010    27      1       1.725656        230.4647
2010    27      2       1.568216        221.0415
2010    27      3       1.569852        220.2939
2010    27      4       1.421993        211.5814
2010    27      5       1.484183        214.6224
2010    27      6       1.362249        205.6568
2010    27      7       1.763763        229.5258
2010    28      0       1.679576        223.8813
2010    28      1       1.4597          211.4952
2010    28      2       1.390912        209.2051
2010    28      3       1.421861        212.1081
2010    28      4       1.326265        204.2779
2010    28      5       1.240019        197.3415
2010    28      6       1.252552        199.354
2010    28      7       1.27568         201.8933
2010    29      0       1.229678        198.6173
2010    29      1       1.061044        184.1224
2010    29      2       1.014407        179.4498
2010    29      3       1.104514        187.6192
2010    29      4       1.071491        184.0598
2010    29      5       1.137491        189.5471
2010    29      6       1.402828        210.5306
2010    29      7       1.536026        219.4519
2010    30      0       1.554415        220.8772
2010    30      1       1.361874        208.9724
2010    30      2       1.284371        203.3512
2010    30      3       1.253059        200.9207
2010    30      4       1.166403        193.5142
2010    30      5       1.122144        189.2664
2010    30      6       1.300223        203.9391
2010    30      7       1.647106        226.2923
2011    1       0       4.117648        278.034
2011    1       1       3.920109        276.8025
2011    1       2       4.297481        277.3757
2011    1       3       3.77222         274.804
2011    1       4       3.487851        273.3728
2011    1       5       3.355584        272.1603
2011    1       6       3.463084        273.1377
2011    1       7       4.378238        278.8523
2011    2       0       4.698705        279.4845
2011    2       1       3.97725         276.3472
2011    2       2       3.985201        276.6264
2011    2       3       3.586386        273.8973
2011    2       4       3.007041        266.7518
2011    2       5       2.934077        265.0467
2011    2       6       2.68047         261.5782
2011    2       7       2.691563        262.1279
2011    3       0       3.317426        270.6418
2011    3       1       3.659292        273.1288
2011    3       2       3.183316        269.441
2011    3       3       2.860437        265.0046
2011    3       4       2.733393        262.6431
2011    3       5       2.471485        257.1704
2011    3       6       2.291471        252.7136
2011    3       7       2.140423        248.5106
2011    4       0       1.975871        243.1435
2011    4       1       1.941088        241.6523
2011    4       2       2.264113        252.1619
2011    4       3       2.531484        258.9954
2011    4       4       2.695318        262.0018
2011    4       5       2.745796        262.9354
2011    4       6       2.951628        266.5865
2011    4       7       3.792518        275.1861
2011    5       0       4.010236        276.7586
2011    5       1       3.828025        276.3919
2011    5       2       3.873234        275.9108
2011    5       3       3.431969        271.6073
2011    5       4       3.419643        271.0115
2011    5       5       3.479051        270.9891
2011    5       6       3.462554        270.9497
2011    5       7       4.517467        277.1912
2011    6       0       4.821841        278.1646
2011    6       1       4.313514        276.422
2011    6       2       4.026748        274.526
2011    6       3       3.511973        270.7006
2011    6       4       3.133014        266.7013
2011    6       5       3.052873        265.4796
2011    6       6       3.10712         266.1002
2011    6       7       3.419839        270.2801
2011    7       0       3.330281        270.0645
2011    7       1       3.060349        267.0378
2011    7       2       2.920608        265.0033
2011    7       3       2.886137        264.5119
2011    7       4       2.667339        260.7299
2011    7       5       2.517105        257.5816
2011    7       6       2.482316        256.7881
2011    7       7       2.775036        263.0723
2011    8       0       3.01184         267.1816
2011    8       1       2.793902        263.7795
2011    8       2       3.244401        269.6425
2011    8       3       3.601779        272.3186
2011    8       4       2.473394        254.5945
2011    8       5       1.671763        226.0769
2011    8       6       1.958799        239.9131
2011    8       7       2.449705        255.4532
2011    9       0       2.389379        254.5026
2011    9       1       1.971654        241.2219
2011    9       2       1.748769        230.9865
2011    9       3       1.971149        239.7662
2011    9       4       2.168409        246.4335
2011    9       5       2.186529        247.011
2011    9       6       2.23244         248.9163
2011    9       7       2.528727        257.3424
2011    10      0       2.760618        262.3047
2011    10      1       2.636738        260.116
2011    10      2       2.111675        245.7104
2011    10      3       1.733127        230.0169
2011    10      4       1.5397          219.6163
2011    10      5       1.695454        227.7834
2011    10      6       2.139617        245.9249
2011    10      7       2.653079        259.1818
2011    11      0       2.703141        259.6067
2011    11      1       2.378817        252.2489
2011    11      2       1.957672        238.3059
2011    11      3       1.82486         232.5316
2011    11      4       1.938372        237.1334
2011    11      5       1.880874        235.1426
2011    11      6       1.939923        237.7447
2011    11      7       2.448298        253.4487
2011    12      0       2.842247        261.2003
2011    12      1       2.262599        246.8205
2011    12      2       2.250691        245.9298
2011    12      3       2.739543        257.9152
2011    12      4       2.575525        255.4443
2011    12      5       2.500285        254.0107
2011    12      6       2.911305        261.9051
2011    12      7       4.151471        274.1285
2011    13      0       4.298735        275.0923
2011    13      1       3.692067        271.2217
2011    13      2       2.789456        259.3634
2011    13      3       2.686829        257.6744
2011    13      4       2.396437        251.3478
2011    13      5       2.685433        256.5171
2011    13      6       2.595035        255.3282
2011    13      7       2.952329        262.2814
2011    14      0       3.017202        263.7387
2011    14      1       2.585845        256.0252
2011    14      2       2.23643         246.8867
2011    14      3       2.350112        249.4984
2011    14      4       2.446207        252.4137
2011    14      5       2.070029        241.658
2011    14      6       2.200338        245.2903
2011    14      7       2.766087        258.6784
2011    15      0       2.582655        255.3732
2011    15      1       1.690822        226.5766
2011    15      2       1.519515        217.5122
2011    15      3       1.718499        227.6769
2011    15      4       1.709066        226.8911
2011    15      5       1.604547        221.1456
2011    15      6       1.901398        234.5438
2011    15      7       2.310106        248.8112
2011    16      0       2.186272        245.4809
2011    16      1       1.762792        229.8888
2011    16      2       1.780207        230.5399
2011    16      3       1.937503        236.7542
2011    16      4       1.67757         225.0132
2011    16      5       1.357264        206.0426
2011    16      6       1.375679        208.0806
2011    16      7       1.684554        226.3787
2011    17      0       2.036807        241.4897
2011    17      1       1.745631        229.679
2011    17      2       0.8348443       159.6022
2011    17      3       0.4397352       101.3429
2011    17      4       0.4067854       95.08663
2011    17      5       0.3757888       89.65397
2011    17      6       0.4345724       100.3383
2011    17      7       0.6529218       135.3119
2011    18      0       0.7130693       144.196
2011    18      1       0.5795409       125.4913
2011    18      2       0.4997615       112.6344
2011    18      3       0.4617812       105.9611
2011    18      4       0.3893279       92.89257
2011    18      5       0.3643901       88.01059
2011    18      6       0.5059006       113.0062
2011    18      7       0.8077713       155.9497
2011    19      0       0.839992        160.019
2011    19      1       0.69541         141.6398
2011    19      2       0.6061497       128.8699
2011    19      3       0.595595        127.2128
2011    19      4       0.5643557       122.405
2011    19      5       0.5008599       112.0887
2011    19      6       0.5964728       127.5845
2011    19      7       0.9843765       176.0822
2011    20      0       1.078991        185.5909
2011    20      1       1.070175        184.8863
2011    20      2       1.085956        186.3047
2011    20      3       1.027239        180.5645
2011    20      4       0.7775738       152.8163
2011    20      5       0.6674708       138.0318
2011    20      6       0.894008        166.0706
2011    20      7       1.253446        199.2934
2011    21      0       1.397765        209.8665
2011    21      1       1.426249        211.7092
2011    21      2       1.324932        204.2572
2011    21      3       1.232026        196.9218
2011    21      4       1.232421        196.575
2011    21      5       1.327522        203.0572
2011    21      6       1.444361        210.22
2011    21      7       1.673296        223.2399
2011    22      0       1.857082        232.1305
2011    22      1       1.841305        231.6291
2011    22      2       1.847334        232.166
2011    22      3       1.785818        229.6686
2011    22      4       1.668049        223.9467
2011    22      5       1.56219         218.5386
2011    22      6       1.543138        217.518
2011    22      7       1.669541        224.59
2011    23      0       1.747717        228.6162
2011    23      1       1.798226        231.0222
2011    23      2       1.77728         230.1473
2011    23      3       1.627132        222.8871
2011    23      4       1.505318        215.9944
2011    23      5       1.427199        211.0817
2011    23      6       1.419114        210.9596
2011    23      7       1.503024        216.5532
2011    24      0       1.576288        220.9955
2011    24      1       1.482923        215.6827
2011    24      2       1.489925        215.87
2011    24      3       1.633961        223.4668
2011    24      4       1.589341        220.7239
2011    24      5       1.540809        217.85
2011    24      6       1.595001        220.7372
2011    24      7       1.927481        236.4157
2011    25      0       2.044631        240.7009
2011    25      1       1.877712        234.1886
2011    25      2       1.856932        233.6755
2011    25      3       2.103048        242.7666
2011    25      4       1.854601        233.1811
2011    25      5       1.639867        222.7852
2011    25      6       1.628902        222.4594
2011    25      7       1.567776        219.9117
2011    26      0       1.333532        205.319
2011    26      1       1.080889        184.9664
2011    26      2       1.03493         180.4754
2011    26      3       0.9422475       170.8843
2011    26      4       0.7883248       153.2565
2011    26      5       0.7559294       149.4158
2011    26      6       1.030345        179.5017
2011    26      7       1.425537        210.935
2011    27      0       1.822083        232.3726
2011    27      1       1.871811        234.49
2011    27      2       1.936629        237.3212
2011    27      3       2.273241        248.2432
2011    27      4       2.442432        252.234
2011    27      5       2.313057        248.4843
2011    27      6       2.253219        246.1488
2011    27      7       1.966188        236.5903
2011    28      0       1.626638        221.5736
2011    28      1       1.464069        212.3473
2011    28      2       1.703729        225.5065
2011    28      3       1.967418        236.4859
2011    28      4       2.292983        247.1399
2011    28      5       2.423142        250.736
2011    28      6       2.21344         245.3082
2011    28      7       2.117629        242.7995
2011    29      0       2.024689        240.3923
2011    29      1       2.090237        243.4106
2011    29      2       2.136639        244.6644
2011    29      3       1.981692        239.5926
2011    29      4       1.754339        229.8656
2011    29      5       1.573924        220.7022
2011    29      6       1.460895        213.9714
2011    29      7       1.639733        224.6947
2011    30      0       1.888254        236.3286
2011    30      1       1.802965        232.3642
2011    30      2       1.579917        221.1851
2011    30      3       1.484632        215.212
2011    30      4       1.743129        229.1421
2011    30      5       1.987978        239.1196
2011    30      6       2.128401        243.8745
2011    30      7       2.35107         250.5614
2012    1       0       3.481974        271.3781
2012    1       1       3.177989        268.4722
2012    1       2       3.261031        269.3624
2012    1       3       3.391952        271.2417
2012    1       4       3.215049        268.4961
2012    1       5       2.778577        262.2072
2012    1       6       2.523523        257.3002
2012    1       7       2.66043         260.6251
2012    2       0       2.885772        264.9875
2012    2       1       2.644061        260.892
2012    2       2       2.350894        254.0422
2012    2       3       2.167744        248.3746
2012    2       4       1.952127        240.4237
2012    2       5       1.826945        234.7872
2012    2       6       1.962324        240.9228
2012    2       7       2.684564        261.7163
2012    3       0       3.113846        268.6931
2012    3       1       3.098954        268.4466
2012    3       2       2.91521         265.6887
2012    3       3       2.977119        266.0356
2012    3       4       3.211647        268.6162
2012    3       5       3.440543        270.604
2012    3       6       3.327834        269.4017
2012    3       7       3.284216        269.0185
2012    4       0       2.887637        263.9616
2012    4       1       2.769669        262.1515
2012    4       2       3.255995        268.7067
2012    4       3       3.418857        269.9562
2012    4       4       3.419037        269.7822
2012    4       5       3.549179        270.8314
2012    4       6       3.63728         271.4658
2012    4       7       4.075936        274.4479
2012    5       0       3.727598        272.4533
2012    5       1       3.256236        268.8071
2012    5       2       3.468985        270.6233
2012    5       3       3.523485        270.9782
2012    5       4       3.244761        267.8687
2012    5       5       3.007917        264.596
2012    5       6       3.126059        266.2286
2012    5       7       3.311388        268.6109
2012    6       0       3.406756        270.1138
2012    6       1       3.360708        269.7116
2012    6       2       3.47264         271.3199
2012    6       3       3.490667        271.7219
2012    6       4       3.239255        268.711
2012    6       5       3.195927        267.8439
2012    6       6       3.470138        270.5515
2012    6       7       4.034878        274.4238
2012    7       0       3.938433        274.0166
2012    7       1       3.832798        273.0893
2012    7       2       3.974966        273.4533
2012    7       3       4.182415        274.0054
2012    7       4       4.683459        276.0936
2012    7       5       4.835662        277.0479
2012    7       6       4.848083        277.0648
2012    7       7       4.834302        278.0941
2012    8       0       4.541401        277.3835
2012    8       1       4.1958          275.1519
2012    8       2       3.931019        273.9159
2012    8       3       4.055059        274.131
2012    8       4       3.956765        273.1398
2012    8       5       3.771678        271.9398
2012    8       6       3.705154        271.9115
2012    8       7       3.596916        271.5584
2012    9       0       3.987146        274.3166
2012    9       1       4.192401        274.9312
2012    9       2       3.349875        266.8902
2012    9       3       3.379986        268.0132
2012    9       4       3.343073        269.3541
2012    9       5       3.651124        272.1846
2012    9       6       3.897537        273.2839
2012    9       7       3.935403        273.389
2012    10      0       3.848871        272.691
2012    10      1       2.878883        261.6545
2012    10      2       2.686784        258.5576
2012    10      3       3.002739        264.2487
2012    10      4       3.351645        268.1585
2012    10      5       3.089878        264.4362
2012    10      6       2.991621        262.4355
2012    10      7       2.924746        261.0533
2012    11      0       2.91669         260.9497
2012    11      1       2.793456        258.8604
2012    11      2       2.832038        259.8174
2012    11      3       2.872601        260.1593
2012    11      4       2.996324        261.9809
2012    11      5       3.528093        268.4435
2012    11      6       3.561768        268.7986
2012    11      7       4.036816        272.467
2012    12      0       3.550381        268.6824
2012    12      1       2.390794        249.4198
2012    12      2       2.195846        244.2339
2012    12      3       2.269135        247.1314
2012    12      4       2.200431        246.4181
2012    12      5       2.072413        243.5127
2012    12      6       1.986951        241.29
2012    12      7       1.863385        236.2412
2012    13      0       1.670269        226.8607
2012    13      1       1.15561         192.1788
2012    13      2       0.884067        165.3851
2012    13      3       0.846045        161.006
2012    13      4       0.8655748       162.853
2012    13      5       0.962558        173.1212
2012    13      6       1.180443        194.122
2012    13      7       2.02016         241.2123
2012    14      0       2.466552        254.2194
2012    14      1       2.11593         244.6732
2012    14      2       1.841469        234.1826
2012    14      3       1.906996        236.0761
2012    14      4       1.416424        210.5618
2012    14      5       1.013099        178.296
2012    14      6       1.147715        190.411
2012    14      7       1.538217        217.6321
2012    15      0       1.648235        223.5999
2012    15      1       1.521566        216.4843
2012    15      2       1.306061        201.9197
2012    15      3       1.112448        186.3748
2012    15      4       0.9523685       171.3959
2012    15      5       0.7215054       144.8342
2012    15      6       0.6714916       138.2829
2012    15      7       0.9706015       174.3862
2012    16      0       1.060784        183.3697
2012    16      1       0.7905829       154.4264
2012    16      2       0.6788428       139.7317
2012    16      3       0.6067966       129.32
2012    16      4       0.5344683       117.8847
2012    16      5       0.4460686       103.0323
2012    16      6       0.4554333       104.861
2012    16      7       0.8229503       157.8409
2012    17      0       0.9217221       169.1552
2012    17      1       0.7794505       152.7814
2012    17      2       0.5315793       117.8777
2012    17      3       0.4350421       101.7595
2012    17      4       0.3686874       89.25498
2012    17      5       0.397169        94.3519
2012    17      6       0.7192202       144.6666
2012    17      7       1.207297        195.526
2012    18      0       1.193344        194.69
2012    18      1       0.8552047       161.9199
2012    18      2       0.654493        136.2867
2012    18      3       0.7955107       154.2952
2012    18      4       0.9077888       167.0168
2012    18      5       0.9923974       175.5944
2012    18      6       0.8920165       165.2022
2012    18      7       1.084499        185.001
2012    19      0       1.287339        201.9241
2012    19      1       1.162198        192.222
2012    19      2       0.9875585       176.406
2012    19      3       0.9834166       175.7493
2012    19      4       0.9332796       170.1921
2012    19      5       0.8609372       162.0496
2012    19      6       0.8511426       161.1579
2012    19      7       1.095022        186.2483
2012    20      0       1.295282        202.7208
2012    20      1       1.326795        205.0285
2012    20      2       1.35975         207.5164
2012    20      3       1.383275        209.2815
2012    20      4       1.519312        217.7077
2012    20      5       1.671088        225.6198
2012    20      6       1.836187        233.4526
2012    20      7       2.002529        240.95
2012    21      0       2.04768         243.1967
2012    21      1       1.854427        235.7759
2012    21      2       1.798135        233.0452
2012    21      3       1.862192        235.7435
2012    21      4       1.930302        238.2831
2012    21      5       1.875408        235.764
2012    21      6       1.760286        230.6515
2012    21      7       1.763299        231.1633
2012    22      0       1.847834        235.2948
2012    22      1       1.804328        233.4058
2012    22      2       1.752905        231.058
2012    22      3       1.799535        232.8609
2012    22      4       1.800321        231.9606
2012    22      5       1.664745        224.9151
2012    22      6       1.650477        225.0184
2012    22      7       1.970647        240.1547
2012    23      0       2.065342        243.6862
2012    23      1       1.922141        237.7908
2012    23      2       2.072687        242.6251
2012    23      3       1.856801        234.1799
2012    23      4       1.708063        226.8897
2012    23      5       1.532776        217.6455
2012    23      6       1.371389        207.8336
2012    23      7       1.168083        192.1647
2012    24      0       1.279018        200.8795
2012    24      1       1.319108        203.5867
2012    24      2       1.583018        220.87
2012    24      3       1.79769         231.658
2012    24      4       1.715044        227.5243
2012    24      5       1.684283        225.5586
2012    24      6       1.838163        232.7101
2012    24      7       2.181002        245.4143
2012    25      0       1.843926        233.7134
2012    25      1       1.353187        206.9402
2012    25      2       1.288265        201.8969
2012    25      3       1.337652        205.0736
2012    25      4       1.035535        179.9762
2012    25      5       0.9101468       167.0586
2012    25      6       1.049529        181.1788
2012    25      7       1.34577         205.6055
2012    26      0       1.500347        215.9288
2012    26      1       1.176377        193.131
2012    26      2       1.017737        178.597
2012    26      3       1.00669         177.0379
2012    26      4       0.8809909       163.6038
2012    26      5       0.7456155       147.3103
2012    26      6       0.8186648       156.5509
2012    26      7       0.989132        175.7223
2012    27      0       1.064401        183.4593
2012    27      1       0.9821649       175.6707
2012    27      2       1.164961        192.4184
2012    27      3       1.45867         213.5816
2012    27      4       1.486088        214.7604
2012    27      5       1.517137        216.1691
2012    27      6       1.761651        228.8007
2012    27      7       2.306353        248.0273
2012    28      0       2.384461        249.9068
2012    28      1       2.369445        249.5004
2012    28      2       2.749363        257.5368
2012    28      3       2.925023        260.2349
2012    28      4       3.038776        261.591
2012    28      5       2.606697        254.1813
2012    28      6       2.575645        253.6218
2012    28      7       3.011641        261.7159
2012    29      0       2.442482        251.7419
2012    29      1       1.804215        231.2464
2012    29      2       1.512366        216.0902
2012    29      3       1.356824        206.0795
2012    29      4       1.19428         193.7148
2012    29      5       1.211959        194.5934
2012    29      6       1.124168        187.3684
2012    29      7       1.220626        195.4807
2012    30      0       1.293315        201.0117
2012    30      1       1.150505        189.4204
2012    30      2       1.240896        197.4519
2012    30      3       1.313091        202.8161
2012    30      4       1.109639        185.9858
2012    30      5       0.9565407       171.0344
2012    30      6       0.9854818       174.1801
2012    30      7       1.090821        184.9531
2013    1       0       3.478866        272.3275
2013    1       1       2.798779        264.2976
2013    1       2       2.314704        253.5473
2013    1       3       2.127125        247.8071
2013    1       4       2.244201        251.4435
2013    1       5       2.390371        255.3193
2013    1       6       2.274992        252.4762
2013    1       7       2.90636         265.9071
2013    2       0       3.494389        273.0587
2013    2       1       3.108405        269.1699
2013    2       2       3.054867        268.3444
2013    2       3       3.453794        272.0886
2013    2       4       3.354385        271.1237
2013    2       5       3.810436        274.0766
2013    2       6       3.431958        270.8342
2013    2       7       3.198909        269.4366
2013    3       0       3.216025        270.1393
2013    3       1       3.401017        272.1863
2013    3       2       3.988072        275.9445
2013    3       3       2.916442        265.8087
2013    3       4       2.6968          261.9155
2013    3       5       2.519679        257.923
2013    3       6       2.547204        257.9664
2013    3       7       3.897179        274.0644
2013    4       0       3.953749        274.2366
2013    4       1       3.257516        268.4031
2013    4       2       3.516669        270.4197
2013    4       3       2.289337        251.4164
2013    4       4       1.385866        210.6288
2013    4       5       1.103614        188.1302
2013    4       6       1.537872        219.7893
2013    4       7       2.465534        255.4578
2013    5       0       2.846808        263.4857
2013    5       1       2.664001        260.5189
2013    5       2       2.105761        245.7403
2013    5       3       1.791859        233.4959
2013    5       4       1.832523        235.0873
2013    5       5       1.92276         238.5731
2013    5       6       2.127618        246.068
2013    5       7       3.062334        266.2243
2013    6       0       3.322496        269.6198
2013    6       1       3.048171        266.9194
2013    6       2       2.832503        263.1512
2013    6       3       2.808134        262.5621
2013    6       4       3.006391        265.4688
2013    6       5       3.064687        265.973
2013    6       6       3.089663        266.0453
2013    6       7       3.883604        273.6219
2013    7       0       4.215913        275.5968
2013    7       1       3.898539        273.4347
2013    7       2       3.389116        268.8797
2013    7       3       3.96945         272.4425
2013    7       4       3.599891        268.913
2013    7       5       3.984129        272.543
2013    7       6       4.564467        276.2575
2013    7       7       4.284064        275.3084
2013    8       0       3.794346        272.4369
2013    8       1       3.492725        270.6042
2013    8       2       3.876852        273.4603
2013    8       3       4.044082        274.5065
2013    8       4       4.406338        275.91
2013    8       5       4.303968        275.299
2013    8       6       3.562332        270.4376
2013    8       7       4.254765        275.1148
2013    9       0       4.008794        273.7877
2013    9       1       3.657006        270.9078
2013    9       2       3.534075        269.4249
2013    9       3       3.721061        270.6527
2013    9       4       4.083034        272.94
2013    9       5       4.545314        275.4668
2013    9       6       4.389867        274.7801
2013    9       7       4.206798        272.9262
2013    10      0       2.956474        262.0924
2013    10      1       2.045947        240.7936
2013    10      2       1.673891        224.2587
2013    10      3       1.529181        216.176
2013    10      4       1.562128        217.9638
2013    10      5       1.857823        232.2628
2013    10      6       2.520723        254.1461
2013    10      7       3.556287        269.1878
2013    11      0       3.126389        265.0428
2013    11      1       2.306462        249.7597
2013    11      2       1.914563        237.0063
2013    11      3       1.623557        223.8265
2013    11      4       1.464254        214.3628
2013    11      5       1.335258        205.7062
2013    11      6       1.387003        209.6941
2013    11      7       1.565316        220.7734
2013    12      0       1.606528        223.7411
2013    12      1       1.50008         217.9469
2013    12      2       1.770077        232.6025
2013    12      3       1.888091        238.064
2013    12      4       1.786837        233.4007
2013    12      5       1.73607         230.523
2013    12      6       1.828778        235.421
2013    12      7       2.394764        254.8214
2013    13      0       2.608026        260.0573
2013    13      1       2.502265        257.9474
2013    13      2       2.21783         250.6466
2013    13      3       1.859543        237.7116
2013    13      4       1.505731        219.611
2013    13      5       1.165462        195.3548
2013    13      6       1.253972        202.7646
2013    13      7       1.685645        230.0351
2013    14      0       2.016908        244.3685
2013    14      1       2.079932        246.5742
2013    14      2       1.821623        236.6412
2013    14      3       1.565191        223.5232
2013    14      4       1.620125        226.0802
2013    14      5       1.555912        222.2627
2013    14      6       1.736379        231.9367
2013    14      7       2.115653        247.6788
2013    15      0       2.636863        261.0903
2013    15      1       3.013094        266.7225
2013    15      2       2.848251        264.2484
2013    15      3       2.128325        247.9036
2013    15      4       1.658378        228.2592
2013    15      5       1.453281        216.3242
2013    15      6       1.752461        233.0405
2013    15      7       2.430716        256.4752
2013    16      0       2.98487         266.8161
2013    16      1       3.0763          267.8568
2013    16      2       2.553625        259.1492
2013    16      3       2.044257        245.0507
2013    16      4       1.86325         237.9411
2013    16      5       1.740254        232.177
2013    16      6       1.858106        237.52
2013    16      7       2.427136        256.3075
2013    17      0       2.852414        265.0398
2013    17      1       2.93314         266.3098
2013    17      2       2.551737        259.8011
2013    17      3       2.392838        255.9805
2013    17      4       2.331406        254.0564
2013    17      5       2.179629        249.4684
2013    17      6       2.081364        246.3096
2013    17      7       2.426668        256.6375
2013    18      0       2.923507        266.5788
2013    18      1       3.025695        268.431
2013    18      2       2.793165        264.6488
2013    18      3       2.881506        265.992
2013    18      4       2.238297        251.6687
2013    18      5       1.744928        232.9991
2013    18      6       1.601067        225.4204
2013    18      7       2.017367        244.3552
2013    19      0       2.127499        248.4143
2013    19      1       1.782105        235.3735
2013    19      2       1.55529         223.4246
2013    19      3       1.469684        218.0131
2013    19      4       1.686951        230.115
2013    19      5       1.975128        242.6856
2013    19      6       1.815229        235.8801
2013    19      7       2.274674        252.7399
2013    20      0       2.533246        259.7993
2013    20      1       2.319063        254.7219
2013    20      2       2.17885         250.0793
2013    20      3       2.130304        248.4726
2013    20      4       1.993194        243.5761
2013    20      5       1.953791        241.7385
2013    20      6       2.253796        251.7475
2013    20      7       3.001791        266.6673
2013    21      0       3.164936        268.9278
2013    21      1       2.938715        265.8539
2013    21      2       2.629349        260.3709
2013    21      3       2.030931        244.1343
2013    21      4       1.642212        227.158
2013    21      5       1.627513        225.7903
2013    21      6       1.841815        236.0148
2013    21      7       2.682331        260.7757
2013    22      0       3.279926        269.4392
2013    22      1       3.257134        269.362
2013    22      2       2.593188        259.4652
2013    22      3       2.23014         250.2777
2013    22      4       2.009544        242.4634
2013    22      5       1.553199        221.3144
2013    22      6       1.395014        211.4268
2013    22      7       1.060758        185.2482
2013    23      0       0.7275196       147.1388
2013    23      1       0.4605027       106.1111
2013    23      2       0.4139454       97.79256
2013    23      3       0.422653        99.83301
2013    23      4       0.4138805       98.5958
2013    23      5       0.4056975       97.14305
2013    23      6       0.4350875       102.6324
2013    23      7       0.4940351       113.5645
2013    24      0       0.476535        110.9322
2013    24      1       0.4372051       104.3263
2013    24      2       0.4092887       98.9884
2013    24      3       0.4262704       101.8195
2013    24      4       0.4587147       107.1322
2013    24      5       0.4274006       101.1317
2013    24      6       0.4943867       113.1906
2013    24      7       0.7913337       156.2136
2013    25      0       1.001732        179.9178
2013    25      1       1.012522        181.6266
2013    25      2       1.158274        195.0032
2013    25      3       1.081531        188.04
2013    25      4       1.006176        180.2157
2013    25      5       1.023293        181.5097
2013    25      6       1.126712        191.1752
2013    25      7       1.119706        190.3408
2013    26      0       1.206496        197.8229
2013    26      1       1.270743        203.3838
2013    26      2       1.050887        184.3344
2013    26      3       0.6377106       134.3675
2013    26      4       0.8604604       163.4949
2013    26      5       1.302919        204.2193
2013    26      6       1.47689         215.3828
2013    26      7       1.562907        220.6
2013    27      0       1.541017        219.7805
2013    27      1       1.257609        201.1491
2013    27      2       0.9267472       170.4056
2013    27      3       0.728777        146.8089
2013    27      4       0.6483084       136.0761
2013    27      5       0.7802373       153.8155
2013    27      6       0.7774762       152.9016
2013    27      7       0.8295581       158.4134
2013    28      0       0.7084846       143.6101
2013    28      1       0.5239192       117.4572
2013    28      2       0.3751627       91.81605
2013    28      3       0.2878499       74.57732
2013    28      4       0.2958683       76.23409
2013    28      5       0.3789334       92.75926
2013    28      6       0.5665485       124.1505
2013    28      7       0.7187091       147.7009
2013    29      0       0.7966032       156.8301
2013    29      1       0.6991372       145.5345
2013    29      2       0.6244928       135.4464
2013    29      3       0.5725169       127.0856
2013    29      4       0.5666048       125.9469
2013    29      5       0.5468187       122.8879
2013    29      6       0.5103766       117.2785
2013    29      7       0.5754157       127.4318
2013    30      0       0.6520737       137.8942
2013    30      1       0.5299295       120.4266
2013    30      2       0.3892335       94.98623
2013    30      3       0.3013505       77.53281
2013    30      4       0.236382        63.55371
2013    30      5       0.2145927       58.58585
2013    30      6       0.3044441       77.97517
2013    30      7       0.4075858       98.39502
2014    1       0       1.497872        220.228
2014    1       1       1.222375        200.9179
2014    1       2       0.9049605       170.3058
2014    1       3       0.7139291       146.4061
2014    1       4       0.6398196       135.6504
2014    1       5       0.5633223       123.7002
2014    1       6       0.7573178       151.8909
2014    1       7       1.007982        180.5627
2014    2       0       1.107712        190.6132
2014    2       1       0.9615737       176.5228
2014    2       2       0.9275557       172.5078
2014    2       3       1.034598        183.3965
2014    2       4       1.099369        189.4872
2014    2       5       1.219587        199.5227
2014    2       6       1.49131         218.7167
2014    2       7       2.098502        247.4539
2014    3       0       2.121491        248.2707
2014    3       1       2.074095        246.8092
2014    3       2       2.105176        247.707
2014    3       3       2.321652        253.6896
2014    3       4       2.363582        254.1219
2014    3       5       2.404651        254.1589
2014    3       6       2.866236        263.2083
2014    3       7       3.105073        267.0524
2014    4       0       3.356022        270.4127
2014    4       1       3.184119        269.1837
2014    4       2       3.648504        273.3991
2014    4       3       3.827383        274.8368
2014    4       4       2.834641        263.7868
2014    4       5       2.498066        256.1201
2014    4       6       2.87919         263.3264
2014    4       7       3.265852        268.548
2014    5       0       3.00498         265.468
2014    5       1       2.556842        257.8567
2014    5       2       2.395974        252.9935
2014    5       3       2.250057        248.4237
2014    5       4       1.995284        240.8014
2014    5       5       1.973298        240.2966
2014    5       6       2.523761        257.2568
2014    5       7       3.166065        267.8719
2014    6       0       3.427041        270.9128
2014    6       1       3.25697         269.3637
2014    6       2       2.790996        263.0441
2014    6       3       2.993699        265.766
2014    6       4       3.306994        269.1283
2014    6       5       3.484255        270.5776
2014    6       6       4.104318        274.7942
2014    6       7       4.490912        276.8129
2014    7       0       4.39349         276.0165
2014    7       1       3.819784        272.4475
2014    7       2       3.420376        269.1845
2014    7       3       3.24553         267.5463
2014    7       4       3.23428         267.849
2014    7       5       3.278179        268.5154
2014    7       6       3.632359        272.2039
2014    7       7       4.555402        277.1423
2014    8       0       4.578969        277.6918
2014    8       1       4.227414        276.3055
2014    8       2       4.18503         275.9809
2014    8       3       4.544228        277.3067
2014    8       4       4.545468        277.1116
2014    8       5       3.899826        274.2248
2014    8       6       3.764046        274.3133
2014    8       7       4.084577        275.7404
2014    9       0       3.09369         267.8103
2014    9       1       2.325843        252.3226
2014    9       2       1.852784        235.9183
2014    9       3       1.627316        224.9003
2014    9       4       1.526257        219.044
2014    9       5       1.453907        214.8051
2014    9       6       1.495791        217.7128
2014    9       7       1.639303        226.0637
2014    10      0       1.595859        223.8586
2014    10      1       1.301101        204.3977
2014    10      2       1.307972        204.8283
2014    10      3       1.367841        208.9056
2014    10      4       1.373763        208.5604
2014    10      5       1.452629        213.1887
2014    10      6       1.708829        228.1436
2014    10      7       2.025256        242.2078
2014    11      0       2.034545        242.9925
2014    11      1       1.895104        237.3322
2014    11      2       1.979948        240.2173
2014    11      3       2.20614         247.6706
2014    11      4       2.287275        250.2792
2014    11      5       2.255316        249.6712
2014    11      6       2.45714         254.949
2014    11      7       2.800532        262.4104
2014    12      0       2.957207        265.2901
2014    12      1       3.047461        267.6017
2014    12      2       2.604525        259.7578
2014    12      3       2.577416        259.3257
2014    12      4       2.759004        262.4639
2014    12      5       2.827078        263.3602
2014    12      6       2.623894        259.8977
2014    12      7       2.870824        264.6061
2014    13      0       3.191393        268.9847
2014    13      1       2.489831        257.3057
2014    13      2       2.268894        251.1106
2014    13      3       2.555227        258.1096
2014    13      4       2.933249        265.1683
2014    13      5       2.94167         264.9771
2014    13      6       2.747013        261.0988
2014    13      7       3.075341        265.8947
2014    14      0       3.376201        269.7071
2014    14      1       3.098169        267.1506
2014    14      2       2.842616        263.0266
2014    14      3       2.629444        258.6879
2014    14      4       2.600425        258.4858
2014    14      5       2.677204        260.0968
2014    14      6       2.720837        260.5402
2014    14      7       3.008219        265.2456
2014    15      0       3.283752        268.9227
2014    15      1       3.351064        269.5781
2014    15      2       3.237863        268.6347
2014    15      3       3.073423        266.8403
2014    15      4       2.980096        265.2325
2014    15      5       2.891215        263.6445
2014    15      6       2.976187        265.3254
2014    15      7       3.670175        272.9546
2014    16      0       3.449659        271.2095
2014    16      1       3.512138        271.0353
2014    16      2       3.595627        271.0132
2014    16      3       3.962943        272.8365
2014    16      4       3.9893          273.1199
2014    16      5       3.606961        271.597
2014    16      6       3.907958        273.4762
2014    16      7       4.843013        277.1115
2014    17      0       4.202922        274.6589
2014    17      1       3.915382        273.2022
2014    17      2       4.0809          274.3412
2014    17      3       4.113979        274.5276
2014    17      4       4.291468        275.1228
2014    17      5       4.342722        274.5473
2014    17      6       4.898258        277.4342
2014    17      7       5.071471        278.7771
2014    18      0       5.11762         279.1237
2014    18      1       5.097659        279.1429
2014    18      2       4.871546        278.965
2014    18      3       4.972341        279.9451
2014    18      4       5.229241        280.5401
2014    18      5       4.852083        279.4081
2014    18      6       3.768573        274.8159
2014    18      7       3.815017        275.6596
2014    19      0       3.243442        271.0006
2014    19      1       2.639829        261.6927
2014    19      2       2.524378        259.3645
2014    19      3       2.348741        255.0652
2014    19      4       2.292586        252.7801
2014    19      5       2.380759        254.73
2014    19      6       2.995497        266.4337
2014    19      7       3.763024        274.1834
2014    20      0       3.744937        274.1881
2014    20      1       3.676185        273.6978
2014    20      2       3.517835        272.3691
2014    20      3       3.727135        273.73
2014    20      4       4.126655        275.9488
2014    20      5       3.987824        275.0286
2014    20      6       4.014605        275.3152
2014    20      7       4.30541         277.192
2014    21      0       3.816338        274.7394
2014    21      1       2.989543        267.0412
2014    21      2       2.924248        265.9262
2014    21      3       3.320282        270.773
2014    21      4       3.55801         272.9955
2014    21      5       3.097719        268.2773
2014    21      6       3.332123        271.0996
2014    21      7       4.471532        278.5049
2014    22      0       4.447604        278.7695
2014    22      1       4.899908        280.1865
2014    22      2       4.643449        279.5669
2014    22      3       4.782441        279.4409
2014    22      4       4.370544        277.6421
2014    22      5       4.045972        275.9475
2014    22      6       3.572933        273.224
2014    22      7       3.957906        276.0091
2014    23      0       3.729255        274.4099
2014    23      1       3.421048        271.7403
2014    23      2       3.102334        268.4578
2014    23      3       2.793389        263.9371
2014    23      4       2.338269        254.0798
2014    23      5       1.957187        241.6674
2014    23      6       1.851237        237.2231
2014    23      7       2.417257        256.4506
2014    24      0       2.595074        260.6121
2014    24      1       2.255147        252.2955
2014    24      2       1.912349        240.7643
2014    24      3       1.683011        230.441
2014    24      4       1.864685        238.7245
2014    24      5       2.269576        252.8383
2014    24      6       2.136528        248.725
2014    24      7       2.272207        252.5464
2014    25      0       2.460649        257.5577
2014    25      1       2.147347        248.7926
2014    25      2       2.071847        245.8203
2014    25      3       1.993506        242.1213
2014    25      4       1.875966        237.0344
2014    25      5       1.77563         232.4631
2014    25      6       1.736759        230.7924
2014    25      7       2.11693         246.1623
2014    26      0       2.455637        255.5372
2014    26      1       2.320424        252.164
2014    26      2       2.600899        258.4729
2014    26      3       2.939562        264.1102
2014    26      4       2.886678        263.4069
2014    26      5       2.892631        263.4887
2014    26      6       3.171216        267.2249
2014    26      7       3.657923        272.0579
2014    27      0       3.283892        268.5676
2014    27      1       2.83849         262.4279
2014    27      2       2.552461        256.6139
2014    27      3       2.692488        259.3105
2014    27      4       2.843215        261.7351
2014    27      5       2.64569         258.0391
2014    27      6       2.224894        247.8552
2014    27      7       2.370559        252.2367
2014    28      0       2.961019        264.4155
2014    28      1       2.801132        261.5604
2014    28      2       2.507936        255.8387
2014    28      3       1.622852        224.7808
2014    28      4       0.8625104       163.4789
2014    28      5       0.6030201       128.594
2014    28      6       0.6047201       129.0696
2014    28      7       0.8595324       163.1689
2014    29      0       0.9584257       174.3162
2014    29      1       0.7458006       149.2704
2014    29      2       0.7167176       144.3681
2014    29      3       0.7721003       151.4267
2014    29      4       0.8010609       155.4377
2014    29      5       0.9949307       176.8251
2014    29      6       1.090338        186.5664
2014    29      7       1.124429        190.3741
2014    30      0       1.03154         182.097
2014    30      1       0.9254271       171.2646
2014    30      2       0.6466198       136.1806
2014    30      3       0.4560103       105.2022
2014    30      4       0.5583683       121.4244
2014    30      5       0.596718        127.8445
2014    30      6       0.6217024       132.3159
2014    30      7       0.7374056       148.7577
2015    1       0       3.502674        270.5154
2015    1       1       2.648091        259.4559
2015    1       2       2.557463        256.8207
2015    1       3       2.577885        256.2418
2015    1       4       2.142187        244.98
2015    1       5       2.046953        241.5361
2015    1       6       2.518594        254.9453
2015    1       7       2.819792        261.2223
2015    2       0       2.912755        262.8854
2015    2       1       2.774442        261.0675
2015    2       2       2.670624        258.2457
2015    2       3       2.963471        262.399
2015    2       4       3.083161        263.5835
2015    2       5       2.743786        258.9947
2015    2       6       2.667592        258.174
2015    2       7       2.64446         257.9884
2015    3       0       2.830722        261.6344
2015    3       1       3.039068        265.1642
2015    3       2       3.046867        265.4026
2015    3       3       3.20778         267.0397
2015    3       4       3.134345        266.2688
2015    3       5       3.036294        265.1299
2015    3       6       3.41908         269.8522
2015    3       7       4.427093        276.6819
2015    4       0       4.197486        275.4113
2015    4       1       3.558954        270.7681
2015    4       2       3.060048        264.8393
2015    4       3       3.19809         266.7202
2015    4       4       3.769325        271.8591
2015    4       5       4.404223        274.7198
2015    4       6       4.643516        275.4965
2015    4       7       4.177673        274.1609
2015    5       0       3.858446        272.2975
2015    5       1       3.113753        265.6818
2015    5       2       3.161213        266.6345
2015    5       3       3.601729        270.8004
2015    5       4       3.529378        270.1114
2015    5       5       4.013475        272.4644
2015    5       6       3.850746        271.9018
2015    5       7       3.537805        270.377
2015    6       0       3.202105        267.1825
2015    6       1       2.669877        259.6741
2015    6       2       2.554761        257.7412
2015    6       3       2.63            259.2845
2015    6       4       2.734089        260.5576
2015    6       5       2.771513        260.8179
2015    6       6       2.955377        263.6581
2015    6       7       4.042509        273.9821
2015    7       0       4.367638        276.0319
2015    7       1       3.795778        273.4659
2015    7       2       2.726112        260.57
2015    7       3       2.498371        254.274
2015    7       4       3.001842        262.782
2015    7       5       3.220649        266.2456
2015    7       6       3.259872        267.2639
2015    7       7       3.370474        269.0984
2015    8       0       3.311787        269.2867
2015    8       1       3.174907        267.9586
2015    8       2       3.030763        266.046
2015    8       3       3.827337        274.2288
2015    8       4       4.579755        277.2812
2015    8       5       3.313224        269.2071
2015    8       6       3.567947        270.413
2015    8       7       3.516868        269.848
2015    9       0       2.859073        261.7425
2015    9       1       2.820501        261.0017
2015    9       2       2.917978        262.734
2015    9       3       3.15576         265.8928
2015    9       4       3.445415        268.6212
2015    9       5       3.949604        272.4887
2015    9       6       3.941817        272.5809
2015    9       7       4.145985        274.132
2015    10      0       4.040372        273.3916
2015    10      1       3.99235         272.2368
2015    10      2       3.512064        268.3585
2015    10      3       3.329337        265.8674
2015    10      4       3.263282        265.1421
2015    10      5       3.632988        268.7658
2015    10      6       3.654107        269.1513
2015    10      7       4.047753        271.693
2015    11      0       3.653784        269.0108
2015    11      1       3.236249        265.6713
2015    11      2       3.013603        262.7207
2015    11      3       2.659817        256.9193
2015    11      4       2.268333        247.0428
2015    11      5       2.009532        238.3858
2015    11      6       2.279851        247.268
2015    11      7       2.838679        260.4958
2015    12      0       2.565336        255.5646
2015    12      1       1.919984        236.5942
2015    12      2       1.972671        238.7165
2015    12      3       1.961256        238.4569
2015    12      4       1.963414        238.6366
2015    12      5       1.583079        220.1005
2015    12      6       1.33424         204.3532
2015    12      7       1.976134        239.5932
2015    13      0       2.428232        253.3046
2015    13      1       2.415717        252.6648
2015    13      2       2.39112         251.2256
2015    13      3       2.502163        253.0455
2015    13      4       2.30216         247.2244
2015    13      5       2.262578        246.4635
2015    13      6       2.303544        247.876
2015    13      7       2.988378        262.0473
2015    14      0       2.929996        261.2461
2015    14      1       1.933975        235.8568
2015    14      2       1.443084        210.3771
2015    14      3       1.457949        211.2724
2015    14      4       1.533231        216.2463
2015    14      5       1.644145        223.2053
2015    14      6       1.724596        227.7024
2015    14      7       2.229824        248.0761
2015    15      0       2.612743        257.9751
2015    15      1       2.205075        248.198
2015    15      2       1.54168         219.7054
2015    15      3       1.158361        192.4322
2015    15      4       0.8726255       163.9469
2015    15      5       0.6503581       135.188
2015    15      6       0.9061687       167.489
2015    15      7       1.299783        203.5428
2015    16      0       1.486378        217.0855
2015    16      1       0.9302848       171.6123
2015    16      2       0.6853817       141.5002
2015    16      3       0.6595438       137.3853
2015    16      4       0.737039        147.8198
2015    16      5       0.7077346       144.0469
2015    16      6       0.6919756       142.2367
2015    16      7       0.89908         168.0412
2015    17      0       1.094605        187.8334
2015    17      1       1.168595        194.2696
2015    17      2       1.46595         216.8694
2015    17      3       1.767455        233.3774
2015    17      4       1.63519         226.0464
2015    17      5       1.516416        218.3069
2015    17      6       1.757639        231.1192
2015    17      7       2.240024        249.3518
2015    18      0       2.360282        253.21
2015    18      1       2.015576        242.5179
2015    18      2       1.69498         228.5875
2015    18      3       1.870588        237.3429
2015    18      4       2.106475        245.9477
2015    18      5       2.46815         256.0372
2015    18      6       2.516041        257.4227
2015    18      7       2.510939        256.8493
2015    19      0       2.514312        256.8563
2015    19      1       2.580832        257.6769
2015    19      2       2.982972        264.4705
2015    19      3       2.855034        262.8574
2015    19      4       2.811902        261.673
2015    19      5       2.708297        259.1662
2015    19      6       3.015467        264.0978
2015    19      7       3.626836        270.5851
2015    20      0       3.80506         272.0641
2015    20      1       3.331902        267.6861
2015    20      2       2.451294        253.2606
2015    20      3       2.416217        251.8193
2015    20      4       2.454057        253.0966
2015    20      5       2.313789        250.1932
2015    20      6       2.083053        243.5981
2015    20      7       2.377237        252.814
2015    21      0       3.04881         265.2095
2015    21      1       2.800967        261.1151
2015    21      2       3.294288        267.4059
2015    21      3       3.718166        271.121
2015    21      4       3.633256        269.9112
2015    21      5       4.649671        275.0735
2015    21      6       5.014568        276.0473
2015    21      7       5.491837        280.5942
2015    22      0       4.418666        278.0326
2015    22      1       3.096984        267.12
2015    22      2       2.328012        253.17
2015    22      3       1.960183        240.6654
2015    22      4       2.180922        246.5579
2015    22      5       2.60944         255.9297
2015    22      6       2.472985        252.7452
2015    22      7       2.310141        249.9058
2015    23      0       2.230852        248.188
2015    23      1       1.844479        234.5273
2015    23      2       1.507043        217.0302
2015    23      3       1.095174        186.0154
2015    23      4       1.000237        176.6655
2015    23      5       1.13151         188.9019
2015    23      6       1.298638        203.7662
2015    23      7       1.414809        212.5234
2015    24      0       1.502212        218.805
2015    24      1       1.327407        207.5596
2015    24      2       1.277882        203.5158
2015    24      3       1.331777        207.3297
2015    24      4       1.339901        207.9873
2015    24      5       1.199257        197.2302
2015    24      6       1.185058        196.6179
2015    24      7       1.439149        215.2752
2015    25      0       1.551193        222.4225
2015    25      1       1.498697        219.234
2015    25      2       1.645478        227.4706
2015    25      3       1.414563        213.6798
2015    25      4       0.9981785       178.9978
2015    25      5       0.5705302       125.0014
2015    25      6       0.7727584       153.8995
2015    25      7       1.572184        223.7697
2015    26      0       1.923161        240.7419
2015    26      1       1.774512        234.121
2015    26      2       1.470055        217.6897
2015    26      3       1.324028        207.4093
2015    26      4       1.214687        198.656
2015    26      5       1.135262        191.7086
2015    26      6       1.092244        187.5112
2015    26      7       1.452062        214.9528
2015    27      0       1.522979        219.5105
2015    27      1       1.321827        206.2355
2015    27      2       1.003314        179.0064
2015    27      3       0.7448973       149.1919
2015    27      4       0.593799        127.3372
2015    27      5       0.5766749       124.5939
2015    27      6       0.8496756       161.8545
2015    27      7       1.233126        198.8569
2015    28      0       1.291601        203.5992
2015    28      1       1.126735        190.4279
2015    28      2       1.129932        191.0182
2015    28      3       1.109681        189.0935
2015    28      4       0.9597038       174.147
2015    28      5       0.9255088       169.7876
2015    28      6       1.025246        180.2942
2015    28      7       1.386376        210.622
2015    29      0       1.574027        222.8495
2015    29      1       1.392551        212.0164
2015    29      2       1.046138        183.5923
2015    29      3       0.7854646       154.0108
2015    29      4       0.7136484       144.4192
2015    29      5       0.6786083       139.2465
2015    29      6       0.7570282       149.8459
2015    29      7       1.049724        183.528
2015    30      0       1.089026        188.0532
2015    30      1       0.9978169       179.843
2015    30      2       0.957285        175.8293
2015    30      3       1.047663        184.9763
2015    30      4       0.9533071       175.0421
2015    30      5       0.6745061       140.8254
2015    30      6       0.8023112       157.891
2015    30      7       1.209813        199.2405
2016    1       0       3.762289        272.0277
2016    1       1       3.267301        267.7961
2016    1       2       3.086943        265.6915
2016    1       3       2.957568        263.7736
2016    1       4       2.617425        257.5685
2016    1       5       2.202863        246.7024
2016    1       6       1.843446        232.6597
2016    1       7       2.096543        243.7976
2016    2       0       2.329734        251.4884
2016    2       1       2.360024        253.1201
2016    2       2       2.326782        252.28
2016    2       3       2.074383        244.0698
2016    2       4       1.678835        227.1014
2016    2       5       1.343648        206.5398
2016    2       6       1.349694        207.2576
2016    2       7       1.672895        227.5367
2016    3       0       2.000573        242.2604
2016    3       1       1.793713        234.0199
2016    3       2       1.284181        203.7133
2016    3       3       0.9952073       178.1436
2016    3       4       1.012161        179.625
2016    3       5       0.9285655       170.9808
2016    3       6       1.003348        178.8837
2016    3       7       1.069147        185.2457
2016    4       0       0.8714297       164.7104
2016    4       1       0.5490052       121.1731
2016    4       2       0.5161959       114.5027
2016    4       3       0.7044938       141.7518
2016    4       4       1.020599        178.4161
2016    4       5       1.240695        198.4239
2016    4       6       1.31068         204.4677
2016    4       7       1.161865        193.0686
2016    5       0       0.9229187       170.4022
2016    5       1       0.7452389       149.3382
2016    5       2       0.7274751       147.0143
2016    5       3       0.9474971       172.9352
2016    5       4       1.253401        200.9601
2016    5       5       1.494427        217.9865
2016    5       6       1.662588        227.1541
2016    5       7       1.796289        233.1963
2016    6       0       1.706193        229.0531
2016    6       1       1.650113        226.1267
2016    6       2       1.65961         226.493
2016    6       3       2.187854        247.3089
2016    6       4       2.183931        247.2057
2016    6       5       2.185944        246.628
2016    6       6       2.672675        258.3902
2016    6       7       3.222469        266.7067
2016    7       0       3.391635        268.4139
2016    7       1       3.526487        268.8916
2016    7       2       3.56409         268.9805
2016    7       3       3.915687        270.9412
2016    7       4       4.062273        271.4765
2016    7       5       4.209279        273.8676
2016    7       6       4.345553        274.4954
2016    7       7       4.085028        274.8565
2016    8       0       3.655372        272.3704
2016    8       1       3.580416        270.9237
2016    8       2       3.50516         270.0206
2016    8       3       3.345954        267.9834
2016    8       4       3.122109        264.6628
2016    8       5       2.830004        260.5002
2016    8       6       2.554898        255.6268
2016    8       7       2.233668        248.0436
2016    9       0       1.501463        217.0424
2016    9       1       0.8147377       156.5109
2016    9       2       0.7568648       148.7371
2016    9       3       0.9232206       168.3188
2016    9       4       0.9918863       175.2904
2016    9       5       1.010454        177.0284
2016    9       6       1.150432        190.2334
2016    9       7       1.312954        203.2142
2016    10      0       1.292011        201.7993
2016    10      1       0.9303391       168.5082
2016    10      2       1.000533        175.7163
2016    10      3       1.309915        202.4487
2016    10      4       1.500464        215.3855
2016    10      5       1.595299        220.9316
2016    10      6       1.869796        234.1059
2016    10      7       2.471314        253.8911
2016    11      0       2.674357        258.6292
2016    11      1       2.254936        248.8125
2016    11      2       1.986154        239.9345
2016    11      3       2.016321        240.3778
2016    11      4       2.125544        243.871
2016    11      5       2.141025        244.329
2016    11      6       2.345095        250.0112
2016    11      7       2.541117        254.8761
2016    12      0       2.255972        247.6946
2016    12      1       1.958629        237.6625
2016    12      2       1.822044        231.9386
2016    12      3       1.785793        229.8687
2016    12      4       1.937833        235.67
2016    12      5       2.085659        240.7558
2016    12      6       2.152559        242.2424
2016    12      7       2.021966        237.9134
2016    13      0       1.787002        229.3435
2016    13      1       1.156641        190.1119
2016    13      2       1.126207        187.003
2016    13      3       1.144566        188.546
2016    13      4       1.198212        192.9914
2016    13      5       1.414685        208.4182
2016    13      6       1.833921        230.8185
2016    13      7       2.291912        247.6225
2016    14      0       2.157788        244.3869
2016    14      1       1.371294        207.6928
2016    14      2       1.431913        211.3274
2016    14      3       1.521476        217.687
2016    14      4       1.47574         214.7712
2016    14      5       1.566629        219.7767
2016    14      6       1.869278        234.8853
2016    14      7       1.97739         239.7147
2016    15      0       1.879346        236.0111
2016    15      1       1.541058        218.7515
2016    15      2       1.364729        207.0703
2016    15      3       1.342673        205.6319
2016    15      4       1.302084        202.9681
2016    15      5       1.028641        179.7464
2016    15      6       0.95711         172.4446
2016    15      7       1.001904        177.2879
2016    16      0       1.019415        178.816
2016    16      1       0.9129071       167.4556
2016    16      2       0.8662388       161.377
2016    16      3       0.9268669       166.8556
2016    16      4       0.8594267       159.1532
2016    16      5       0.8100977       153.036
2016    16      6       0.9190561       166.2813
2016    16      7       1.084418        183.0568
2016    17      0       1.083495        183.275
2016    17      1       1.025161        177.5701
2016    17      2       0.9163562       166.473
2016    17      3       0.8947015       164.1827
2016    17      4       0.9455681       168.6893
2016    17      5       1.019062        175.7077
2016    17      6       1.225337        195.4004
2016    17      7       1.484284        214.3047
2016    18      0       1.506453        216.2653
2016    18      1       1.430309        211.8134
2016    18      2       1.469483        214.323
2016    18      3       1.397717        209.6445
2016    18      4       1.231726        197.3209
2016    18      5       1.137202        189.3648
2016    18      6       1.229259        197.5026
2016    18      7       1.518994        218.2439
2016    19      0       1.544496        220.407
2016    19      1       1.353233        208.2742
2016    19      2       1.305025        203.9762
2016    19      3       1.6577          225.0636
2016    19      4       1.6182          222.7553
2016    19      5       1.624531        222.526
2016    19      6       1.977482        238.3088
2016    19      7       2.570043        255.0991
2016    20      0       2.674912        257.541
2016    20      1       2.978151        262.9798
2016    20      2       3.755238        271.1784
2016    20      3       3.88042         273.2681
2016    20      4       3.550849        270.8838
2016    20      5       3.348511        268.4367
2016    20      6       3.436248        269.636
2016    20      7       3.82974         272.4752
2016    21      0       3.219056        267.274
2016    21      1       2.701846        260.0004
2016    21      2       2.875745        263.7993
2016    21      3       3.061199        266.4379
2016    21      4       3.156712        267.7947
2016    21      5       2.847343        263.7988
2016    21      6       2.406583        254.9269
2016    21      7       2.09064         246.2495
2016    22      0       1.765041        233.3887
2016    22      1       1.188769        197.2555
2016    22      2       0.915597        171.1307
2016    22      3       0.6423088       136.4508
2016    22      4       0.5110207       115.7514
2016    22      5       0.3468209       86.21745
2016    22      6       0.2664677       70.04789
2016    22      7       0.298958        77.1645
2016    23      0       0.5666735       125.2952
2016    23      1       0.2365777       63.83273
2016    23      2       0.3463126       85.95858
2016    23      3       0.8505778       163.3493
2016    23      4       0.3375042       83.77833
2016    23      5       0.2149358       56.65367
2016    23      6       0.571852        123.6238
2016    23      7       1.383442        209.3833
2016    24      0       1.671409        225.342
2016    24      1       0.9876457       176.1689
2016    24      2       0.5556168       120.7139
2016    24      3       0.4246017       98.47796
2016    24      4       0.4527113       103.513
2016    24      5       0.5982539       126.3528
2016    24      6       0.8779804       163.6294
2016    24      7       1.184785        192.6556
2016    25      0       0.9378372       169.6308
2016    25      1       0.8051557       154.8415
2016    25      2       0.6092599       128.1536
2016    25      3       0.7173223       142.5211
2016    25      4       0.8526289       158.671
2016    25      5       0.933211        167.3973
2016    25      6       1.254844        197.0287
2016    25      7       1.455946        210.4921
2016    26      0       1.889695        232.9702
2016    26      1       1.743125        226.8618
2016    26      2       1.652606        222.0089
2016    26      3       2.003893        236.6447
2016    26      4       2.380474        248.5772
2016    26      5       2.632881        254.9767
2016    26      6       2.741693        257.2005
2016    26      7       1.953775        236.3867
2016    27      0       1.513787        215.9995
2016    27      1       1.61101         221.1482
2016    27      2       1.901493        235.0137
2016    27      3       2.085036        241.3026
2016    27      4       1.793436        229.44
2016    27      5       1.635143        221.9209
2016    27      6       1.589885        219.2097
2016    27      7       2.667808        256.0311
2016    28      0       2.911466        260.6131
2016    28      1       2.273217        247.3967
2016    28      2       1.74307         228.3112
2016    28      3       2.319892        249.3796
2016    28      4       2.641679        256.5236
2016    28      5       2.557199        254.7945
2016    28      6       2.808936        259.8375
2016    28      7       3.663526        270.7316
2016    29      0       3.464532        269.2475
2016    29      1       2.690958        258.4444
2016    29      2       2.42799         252.5276
2016    29      3       2.762164        259.4409
2016    29      4       3.126133        265.1431
2016    29      5       2.833251        261.3645
2016    29      6       2.78206         260.6054
2016    29      7       3.415502        269.2092
2016    30      0       2.857208        262.2358
2016    30      1       1.916739        238.2538
2016    30      2       1.580928        222.0922
2016    30      3       1.485957        215.7818
2016    30      4       1.306751        203.0894
2016    30      5       1.033026        180.0214
2016    30      6       1.356612        206.7531
2016    30      7       1.767245        230.4356
2017    1       0       0.8654906       164.179
2017    1       1       0.8050226       157.0551
2017    1       2       0.7179438       145.9953
2017    1       3       0.7341696       147.9804
2017    1       4       0.6968148       142.8328
2017    1       5       0.5988041       128.5744
2017    1       6       0.6385014       134.0393
2017    1       7       0.8956082       167.003
2017    2       0       0.9945736       176.86
2017    2       1       1.162617        192.0141
2017    2       2       1.425655        212.1815
2017    2       3       1.612286        223.5132
2017    2       4       2.114104        244.7028
2017    2       5       1.932329        237.654
2017    2       6       2.042748        241.6177
2017    2       7       2.331062        250.2096
2017    3       0       2.599787        255.5026
2017    3       1       2.803461        259.3767
2017    3       2       2.639257        257.5325
2017    3       3       2.516718        256.112
2017    3       4       2.629365        258.8361
2017    3       5       2.821643        262.0745
2017    3       6       2.66614         259.3032
2017    3       7       2.811492        262.5451
2017    4       0       2.655203        260.5672
2017    4       1       2.241996        251.3299
2017    4       2       2.050322        245.2241
2017    4       3       1.801161        235.1023
2017    4       4       1.751928        232.1598
2017    4       5       1.837478        235.5699
2017    4       6       1.982871        241.963
2017    4       7       2.649571        260.4599
2017    5       0       2.64886         260.9864
2017    5       1       2.689679        261.3639
2017    5       2       2.376873        254.0149
2017    5       3       1.997209        241.8666
2017    5       4       2.005353        242.1721
2017    5       5       1.907445        238.8165
2017    5       6       1.850056        236.2238
2017    5       7       2.040529        243.9629
2017    6       0       1.802443        234.7267
2017    6       1       1.242195        200.9772
2017    6       2       1.027026        181.5693
2017    6       3       0.9612157       174.6412
2017    6       4       0.8842905       166.5814
2017    6       5       0.9758343       176.5808
2017    6       6       1.315055        206.2924
2017    6       7       1.865247        237.3326
2017    7       0       2.099176        246.2327
2017    7       1       2.128144        246.9658
2017    7       2       1.904823        238.8754
2017    7       3       1.657954        227.5769
2017    7       4       1.636439        226.2996
2017    7       5       1.638697        225.9964
2017    7       6       1.941081        239.7779
2017    7       7       2.680468        260.8406
2017    8       0       2.963612        265.5866
2017    8       1       3.226445        268.6995
2017    8       2       3.482117        270.7718
2017    8       3       3.428009        270.0219
2017    8       4       3.200827        267.6312
2017    8       5       3.371647        268.8894
2017    8       6       3.193431        265.8097
2017    8       7       3.489213        268.558
2017    9       0       3.614008        270.0385
2017    9       1       3.432974        268.3391
2017    9       2       3.705083        270.1025
2017    9       3       3.942012        271.8389
2017    9       4       3.257329        266.2322
2017    9       5       2.550651        256.1306
2017    9       6       3.08659         265.5781
2017    9       7       3.78774         272.374
2017    10      0       3.537391        270.7718
2017    10      1       2.662666        259.1321
2017    10      2       2.325364        251.5812
2017    10      3       2.177119        247.1629
2017    10      4       2.081115        243.9423
2017    10      5       2.086774        244.0866
2017    10      6       2.178723        247.2307
2017    10      7       3.003265        265.1348
2017    11      0       2.85601         263.5165
2017    11      1       2.800733        263.0215
2017    11      2       2.407207        254.8638
2017    11      3       2.099516        246.1672
2017    11      4       1.974672        241.4514
2017    11      5       1.839161        235.9907
2017    11      6       2.171682        248.1519
2017    11      7       3.066601        266.9022
2017    12      0       3.206455        269.1447
2017    12      1       3.174512        268.6773
2017    12      2       2.718235        261.9792
2017    12      3       2.166475        248.6972
2017    12      4       1.986566        242.1769
2017    12      5       1.893536        238.4263
2017    12      6       1.765249        232.765
2017    12      7       1.973768        241.8175
2017    13      0       2.100112        246.5916
2017    13      1       2.049534        244.6001
2017    13      2       2.191698        249.1361
2017    13      3       2.020296        243.0004
2017    13      4       1.937539        240.3882
2017    13      5       1.674697        227.7682
2017    13      6       1.999153        241.858
2017    13      7       2.313638        252.072
2017    14      0       2.566516        258.6125
2017    14      1       2.349222        252.5913
2017    14      2       2.326766        252.1211
2017    14      3       2.500707        256.1206
2017    14      4       2.138484        245.2824
2017    14      5       1.765253        230.2158
2017    14      6       1.483887        215.6671
2017    14      7       1.505286        217.8479
2017    15      0       1.409187        211.8227
2017    15      1       1.061448        183.6044
2017    15      2       1.19118         195.3248
2017    15      3       1.165848        193.2164
2017    15      4       0.9304763       170.3418
2017    15      5       0.8323363       158.6112
2017    15      6       0.7667526       150.0917
2017    15      7       0.9417272       170.6763
2017    16      0       0.9463241       171.2543
2017    16      1       0.752316        147.8839
2017    16      2       0.7049951       140.8245
2017    16      3       0.7123459       141.4592
2017    16      4       0.6705072       135.6759
2017    16      5       0.6558156       133.8398
2017    16      6       0.7838845       151.6638
2017    16      7       1.188965        194.0028
2017    17      0       1.370517        208.2719
2017    17      1       1.002126        177.3544
2017    17      2       0.7564203       148.7443
2017    17      3       0.6578653       135.6709
2017    17      4       0.6023929       127.1917
2017    17      5       0.5869828       124.4919
2017    17      6       0.6054644       127.4739
2017    17      7       0.7599149       149.4947
2017    18      0       0.6686814       137.7426
2017    18      1       0.4968955       111.1574
2017    18      2       0.4210949       97.9462
2017    18      3       0.3861102       91.89191
2017    18      4       0.3665209       88.59118
2017    18      5       0.3351158       82.51796
2017    18      6       0.3883322       92.63937
2017    18      7       0.6488107       135.5161
2017    19      0       0.7219781       146.0679
2017    19      1       0.594978        128.3319
2017    19      2       0.7412083       148.8629
2017    19      3       0.5662727       123.9639
2017    19      4       0.3095167       78.12779
2017    19      5       0.3011587       76.46139
2017    19      6       0.3214045       80.54477
2017    19      7       0.5473789       120.7287
2017    20      0       0.5289719       117.4048
2017    20      1       0.325805        80.4072
2017    20      2       0.2832898       71.88904
2017    20      3       0.2945637       74.37424
2017    20      4       0.3492904       85.23459
2017    20      5       0.4135766       97.05893
2017    20      6       0.4333892       100.6629
2017    20      7       0.557411        122.164
2017    21      0       0.5158865       115.8065
2017    21      1       0.3406501       84.13278
2017    21      2       0.270687        69.74597
2017    21      3       0.2770926       70.2704
2017    21      4       0.3160752       77.34091
2017    21      5       0.366273        87.26061
2017    21      6       0.656877        134.9784
2017    21      7       0.8580135       161.8164
2017    22      0       0.9018305       166.5873
2017    22      1       1.006628        177.4504
2017    22      2       1.229867        197.1266
2017    22      3       1.376764        207.7004
2017    22      4       1.446515        212.0213
2017    22      5       1.172505        191.7151
2017    22      6       0.9973949       176.0293
2017    22      7       1.268728        199.4743
2017    23      0       1.33272         204.2317
2017    23      1       1.057264        181.9899
2017    23      2       0.9297508       168.7788
2017    23      3       0.9216051       167.3588
2017    23      4       1.210539        193.5678
2017    23      5       1.129057        186.8707
2017    23      6       0.5577429       120.6131
2017    23      7       0.5052101       112.2316
2017    24      0       0.4653925       105.5583
2017    24      1       0.3176361       79.06221
2017    24      2       0.2515777       65.61088
2017    24      3       0.2344191       62.0268
2017    24      4       0.2614534       67.64194
2017    24      5       0.2999385       75.35164
2017    24      6       0.3751377       89.73031
2017    24      7       0.518981        114.3502
2017    25      0       0.5519276       119.4241
2017    25      1       0.4732441       106.5611
2017    25      2       0.3960617       93.16198
2017    25      3       0.2834753       72.54742
2017    25      4       0.262547        68.10747
2017    25      5       0.2869443       72.96111
2017    25      6       0.3213978       79.83769
2017    25      7       0.3960179       93.92843
2017    26      0       0.4227182       98.90941
2017    26      1       0.475717        107.7363
2017    26      2       0.5209974       114.499
2017    26      3       0.5577923       119.7542
2017    26      4       0.551001        118.3848
2017    26      5       0.6437662       130.6054
2017    26      6       0.7467478       143.441
2017    26      7       0.8605415       158.5605
2017    27      0       0.8724061       160.5032
2017    27      1       0.8369734       156.6185
2017    27      2       0.8676213       159.7241
2017    27      3       0.8892206       161.5972
2017    27      4       0.8303539       154.6333
2017    27      5       0.7669399       147.3871
2017    27      6       0.7867447       150.666
2017    27      7       0.8581266       159.8219
2017    28      0       0.8303916       157.0502
2017    28      1       0.7899754       152.6721
2017    28      2       0.6833833       139.3953
2017    28      3       0.5804489       125.1261
2017    28      4       0.6013266       128.2266
2017    28      5       0.5763639       124.4467
2017    28      6       0.6673037       137.9775
2017    28      7       1.047823        181.5224
2017    29      0       1.17201         192.7777
2017    29      1       1.09752         186.717
2017    29      2       1.106909        187.4953
2017    29      3       1.112188        187.7166
2017    29      4       0.9840897       175.2906
2017    29      5       0.7347953       145.9235
2017    29      6       0.9204723       168.9193
2017    29      7       1.351547        207.0125
2017    30      0       1.522155        218.0848
2017    30      1       1.44966         214.1147
2017    30      2       1.483902        216.3037
2017    30      3       1.237356        199.1646
2017    30      4       0.9362086       171.0258
2017    30      5       0.8982695       166.4992
2017    30      6       0.9918161       176.5344
2017    30      7       1.050992        182.7882
2018    1       0       2.789986        262.7493
2018    1       1       2.59828         259.3818
2018    1       2       2.148208        247.7489
2018    1       3       1.854287        236.2362
2018    1       4       1.818074        234.151
2018    1       5       1.992694        240.9928
2018    1       6       2.007285        242.2928
2018    1       7       2.056835        244.9175
2018    2       0       2.146297        247.1477
2018    2       1       1.630536        225.0863
2018    2       2       1.334111        204.7249
2018    2       3       1.184048        193.3835
2018    2       4       1.434511        211.6496
2018    2       5       1.499426        215.5451
2018    2       6       1.449811        212.5827
2018    2       7       1.490516        215.3853
2018    3       0       1.517876        216.8043
2018    3       1       1.187471        193.0232
2018    3       2       1.306386        202.439
2018    3       3       1.439773        211.892
2018    3       4       1.358597        206.7417
2018    3       5       1.115498        187.1526
2018    3       6       1.13684         189.4343
2018    3       7       1.470747        214.0894
2018    4       0       1.779485        231.0155
2018    4       1       1.559697        219.8163
2018    4       2       1.539331        218.4031
2018    4       3       1.55885         218.9922
2018    4       4       1.40416         208.833
2018    4       5       1.316729        202.1787
2018    4       6       1.740985        227.5335
2018    4       7       2.042874        240.8122
2018    5       0       2.299033        249.1873
2018    5       1       1.94849         237.7022
2018    5       2       1.69274         226.6136
2018    5       3       1.594856        221.1803
2018    5       4       1.428583        210.4815
2018    5       5       1.099216        185.3755
2018    5       6       1.433551        211.4217
2018    5       7       2.036557        241.1166
2018    6       0       1.99732         239.3424
2018    6       1       1.296087        201.17
2018    6       2       1.315086        202.8025
2018    6       3       1.663429        225.2264
2018    6       4       1.837315        233.9272
2018    6       5       1.786714        231.7709
2018    6       6       1.754499        230.045
2018    6       7       1.837279        233.8102
2018    7       0       1.674353        226.729
2018    7       1       1.362029        207.9528
2018    7       2       1.38098         209.2471
2018    7       3       1.464408        214.7799
2018    7       4       1.496854        216.6488
2018    7       5       1.445888        213.3254
2018    7       6       1.394381        209.7647
2018    7       7       1.557683        220.4625
2018    8       0       1.679788        227.6098
2018    8       1       2.406247        253.353
2018    8       2       2.496465        255.5275
2018    8       3       1.931322        238.8177
2018    8       4       1.91295         237.6618
2018    8       5       1.930163        238.279
2018    8       6       1.8145          233.7078
2018    8       7       1.96377         240.2531
2018    9       0       1.99858         242.0622
2018    9       1       1.966308        240.7981
2018    9       2       2.186343        248.1381
2018    9       3       2.119815        246.2074
2018    9       4       1.959955        240.4523
2018    9       5       1.971052        241.1988
2018    9       6       1.736558        230.7151
2018    9       7       1.948727        240.5362
2018    10      0       1.968051        241.4123
2018    10      1       1.653935        226.8739
2018    10      2       1.611738        223.8993
2018    10      3       1.726367        228.9631
2018    10      4       1.725546        229.0421
2018    10      5       1.524311        218.7791
2018    10      6       1.476915        216.0475
2018    10      7       1.80914         234.2206
2018    11      0       1.897924        238.6496
2018    11      1       1.617661        225.5273
2018    11      2       1.396106        211.667
2018    11      3       1.709574        229.6364
2018    11      4       1.758557        231.7342
2018    11      5       1.772716        233.066
2018    11      6       1.441388        214.3269
2018    11      7       1.543111        220.7908
2018    12      0       1.741773        231.4968
2018    12      1       1.604358        224.5628
2018    12      2       1.399432        211.7758
2018    12      3       1.507175        218.5797
2018    12      4       1.729975        230.182
2018    12      5       1.783146        232.4829
2018    12      6       1.805415        233.5373
2018    12      7       1.822148        234.4307
2018    13      0       1.88721         237.9455
2018    13      1       1.583997        222.8903
2018    13      2       1.755415        231.6378
2018    13      3       1.984398        240.9413
2018    13      4       2.039594        242.7247
2018    13      5       2.056213        243.0075
2018    13      6       1.861952        235.3075
2018    13      7       1.769075        231.2591
2018    14      0       1.697811        228.1955
2018    14      1       1.59342         223.1061
2018    14      2       1.502695        218.5128
2018    14      3       1.751568        232.6531
2018    14      4       1.687182        228.6468
2018    14      5       1.747603        231.3502
2018    14      6       1.703143        228.9797
2018    14      7       1.700707        229.1224
2018    15      0       1.857739        236.6211
2018    15      1       1.961055        240.9144
2018    15      2       2.065628        244.9259
2018    15      3       2.054233        244.632
2018    15      4       1.947636        240.3907
2018    15      5       1.804308        234.0227
2018    15      6       1.430327        213.8583
2018    15      7       1.662606        227.4523
2018    16      0       2.175424        248.2878
2018    16      1       2.269351        251.2246
2018    16      2       2.386616        255.1779
2018    16      3       2.30028         252.7317
2018    16      4       2.15247         248.2032
2018    16      5       2.080731        245.7147
2018    16      6       2.170203        248.6219
2018    16      7       2.895594        265.0685
2018    17      0       3.017316        267.2929
2018    17      1       2.505094        258.5826
2018    17      2       2.664944        261.3928
2018    17      3       2.685985        261.3429
2018    17      4       2.4126          255.4226
2018    17      5       2.250318        250.8654
2018    17      6       2.008102        242.8622
2018    17      7       2.031287        244.1602
2018    18      0       2.129338        247.6851
2018    18      1       2.24249         250.5013
2018    18      2       2.393372        254.5036
2018    18      3       2.368889        253.8255
2018    18      4       2.637944        259.8535
2018    18      5       2.865716        264.1572
2018    18      6       2.790204        262.9931
2018    18      7       2.897718        264.0007
2018    19      0       3.112904        267.0242
2018    19      1       3.24821         268.7883
2018    19      2       4.223682        276.0847
2018    19      3       4.681717        279.5484
2018    19      4       3.726916        273.662
2018    19      5       3.824845        273.6363
2018    19      6       4.833586        278.2281
2018    19      7       5.083775        278.2048
2018    20      0       4.265449        274.4832
2018    20      1       3.781985        271.4693
2018    20      2       2.989508        263.8278
2018    20      3       2.598946        257.6665
2018    20      4       2.354691        252.005
2018    20      5       1.862389        235.9246
2018    20      6       1.427287        213.0406
2018    20      7       1.159417        192.8814
2018    21      0       0.7924639       155.5507
2018    21      1       0.7873126       155.0664
2018    21      2       1.416945        213.2501
2018    21      3       1.478929        216.9112
2018    21      4       1.829334        235.4143
2018    21      5       1.466289        215.812
2018    21      6       0.8773639       164.8923
2018    21      7       0.9770271       175.8858
2018    22      0       1.001846        178.6012
2018    22      1       0.8613972       163.2284
2018    22      2       1.036237        181.5127
2018    22      3       1.191426        195.2239
2018    22      4       1.142228        190.72
2018    22      5       1.120482        188.7736
2018    22      6       0.848914        161.4231
2018    22      7       0.7016651       143.0884
2018    23      0       0.745597        149.0229
2018    23      1       0.5686906       123.9157
2018    23      2       0.575001        124.8566
2018    23      3       0.7148209       144.7882
2018    23      4       0.9032401       167.1315
2018    23      5       1.145335        190.363
2018    23      6       1.274901        200.953
2018    23      7       1.703152        228.0592
2018    24      0       2.1482          246.1669
2018    24      1       2.009901        241.6733
2018    24      2       2.017006        242.3167
2018    24      3       2.498906        256.0714
2018    24      4       2.919147        263.3666
2018    24      5       2.640416        258.4116
2018    24      6       2.803114        261.6016
2018    24      7       3.192889        267.6382
2018    25      0       2.786782        261.8062
2018    25      1       2.00688         242.0347
2018    25      2       1.537813        220.0797
2018    25      3       1.427555        212.6114
2018    25      4       1.35637         207.2112
2018    25      5       1.167398        192.2582
2018    25      6       1.265082        199.7729
2018    25      7       1.751592        229.6798
2018    26      0       1.835816        234.3472
2018    26      1       1.410151        211.3926
2018    26      2       1.389275        209.8184
2018    26      3       1.466282        214.3518
2018    26      4       1.323482        205.0768
2018    26      5       1.021893        180.8493
2018    26      6       1.09632         187.8023
2018    26      7       1.433464        214.3272
2018    27      0       1.251122        201.8799
2018    27      1       1.077806        187.3736
2018    27      2       0.9429219       173.8751
2018    27      3       1.13324         191.6724
2018    27      4       1.222086        198.704
2018    27      5       1.144154        192.1903
2018    27      6       1.234203        199.8322
2018    27      7       1.376142        210.9686
2018    28      0       1.414897        214.0672
2018    28      1       1.289908        205.641
2018    28      2       1.15713         194.8988
2018    28      3       1.205797        198.4133
2018    28      4       1.261408        202.2061
2018    28      5       1.085497        187.1464
2018    28      6       0.9375435       172.5285
2018    28      7       1.096589        188.179
2018    29      0       1.176058        195.3757
2018    29      1       1.11815         190.4018
2018    29      2       1.126058        190.8917
2018    29      3       1.207532        197.3973
2018    29      4       1.19922         196.3692
2018    29      5       1.118847        189.3773
2018    29      6       1.235381        199.3542
2018    29      7       1.506724        218.2711
2018    30      0       1.937161        239.326
2018    30      1       2.17165         247.2996
2018    30      2       2.419101        254.3548
2018    30      3       2.024819        242.1216
2018    30      4       2.295887        250.0163
2018    30      5       2.75893         259.7191
2018    30      6       3.238224        265.9294
2018    30      7       3.234285        264.9772
