####################################################################################################
# Month: 03Mar                                                                                     #
# Station: ROB                                                                                     #
# Frequency: 230 GHz                                                                               #
# Columns are: year    day     tau     Tb (K)                                                      #
####################################################################################################
2009    1       0.3439929       82.8266275
2009    2       0.14426514      40.92072
2009    3       0.29746904      73.82144125
2009    4       0.13266467      37.733555
2009    5       0.09843976      30.02754875
2009    6       0.12070671      35.6009625
2009    7       0.11944255      35.30153375
2009    8       0.2239119       59.15305125
2009    9       0.32976651      80.909455
2009    10      0.42495368      99.3340375
2009    11      0.32451614      80.63227
2009    12      0.20862946      55.91561
2009    13      0.16059943      44.61342125
2009    14      0.11079442      32.59619125
2009    15      0.14041799      39.724455
2009    16      0.16809661      46.2423525
2009    17      0.14472485      41.29270875
2009    18      0.21994751      58.8328725
2009    19      0.17767005      49.54665
2009    20      0.19491695      53.476175
2009    21      0.12163675      35.824765
2009    22      0.10977875      32.52260875
2009    23      0.16488676      45.53002
2009    24      0.34788389      83.35589125
2009    25      0.34834048      83.55075
2009    26      0.44751508      102.20048375
2009    27      0.24549715      63.36630375
2009    28      0.31513929      76.70265
2009    29      0.33518524      80.45763625
2009    30      0.49057575      108.721625
2009    31      0.46516926      104.80779375
2010    1       0.46003782      104.69075875
2010    2       0.38893919      91.6161375
2010    3       0.21428039      57.0650675
2010    4       0.15467502      43.50155875
2010    5       0.15022875      42.10999125
2010    6       0.12323624      35.96303875
2010    7       0.09949376      30.6723925
2010    8       0.10729724      31.9657025
2010    9       0.12303221      35.8042
2010    10      0.12963309      37.91364875
2010    11      0.16791268      46.67635
2010    12      0.22988039      60.55693625
2010    13      0.19504746      52.32683
2010    14      0.31976095      77.79310125
2010    15      0.27683408      70.49795375
2010    16      0.20637111      55.5402975
2010    17      0.2257863       59.16856
2010    18      0.23186258      59.99774125
2010    19      0.18302066      49.79771875
2010    20      0.15735599      44.36570375
2010    21      0.13999747      39.72346625
2010    22      0.17433377      46.76517
2010    23      0.21236775      55.56244375
2010    24      0.21840216      58.0563825
2010    25      0.1952257       53.25952875
2010    26      0.17701502      49.23510875
2010    27      0.10730718      32.41348875
2010    28      0.13082729      37.11078875
2010    29      0.21638791      57.60577875
2010    30      0.1692404       47.0870875
2010    31      0.18147769      49.95471125
2011    1       0.32563732      81.22501
2011    2       0.39996645      94.68994375
2011    3       0.41332135      96.86632
2011    4       0.45883638      104.2511675
2011    5       0.61462035      128.9783125
2011    6       0.36063879      87.55693625
2011    7       0.25434992      66.23093625
2011    8       0.39785189      93.90153625
2011    9       0.35516514      86.69392
2011    10      0.33019602      80.76891
2011    11      0.17383785      47.5182325
2011    12      0.21965192      56.20668625
2011    13      0.09175442      27.7587675
2011    14      0.31384167      71.65642625
2011    15      0.51960866      110.00500375
2011    16      0.24899746      63.37273875
2011    17      0.15702776      43.5908075
2011    18      0.11817359      34.4391275
2011    19      0.32755638      79.72188875
2011    20      0.22770958      60.04785125
2011    21      0.16651179      46.29263875
2011    22      0.19088772      50.96232125
2011    23      0.17573151      47.81363875
2011    24      0.15355261      43.37775875
2011    25      0.12457903      36.2402525
2011    26      0.11700677      34.1562675
2011    27      0.1642192       44.6472875
2011    28      0.14112251      39.98888125
2011    29      0.10566879      32.2017675
2011    30      0.08990369      28.04684125
2011    31      0.1386102       39.8473
2012    1       0.17132455      45.86487125
2012    2       0.26105951      65.7334625
2012    3       0.4273429       99.94321375
2012    4       0.29372269      74.64408375
2012    5       0.29365921      73.6759375
2012    6       0.19169326      51.80245625
2012    7       0.09409182      29.1122575
2012    8       0.39324179      92.0313875
2012    9       0.34772428      85.53377625
2012    10      0.36984556      87.910765
2012    11      0.26336835      66.66357375
2012    12      0.18244978      48.68243875
2012    13      0.26837484      68.080775
2012    14      0.19309775      53.1400725
2012    15      0.19979764      54.72720125
2012    16      0.49532908      109.95026375
2012    17      0.22592876      59.480355
2012    18      0.15622562      43.9282675
2012    19      0.1655198       45.49058375
2012    20      0.17448084      47.195935
2012    21      0.1917104       51.33765
2012    22      0.17356838      47.071455
2012    23      0.22857122      59.9044425
2012    24      0.19840514      53.12769375
2012    25      0.29990085      72.89647875
2012    26      0.09722251      29.457045
2012    27      0.11745878      34.05743875
2012    28      0.19758499      52.8256475
2012    29      0.23530851      61.61634375
2012    30      0.22234664      59.63577375
2012    31      0.21862272      58.36945875
2013    1       0.16109607      44.63232375
2013    2       0.06461222      21.53824875
2013    3       0.09123684      28.29104875
2013    4       0.09745837      29.6415
2013    5       0.09513125      29.18015
2013    6       0.08640626      26.77569
2013    7       0.20403962      51.42597125
2013    8       0.33294979      79.48163625
2013    9       0.22031445      57.64422125
2013    10      0.13441779      38.642355
2013    11      0.19067929      51.2534225
2013    12      0.25197076      63.844055
2013    13      0.18335373      49.21123
2013    14      0.08614238      26.67474875
2013    15      0.05576382      18.93506875
2013    16      0.13765634      38.201865
2013    17      0.22223372      57.50298375
2013    18      0.2555208       64.3657275
2013    19      0.20655619      53.99300875
2013    20      0.18326817      48.12998875
2013    21      0.16916505      46.35247375
2013    22      0.21690932      57.24758125
2013    23      0.19815692      52.5661175
2013    24      0.23000789      58.6311525
2013    25      0.26039435      65.44211125
2013    26      0.23550969      61.9102225
2013    27      0.16776665      46.66956375
2013    28      0.15626165      43.95770375
2013    29      0.12974148      37.38255875
2013    30      0.2213246       55.4093675
2013    31      0.49201709      106.0845125
2014    1       0.23419979      58.6681275
2014    2       0.62076066      125.80213375
2014    3       0.51285044      112.37152
2014    4       0.2934425       73.2552625
2014    5       0.15317559      42.434045
2014    6       0.1896515       51.1267
2014    7       0.13932394      39.62114125
2014    8       0.22386645      58.50912625
2014    9       0.19559726      51.923015
2014    10      0.22861492      58.1998
2014    11      0.18755674      50.72233125
2014    12      0.20246084      54.1745525
2014    13      0.30373486      74.71655125
2014    14      0.33631611      80.1703575
2014    15      0.22248907      57.4059125
2014    16      0.36525858      86.1572125
2014    17      0.37310672      89.213605
2014    18      0.30151499      74.75287625
2014    19      0.26415976      66.8528325
2014    20      0.23218669      60.60497875
2014    21      0.1914106       51.5285675
2014    22      0.10267929      31.371725
2014    23      0.12076116      35.6995625
2014    24      0.15435674      42.92086
2014    25      0.18459066      50.1516175
2014    26      0.23171921      60.46271
2014    27      0.18132145      49.27706375
2014    28      0.13051984      37.68919125
2014    29      0.20307778      53.2418975
2014    30      0.32259571      77.18848625
2014    31      0.18226072      48.57016875
2015    1       0.18742828      50.66977375
2015    2       0.18576805      50.88807375
2015    3       0.17100514      46.857775
2015    4       0.15795101      44.4899225
2015    5       0.10776601      32.5968925
2015    6       0.086686        27.58898375
2015    7       0.08779632      27.7157225
2015    8       0.1883255       52.0278425
2015    9       0.23676996      63.36080875
2015    10      0.09021755      28.838895
2015    11      0.15860575      45.11060625
2015    12      0.14391906      40.9373175
2015    13      0.13630531      39.20449375
2015    14      0.0894259       27.91512625
2015    15      0.05473352      19.09217125
2015    16      0.07583885      24.69119
2015    17      0.16309905      44.691655
2015    18      0.15421964      43.58731375
2015    19      0.16016754      44.19763
2015    20      0.28074734      70.6824325
2015    21      0.3558037       85.4989625
2015    22      0.38991444      91.66108875
2015    23      0.40130745      92.43725125
2015    24      0.86662895      157.195125
2015    25      0.77281151      147.3866125
2015    26      0.68796385      133.26858375
2015    27      0.27474671      68.36600125
2015    28      0.39319199      91.595125
2015    29      0.33183928      80.10090125
2015    30      0.24188108      61.6347
2015    31      0.09675178      29.13809
2016    1       0.18502281      50.4708575
2016    2       0.14657871      41.73914625
2016    3       0.18408338      49.02290125
2016    4       0.18438619      49.66744875
2016    5       0.23828526      60.929005
2016    6       0.3641971       84.14768875
2016    7       0.45263468      99.9294625
2016    8       0.3840181       89.77777875
2016    9       0.23999008      62.02262375
2016    10      0.24043985      63.01741125
2016    11      0.2173147       57.66797
2016    12      0.3884202       90.96208625
2016    13      0.26815629      68.48972
2016    14      0.26260759      67.0963875
2016    15      0.23040716      60.0185725
2016    16      0.29867745      72.94740375
2016    17      0.24021306      62.25209875
2016    18      0.17783536      48.81717
2016    19      0.16608688      46.26858375
2016    20      0.07533847      24.293675
2016    21      0.07852892      24.9877425
2016    22      0.08689298      27.242825
2016    23      0.1834747       50.0650975
2016    24      0.24981949      63.71206875
2016    25      0.25868718      65.9890625
2016    26      0.24737408      62.94284625
2016    27      0.2583606       65.03020875
2016    28      0.23562862      61.00119375
2016    29      0.29654376      74.3422175
2016    30      0.30697639      75.36164125
2016    31      0.31920575      76.33711125
2017    1       0.57316256      123.4788125
2017    2       0.47128598      106.96605
2017    3       0.46376286      104.287645
2017    4       0.24531066      62.99844375
2017    5       0.16182149      44.349485
2017    6       0.20194131      53.84324125
2017    7       0.2001447       52.57487
2017    8       0.15731931      43.43066875
2017    9       0.22698651      57.5424175
2017    10      0.06832372      22.25078375
2017    11      0.08728449      26.68351125
2017    12      0.07345543      23.79491
2017    13      0.1016755       30.50174125
2017    14      0.24315192      62.43628375
2017    15      0.16665134      45.69607625
2017    16      0.16956916      46.4381475
2017    17      0.27525621      69.65001875
2017    18      0.258982        66.71139
2017    19      0.41828689      98.02165875
2017    20      0.29902444      74.79540875
2017    21      0.21172551      55.77935
2017    22      0.38589689      91.2722275
2017    23      0.3302685       81.6243
2017    24      0.34121418      82.9926325
2017    25      0.20870991      55.36098125
2017    26      0.1664928       45.270805
2017    27      0.15744186      43.68191125
2017    28      0.21951426      58.34442125
2017    29      0.31142228      76.4429425
2017    30      0.16584908      45.305395
2017    31      0.13197836      37.93077625
2018    1       0.38781604      91.28989125
2018    2       0.38835182      91.71613375
2018    3       0.26589325      68.3198625
2018    4       0.18505139      50.9005
2018    5       0.15068272      42.7930975
2018    6       0.2206695       58.0853825
2018    7       0.35743855      86.08293125
2018    8       0.50091163      110.0829875
2018    9       0.25498571      65.4154825
2018    10      0.15887137      44.28265625
2018    11      0.07652992      24.6232
2018    12      0.08898431      27.37425125
2018    13      0.08286173      26.25202
2018    14      0.09750776      29.73673
2018    15      0.07559495      24.31401625
2018    16      0.08533597      26.8615625
2018    17      0.14803231      41.34649
2018    18      0.2440429       59.29690625
2018    19      0.0805373       25.75083875
2018    20      0.06752259      22.46392875
2018    21      0.08910895      27.95871875
2018    22      0.14094882      39.68145375
2018    23      0.22626895      58.88091875
2018    24      0.16018601      44.1235425
2018    25      0.1434379       40.12293
2018    26      0.1604287       43.9751225
2018    27      0.15564193      43.463685
2018    28      0.22367585      59.031545
2018    29      0.21423806      57.85127125
2018    30      0.17406394      48.56306625
2018    31      0.19388926      52.7835625
