####################################################################################################
# Month: 11Nov                                                                                     #
# Station: ROB                                                                                     #
# Frequency: 345 GHz                                                                               #
# Columns are: year    day     segment         tau     Tb (K)                                      #
####################################################################################################
2009    1       0       0.7804335       147.7038
2009    1       1       0.7861003       148.8202
2009    1       2       0.8013087       150.2764
2009    1       3       0.8836855       159.2646
2009    1       4       0.9404296       165.1181
2009    1       5       0.9251847       164.3871
2009    1       6       1.117017        182.1622
2009    1       7       1.143201        184.4141
2009    2       0       1.1319          183.1251
2009    2       1       1.184372        187.9861
2009    2       2       1.134974        184.5807
2009    2       3       1.14712         185.7435
2009    2       4       1.277541        196.279
2009    2       5       1.53566         212.9961
2009    2       6       1.60318         216.3548
2009    2       7       1.58792         215.1359
2009    3       0       1.519518        210.7729
2009    3       1       1.568365        213.1726
2009    3       2       1.501272        209.3753
2009    3       3       1.328176        197.7843
2009    3       4       0.9115381       161.8968
2009    3       5       0.515986        112.0204
2009    3       6       0.3745656       88.33759
2009    3       7       0.30331         75.05222
2009    4       0       0.2467077       63.62404
2009    4       1       0.2265431       59.30598
2009    4       2       0.1576345       44.40647
2009    4       3       0.1399174       40.16007
2009    4       4       0.1578968       44.17054
2009    4       5       0.1956232       52.45508
2009    4       6       0.2588737       66.0488
2009    4       7       0.3046901       75.5273
2009    5       0       0.2082935       55.87708
2009    5       1       0.1506665       43.07786
2009    5       2       0.1356549       39.68116
2009    5       3       0.1373636       40.17665
2009    5       4       0.1395484       40.87078
2009    5       5       0.1705162       47.88813
2009    5       6       0.2220895       59.23613
2009    5       7       0.2440077       63.83489
2009    6       0       0.2149412       57.43712
2009    6       1       0.2145254       57.34378
2009    6       2       0.2003481       54.34527
2009    6       3       0.2368702       61.85784
2009    6       4       0.2991953       73.97363
2009    6       5       0.3474758       82.98667
2009    6       6       0.4631409       102.9314
2009    6       7       0.5139829       111.3314
2009    7       0       0.4115909       94.71607
2009    7       1       0.2850086       71.12329
2009    7       2       0.2422666       62.51665
2009    7       3       0.223808        58.8403
2009    7       4       0.1877591       51.24303
2009    7       5       0.2249005       59.33061
2009    7       6       0.3893667       91.0958
2009    7       7       0.4007146       92.42331
2009    8       0       0.4021727       92.12157
2009    8       1       0.5120407       110.6474
2009    8       2       0.4542535       101.5142
2009    8       3       0.3728408       87.03316
2009    8       4       0.3060485       74.63665
2009    8       5       0.4741968       103.3657
2009    8       6       0.6727142       132.7449
2009    8       7       0.717233        138.2156
2009    9       0       0.6363304       126.2724
2009    9       1       0.7227554       137.143
2009    9       2       0.8681357       153.4794
2009    9       3       1.03548         169.641
2009    9       4       1.191872        183.5114
2009    9       5       0.881327        155.5758
2009    9       6       0.4812809       104.0729
2009    9       7       0.4405602       98.7743
2009    10      0       0.2983625       72.60277
2009    10      1       0.3575476       83.76341
2009    10      2       0.582879        120.7027
2009    10      3       0.5104432       109.393
2009    10      4       0.4161874       93.62663
2009    10      5       0.4940361       106.4337
2009    10      6       0.6291016       126.8829
2009    10      7       0.6476035       129.27
2009    11      0       0.5485684       115.9132
2009    11      1       0.5371008       114.7744
2009    11      2       0.5667844       119.1085
2009    11      3       0.5717619       119.9834
2009    11      4       0.5745919       120.6977
2009    11      5       0.5444804       116.7663
2009    11      6       0.5941556       124.9121
2009    11      7       0.6512193       133.1323
2009    12      0       0.6747754       136.4247
2009    12      1       0.6599876       133.941
2009    12      2       0.6787452       135.849
2009    12      3       0.6658265       133.9255
2009    12      4       0.6305856       129.1113
2009    12      5       0.7128          140.957
2009    12      6       0.7764047       150.3283
2009    12      7       0.8388452       158.427
2009    13      0       0.873562        162.2464
2009    13      1       0.8901508       164.097
2009    13      2       0.8697006       161.6098
2009    13      3       0.8776673       161.9178
2009    13      4       0.7984722       152.3633
2009    13      5       0.8275228       156.2068
2009    13      6       0.8445543       158.5104
2009    13      7       0.787136        151.9865
2009    14      0       0.8139106       155.33
2009    14      1       0.7695096       150.0996
2009    14      2       0.6456627       134.1699
2009    14      3       0.5476002       119.306
2009    14      4       0.5251817       115.4088
2009    14      5       0.5013446       111.1784
2009    14      6       0.5640722       120.7666
2009    14      7       0.502617        110.3953
2009    15      0       0.3132257       77.13999
2009    15      1       0.1961185       53.3362
2009    15      2       0.1663801       46.38881
2009    15      3       0.1680301       46.47846
2009    15      4       0.1555517       44.04822
2009    15      5       0.2219244       57.98217
2009    15      6       0.3281118       80.20032
2009    15      7       0.4043352       95.07394
2009    16      0       0.3694689       88.30038
2009    16      1       0.3367225       81.34187
2009    16      2       0.3249471       78.40425
2009    16      3       0.3386787       80.93009
2009    16      4       0.4059243       92.28707
2009    16      5       0.4496393       99.71861
2009    16      6       0.6408341       129.7982
2009    16      7       0.9039366       162.0532
2009    17      0       0.9202028       162.6491
2009    17      1       0.8088065       150.5391
2009    17      2       0.839816        154.4926
2009    17      3       1.078633        177.4583
2009    17      4       1.111567        179.814
2009    17      5       1.052175        174.217
2009    17      6       1.326145        197.0006
2009    17      7       1.600396        214.189
2009    18      0       1.017844        173.072
2009    18      1       0.7933424       150.0833
2009    18      2       0.9193278       163.4871
2009    18      3       1.092141        179.1964
2009    18      4       1.172891        184.8584
2009    18      5       1.177831        185.948
2009    18      6       1.222157        190.7109
2009    18      7       1.192347        189.6467
2009    19      0       1.004032        173.6199
2009    19      1       0.635344        130.4768
2009    19      2       0.3510225       84.20635
2009    19      3       0.2537265       63.45845
2009    19      4       0.3597634       82.77741
2009    19      5       0.4120633       93.08387
2009    19      6       0.6066359       123.7433
2009    19      7       0.638826        127.4859
2009    20      0       0.7203916       137.8415
2009    20      1       0.7836086       146.6796
2009    20      2       0.9038012       160.3342
2009    20      3       1.106527        179.1926
2009    20      4       1.216287        188.8332
2009    20      5       1.444335        205.1339
2009    20      6       1.389085        202.2694
2009    20      7       1.473161        207.2133
2009    21      0       1.35499         199.4198
2009    21      1       1.269737        195.1357
2009    21      2       1.26243         195.5076
2009    21      3       1.364886        203.3337
2009    21      4       1.320065        200.5585
2009    21      5       1.423776        207.5515
2009    21      6       1.535498        214.6579
2009    21      7       1.464011        211.41
2009    22      0       1.539316        216.5447
2009    22      1       1.439029        211.4486
2009    22      2       1.544305        217.4192
2009    22      3       1.614312        220.8338
2009    22      4       1.628409        221.0459
2009    22      5       1.859818        231.6363
2009    22      6       1.865754        232.3193
2009    22      7       1.875215        232.8614
2009    23      0       1.914722        234.3315
2009    23      1       1.843757        232.2818
2009    23      2       1.695815        226.3015
2009    23      3       1.712533        226.8078
2009    23      4       1.786009        230.5195
2009    23      5       1.656355        224.7612
2009    23      6       1.531685        218.0677
2009    23      7       1.519104        217.355
2009    24      0       1.65924         225.252
2009    24      1       1.82279         232.7206
2009    24      2       1.590943        221.2745
2009    24      3       1.467213        213.7419
2009    24      4       1.674203        224.4602
2009    24      5       1.802383        230.0433
2009    24      6       1.731107        227.2987
2009    24      7       1.546522        218.0166
2009    25      0       1.083839        184.3469
2009    25      1       0.8474635       159.6299
2009    25      2       0.7989769       153.1952
2009    25      3       0.7692801       149.0827
2009    25      4       0.7856871       150.437
2009    25      5       0.818547        153.4609
2009    25      6       0.6428906       132.4603
2009    25      7       0.471918        107.2146
2009    26      0       0.3594277       87.37028
2009    26      1       0.516261        114.6687
2009    26      2       0.7441495       147.6545
2009    26      3       0.8459657       159.751
2009    26      4       0.9542394       170.0302
2009    26      5       0.9604316       169.7485
2009    26      6       1.024972        174.6493
2009    26      7       0.8810386       162.2053
2009    27      0       0.7829395       150.5176
2009    27      1       0.7088158       141.2867
2009    27      2       0.6406627       131.8581
2009    27      3       0.4744666       105.9587
2009    27      4       0.3589105       86.14755
2009    27      5       0.3634142       86.75112
2009    27      6       0.4970498       110.9756
2009    27      7       0.4389119       101.227
2009    28      0       0.4287289       98.89524
2009    28      1       0.44142         101.1431
2009    28      2       0.4536163       103.4541
2009    28      3       0.4543812       102.9974
2009    28      4       0.4460107       101.5847
2009    28      5       0.625574        128.6792
2009    28      6       0.7959368       150.5328
2009    28      7       0.8430368       156.7607
2009    29      0       0.9599882       169.2419
2009    29      1       1.107605        184.1649
2009    29      2       1.286347        198.2002
2009    29      3       1.445385        208.4674
2009    29      4       1.71505         222.6325
2009    29      5       1.847205        228.7151
2009    29      6       1.610359        217.963
2009    29      7       1.167951        189.3158
2009    30      0       1.037863        178.4625
2009    30      1       0.9187755       167.3547
2009    30      2       0.8253628       156.4451
2009    30      3       0.6933707       138.909
2009    30      4       0.5056121       111.0304
2009    30      5       0.4540898       102.1534
2009    30      6       0.5250746       113.8731
2009    30      7       0.5633255       118.427
2010    1       0       0.7763771       149.5268
2010    1       1       0.7295399       144.0585
2010    1       2       0.7418865       145.5837
2010    1       3       0.7238199       142.8786
2010    1       4       0.7120452       141.0624
2010    1       5       0.7002903       140.1363
2010    1       6       0.6694986       137.0952
2010    1       7       0.705501        142.2807
2010    2       0       0.6716724       137.9843
2010    2       1       0.6957884       141.8225
2010    2       2       0.6534333       135.7837
2010    2       3       0.6831126       139.7342
2010    2       4       0.6756312       138.56
2010    2       5       0.735402        146.9245
2010    2       6       0.8755822       164.2629
2010    2       7       1.072615        184.9731
2010    3       0       1.196827        195.3618
2010    3       1       1.004734        176.6846
2010    3       2       1.061533        180.5256
2010    3       3       0.9604785       169.6554
2010    3       4       0.8836895       160.8825
2010    3       5       1.065507        178.637
2010    3       6       1.294225        197.8468
2010    3       7       1.344856        200.6898
2010    4       0       1.181088        187.2833
2010    4       1       1.035091        175.3531
2010    4       2       0.7301715       143.4866
2010    4       3       0.5991163       125.1393
2010    4       4       0.4967677       108.9689
2010    4       5       0.6217566       128.3796
2010    4       6       0.6871442       138.4417
2010    4       7       0.6418326       132.5955
2010    5       0       0.5391391       117.1302
2010    5       1       0.490203        107.731
2010    5       2       0.5062736       108.9802
2010    5       3       0.6341735       128.1501
2010    5       4       0.8205041       152.7864
2010    5       5       1.091457        180.9784
2010    5       6       1.424631        207.9665
2010    5       7       1.53244         215.9821
2010    6       0       1.549807        216.8965
2010    6       1       1.689049        224.2646
2010    6       2       1.78921         229.9354
2010    6       3       1.566305        219.512
2010    6       4       1.020482        178.5159
2010    6       5       0.6053029       126.199
2010    6       6       0.7977828       149.5129
2010    6       7       0.8142177       152.875
2010    7       0       1.162929        187.8314
2010    7       1       1.506779        213.4304
2010    7       2       2.269477        245.8484
2010    7       3       2.786938        256.8363
2010    7       4       2.913591        258.1108
2010    7       5       3.075429        259.7605
2010    7       6       2.872141        256.6021
2010    7       7       2.593379        251.1116
2010    8       0       2.260651        241.9581
2010    8       1       1.830005        225.7986
2010    8       2       1.347506        198.4215
2010    8       3       0.8627777       155.3547
2010    8       4       0.7050673       136.5339
2010    8       5       0.6842578       133.927
2010    8       6       0.6214485       125.6806
2010    8       7       0.5089015       109.9737
2010    9       0       0.4503571       101.1109
2010    9       1       0.3456889       83.05159
2010    9       2       0.3485565       84.09148
2010    9       3       0.3374575       82.02678
2010    9       4       0.2720038       69.17871
2010    9       5       0.2594913       66.82458
2010    9       6       0.2700385       69.26563
2010    9       7       0.3089152       77.43566
2010    10      0       0.2502775       65.44995
2010    10      1       0.1921616       52.67296
2010    10      2       0.2105838       56.30807
2010    10      3       0.2069216       55.03016
2010    10      4       0.2004459       53.53037
2010    10      5       0.2279448       60.17048
2010    10      6       0.4301345       99.78324
2010    10      7       0.5497945       119.7194
2010    11      0       0.5309782       116.7189
2010    11      1       0.5515934       119.8824
2010    11      2       0.5500149       119.7224
2010    11      3       0.5574084       120.8153
2010    11      4       0.4948622       110.9207
2010    11      5       0.4694777       106.8705
2010    11      6       0.4950135       111.49
2010    11      7       0.5367327       118.5503
2010    12      0       0.4344749       101.5655
2010    12      1       0.3553828       87.0178
2010    12      2       0.3420419       84.06298
2010    12      3       0.4404047       101.8537
2010    12      4       0.4822332       108.8085
2010    12      5       0.5002714       111.3987
2010    12      6       0.4598697       104.1369
2010    12      7       0.4652742       105.1819
2010    13      0       0.4242787       98.26679
2010    13      1       0.3445948       83.26452
2010    13      2       0.2797575       70.32255
2010    13      3       0.2591206       66.09837
2010    13      4       0.2695593       68.23381
2010    13      5       0.3068148       75.65364
2010    13      6       0.3934175       92.2199
2010    13      7       0.4570143       103.213
2010    14      0       0.3878916       90.29979
2010    14      1       0.3360053       79.7191
2010    14      2       0.3900734       90.18885
2010    14      3       0.4916341       107.71
2010    14      4       0.4158957       95.5906
2010    14      5       0.3277534       80.04333
2010    14      6       0.4194294       97.09692
2010    14      7       0.4469506       102.4744
2010    15      0       0.4207593       97.96566
2010    15      1       0.4003345       93.78473
2010    15      2       0.358993        85.22443
2010    15      3       0.3183133       77.37408
2010    15      4       0.3272739       79.27209
2010    15      5       0.3573702       85.57731
2010    15      6       0.4677598       105.5251
2010    15      7       0.6658341       135.053
2010    16      0       0.7206455       141.65
2010    16      1       0.6680648       134.5272
2010    16      2       0.5453891       117.1548
2010    16      3       0.5088994       111.3094
2010    16      4       0.4818231       107.3886
2010    16      5       0.5764798       123.131
2010    16      6       0.660841        135.803
2010    16      7       0.7778791       151.4743
2010    17      0       0.8451336       159.008
2010    17      1       0.665012        134.7177
2010    17      2       0.6855163       136.0881
2010    17      3       0.6191584       127.6434
2010    17      4       0.5697691       120.272
2010    17      5       0.6158009       127.7441
2010    17      6       0.8304172       156.2143
2010    17      7       0.8723023       161.0723
2010    18      0       0.7649196       148.2461
2010    18      1       0.6679057       135.247
2010    18      2       0.5838409       122.8406
2010    18      3       0.5946512       124.1861
2010    18      4       0.6950903       138.1669
2010    18      5       0.7048032       139.4441
2010    18      6       0.7656938       147.323
2010    18      7       0.7978875       151.2302
2010    19      0       0.6681827       134.6956
2010    19      1       0.5278044       113.9966
2010    19      2       0.6894281       136.0614
2010    19      3       0.6455422       130.2346
2010    19      4       0.6078824       124.4128
2010    19      5       0.6477001       129.3343
2010    19      6       0.7839813       146.793
2010    19      7       0.8302776       153.0616
2010    20      0       0.8137982       151.7484
2010    20      1       0.9213559       164.3266
2010    20      2       1.041144        176.5303
2010    20      3       1.218073        191.9243
2010    20      4       1.023174        174.7714
2010    20      5       0.7964662       150.2315
2010    20      6       1.001946        172.8449
2010    20      7       0.8707335       159.4466
2010    21      0       0.697212        138.2718
2010    21      1       0.6243882       127.4977
2010    21      2       0.6690673       132.5909
2010    21      3       0.768388        145.4363
2010    21      4       0.8034028       150.1358
2010    21      5       0.8805314       159.568
2010    21      6       1.101521        182.1888
2010    21      7       1.19255         189.5462
2010    22      0       1.14653         185.0914
2010    22      1       0.9525542       166.5603
2010    22      2       0.9533495       166.2062
2010    22      3       0.9319507       163.7978
2010    22      4       0.9144123       162.5292
2010    22      5       0.9167695       164.2304
2010    22      6       1.038511        177.7269
2010    22      7       1.04401         178.8425
2010    23      0       0.9037752       165.0645
2010    23      1       0.7082611       141.9382
2010    23      2       0.7126262       142.6592
2010    23      3       0.7902534       152.0861
2010    23      4       0.6572675       134.6415
2010    23      5       0.627075        130.3754
2010    23      6       0.7061216       141.5528
2010    23      7       0.7925752       152.5678
2010    24      0       0.7136913       142.7922
2010    24      1       0.6589809       135.6369
2010    24      2       0.6014893       127.3251
2010    24      3       0.6184301       129.7613
2010    24      4       0.6385841       132.713
2010    24      5       0.5840612       124.7085
2010    24      6       0.6415396       133.5819
2010    24      7       0.6006241       127.3581
2010    25      0       0.4445516       101.6922
2010    25      1       0.3993681       93.56108
2010    25      2       0.4068412       94.49875
2010    25      3       0.4425276       100.4747
2010    25      4       0.4735494       106.1291
2010    25      5       0.4787341       107.2195
2010    25      6       0.5157001       113.6965
2010    25      7       0.5506023       120.0948
2010    26      0       0.5105578       113.8924
2010    26      1       0.4477275       103.2806
2010    26      2       0.3703296       89.08012
2010    26      3       0.2782013       70.78217
2010    26      4       0.2951059       74.15117
2010    26      5       0.3423028       83.85334
2010    26      6       0.4509127       103.9691
2010    26      7       0.5007769       112.4156
2010    27      0       0.4310373       100.4511
2010    27      1       0.4100436       96.62547
2010    27      2       0.4472571       102.8253
2010    27      3       0.4812463       107.9636
2010    27      4       0.5577746       119.838
2010    27      5       0.5320452       116.109
2010    27      6       0.5062167       112.075
2010    27      7       0.4821066       107.8843
2010    28      0       0.3737927       88.68944
2010    28      1       0.32701         79.54093
2010    28      2       0.3476224       83.07411
2010    28      3       0.3824408       89.13408
2010    28      4       0.3943401       91.6309
2010    28      5       0.4192399       96.50873
2010    28      6       0.4823166       107.6888
2010    28      7       0.4609738       104.4147
2010    29      0       0.3129708       77.61721
2010    29      1       0.2132136       57.48836
2010    29      2       0.198778        54.00673
2010    29      3       0.2153883       56.64469
2010    29      4       0.2466704       63.14619
2010    29      5       0.4269035       95.00127
2010    29      6       0.7388994       140.987
2010    29      7       0.808904        150.4367
2010    30      0       0.5244872       113.8885
2010    30      1       0.4410979       100.5336
2010    30      2       0.5346187       115.3064
2010    30      3       0.5924067       123.4783
2010    30      4       0.5024125       109.7657
2010    30      5       0.5193285       111.8854
2010    30      6       0.6451226       130.5774
2010    30      7       0.6785185       135.3586
2011    1       0       0.5457772       117.9134
2011    1       1       0.8683083       158.3529
2011    1       2       0.6850501       136.9365
2011    1       3       0.5855174       123.3988
2011    1       4       0.5982734       125.524
2011    1       5       0.6618234       134.6122
2011    1       6       0.6427718       131.9827
2011    1       7       0.5405267       117.4158
2011    2       0       0.4515701       103.1651
2011    2       1       0.4537309       103.8378
2011    2       2       0.5240337       114.4726
2011    2       3       0.4936661       108.9046
2011    2       4       0.4384188       99.49357
2011    2       5       0.4900714       108.4868
2011    2       6       0.6188669       129.8513
2011    2       7       0.6859791       140.1142
2011    3       0       0.659222        136.7386
2011    3       1       0.5801143       125.2948
2011    3       2       0.5026719       113.2649
2011    3       3       0.388072        93.32379
2011    3       4       0.4125977       97.70661
2011    3       5       0.4441425       103.1465
2011    3       6       0.648275        135.3991
2011    3       7       0.689597        141.0405
2011    4       0       0.6758415       139.0109
2011    4       1       0.6215556       131.3064
2011    4       2       0.4916416       110.8009
2011    4       3       0.4115992       96.01838
2011    4       4       0.4107095       94.98403
2011    4       5       0.4437808       100.7844
2011    4       6       0.5696167       122.4349
2011    4       7       0.5822516       124.7311
2011    5       0       0.5076833       112.789
2011    5       1       0.4644891       105.1442
2011    5       2       0.4928712       109.393
2011    5       3       0.4240308       98.09461
2011    5       4       0.3518491       84.94582
2011    5       5       0.3594732       87.08095
2011    5       6       0.4362491       101.3903
2011    5       7       0.5688039       123.4877
2011    6       0       0.6511827       134.527
2011    6       1       0.6984191       140.1547
2011    6       2       0.8456063       159.1624
2011    6       3       0.777358        150.2364
2011    6       4       0.8057336       153.7077
2011    6       5       0.8544322       160.211
2011    6       6       0.9032518       166.9777
2011    6       7       0.8914262       166.0561
2011    7       0       0.8635572       162.1985
2011    7       1       0.7825552       152.2456
2011    7       2       0.663657        136.3462
2011    7       3       0.5824824       124.1099
2011    7       4       0.5934526       124.1184
2011    7       5       0.6989302       136.7351
2011    7       6       0.7991622       149.8361
2011    7       7       1.014155        172.1546
2011    8       0       0.7088865       137.7784
2011    8       1       0.6101781       125.3776
2011    8       2       0.6649799       132.9922
2011    8       3       0.7683248       146.1406
2011    8       4       0.9103527       161.6735
2011    8       5       1.287373        193.6457
2011    8       6       1.260945        192.0328
2011    8       7       0.830892        155.5111
2011    9       0       0.6985276       139.6395
2011    9       1       0.7342011       143.6459
2011    9       2       0.8923982       161.4226
2011    9       3       0.9700881       168.0075
2011    9       4       0.5190847       112.9497
2011    9       5       0.3222876       79.33162
2011    9       6       0.3625001       87.02798
2011    9       7       0.3330556       81.48998
2011    10      0       0.2424853       62.90977
2011    10      1       0.2347617       61.32353
2011    10      2       0.24865         64.3654
2011    10      3       0.2626288       67.26051
2011    10      4       0.2796949       70.64819
2011    10      5       0.285947        71.90174
2011    10      6       0.3548624       85.45264
2011    10      7       0.3784499       89.79291
2011    11      0       0.3720764       88.15242
2011    11      1       0.374144        88.5175
2011    11      2       0.4528231       101.0671
2011    11      3       0.5029359       108.2914
2011    11      4       0.4503934       100.0167
2011    11      5       0.4410383       98.684
2011    11      6       0.5378807       115.5303
2011    11      7       0.6065062       127.068
2011    12      0       0.5380102       117.561
2011    12      1       0.6780282       138.0177
2011    12      2       0.8824267       164.0389
2011    12      3       0.9706258       173.5857
2011    12      4       1.109679        186.5402
2011    12      5       1.233261        196.4337
2011    12      6       1.258983        197.9083
2011    12      7       1.427149        209.3631
2011    13      0       1.581937        218.2525
2011    13      1       1.653596        220.8082
2011    13      2       1.940765        231.9644
2011    13      3       1.240667        191.2391
2011    13      4       1.131638        182.0835
2011    13      5       1.519127        208.6416
2011    13      6       1.700897        219.2611
2011    13      7       1.710306        219.7432
2011    14      0       1.610785        215.2909
2011    14      1       1.395933        204.1353
2011    14      2       1.330289        201.1203
2011    14      3       1.430372        208.9899
2011    14      4       1.357005        204.422
2011    14      5       1.343867        203.778
2011    14      6       1.40496         209.6413
2011    14      7       1.391054        209.6676
2011    15      0       1.421559        211.5382
2011    15      1       1.296971        203.0167
2011    15      2       1.121883        188.6187
2011    15      3       1.082988        184.3527
2011    15      4       0.9347731       169.3181
2011    15      5       0.9327259       169.7048
2011    15      6       1.065084        183.5455
2011    15      7       1.098834        186.4549
2011    16      0       1.008261        177.6641
2011    16      1       0.9170411       167.9125
2011    16      2       0.9475137       170.5615
2011    16      3       1.001564        175.5191
2011    16      4       0.9060633       165.5588
2011    16      5       0.8166546       155.7711
2011    16      6       0.8574972       160.6236
2011    16      7       0.9323178       168.779
2011    17      0       0.757658        148.5966
2011    17      1       0.6816882       138.6231
2011    17      2       0.7001843       140.9591
2011    17      3       0.6520985       134.1003
2011    17      4       0.5064326       111.9951
2011    17      5       0.4741026       106.5676
2011    17      6       0.580343        123.6089
2011    17      7       0.5520396       119.3859
2011    18      0       0.3910825       92.51189
2011    18      1       0.3579151       86.8344
2011    18      2       0.4256399       98.81134
2011    18      3       0.4920819       109.5587
2011    18      4       0.525642        114.6457
2011    18      5       0.5907475       124.018
2011    18      6       0.7217627       142.2839
2011    18      7       0.6968768       139.0518
2011    19      0       0.5302905       114.8369
2011    19      1       0.4987096       110.2232
2011    19      2       0.5400614       117.0517
2011    19      3       0.6276932       130.2584
2011    19      4       0.613186        127.6086
2011    19      5       0.5486907       117.776
2011    19      6       0.4983584       110.0787
2011    19      7       0.4713465       105.8598
2011    20      0       0.5143389       112.8367
2011    20      1       0.4776389       106.1844
2011    20      2       0.5289346       114.0605
2011    20      3       0.7064256       138.9652
2011    20      4       0.7335206       142.0238
2011    20      5       0.6594001       132.5444
2011    20      6       0.7648407       146.2633
2011    20      7       0.8120504       151.705
2011    21      0       0.6790861       135.256
2011    21      1       0.5373915       114.6799
2011    21      2       0.5089283       110.1999
2011    21      3       0.5542914       116.9441
2011    21      4       0.6785774       134.2131
2011    21      5       0.8574829       156.8683
2011    21      6       1.086151        180.8616
2011    21      7       1.184034        190.3618
2011    22      0       1.07263         180.8317
2011    22      1       0.9983816       173.9791
2011    22      2       0.9796168       172.7589
2011    22      3       0.9503788       169.882
2011    22      4       1.007895        175.4804
2011    22      5       0.9948122       174.7692
2011    22      6       0.9215632       167.7409
2011    22      7       0.7629087       149.2598
2011    23      0       0.5191688       114.456
2011    23      1       0.4507047       102.65
2011    23      2       0.3783989       89.43798
2011    23      3       0.3740052       88.41178
2011    23      4       0.4115387       94.88506
2011    23      5       0.5166468       112.0411
2011    23      6       0.6441938       131.6877
2011    23      7       0.6623317       134.7289
2011    24      0       0.5491042       118.4366
2011    24      1       0.4628986       104.8889
2011    24      2       0.4898496       109.9649
2011    24      3       0.5735845       123.674
2011    24      4       0.5336274       117.2606
2011    24      5       0.5107378       113.8998
2011    24      6       0.6200397       131.0006
2011    24      7       0.7261011       146.1468
2011    25      0       0.6169246       130.8803
2011    25      1       0.5002292       112.5857
2011    25      2       0.5119729       114.6607
2011    25      3       0.4638669       106.3385
2011    25      4       0.4438456       102.8139
2011    25      5       0.4955782       111.7465
2011    25      6       0.6423098       134.831
2011    25      7       0.7020446       143.6564
2011    26      0       0.6643416       138.2989
2011    26      1       0.5310815       118.2605
2011    26      2       0.6138251       131.3179
2011    26      3       0.7335792       148.063
2011    26      4       0.7825573       154.2732
2011    26      5       0.8913661       167.363
2011    26      6       1.056489        183.8445
2011    26      7       1.150043        191.1137
2011    27      0       1.006843        178.4725
2011    27      1       0.6998109       142.6147
2011    27      2       0.6656595       137.8691
2011    27      3       0.6736574       138.3348
2011    27      4       0.6786901       138.7592
2011    27      5       0.6459129       133.886
2011    27      6       0.770781        150.6775
2011    27      7       0.6311755       132.0204
2011    28      0       0.4105622       96.1913
2011    28      1       0.2826745       71.68014
2011    28      2       0.2513917       65.34372
2011    28      3       0.2350471       61.85386
2011    28      4       0.2423279       63.55789
2011    28      5       0.2695801       69.705
2011    28      6       0.3190417       80.16822
2011    28      7       0.4155931       98.40998
2011    29      0       0.3649697       88.96814
2011    29      1       0.2692444       69.57827
2011    29      2       0.2361167       62.35972
2011    29      3       0.2130997       57.2119
2011    29      4       0.200942        54.7573
2011    29      5       0.2398391       63.19914
2011    29      6       0.3105436       78.74362
2011    29      7       0.374764        91.24795
2011    30      0       0.3392704       84.34448
2011    30      1       0.2635724       68.71492
2011    30      2       0.2448613       64.73976
2011    30      3       0.2490575       65.45445
2011    30      4       0.2739321       70.45028
2011    30      5       0.3093782       77.87452
2011    30      6       0.3533549       87.0077
2011    30      7       0.3369358       83.96877
2012    1       0       0.6915912       137.5853
2012    1       1       0.6442251       131.4283
2012    1       2       0.6641257       134.0431
2012    1       3       0.7288565       142.0347
2012    1       4       0.7275669       141.4741
2012    1       5       0.7446242       143.9144
2012    1       6       0.8504433       158.1835
2012    1       7       0.89049         164.0337
2012    2       0       0.7612739       149.7235
2012    2       1       0.6654818       137.651
2012    2       2       0.6532332       135.7624
2012    2       3       0.5959696       127.2883
2012    2       4       0.5147508       114.7264
2012    2       5       0.5128417       114.3537
2012    2       6       0.6459865       134.9564
2012    2       7       0.7015297       142.6183
2012    3       0       0.5847843       125.9771
2012    3       1       0.4682185       106.7362
2012    3       2       0.4690863       106.3313
2012    3       3       0.5536714       119.9455
2012    3       4       0.6653483       136.2174
2012    3       5       0.7205441       143.3975
2012    3       6       0.8448298       159.0272
2012    3       7       0.9122225       166.6509
2012    4       0       0.74944         146.7979
2012    4       1       0.6067635       127.1577
2012    4       2       0.5604736       120.8571
2012    4       3       0.5144036       114.1489
2012    4       4       0.4790043       108.7866
2012    4       5       0.5112206       114.3802
2012    4       6       0.6622287       137.523
2012    4       7       0.848198        161.4477
2012    5       0       0.6705365       139.0437
2012    5       1       0.5532971       121.8876
2012    5       2       0.4826327       110.4509
2012    5       3       0.4321547       101.5334
2012    5       4       0.3305873       82.48108
2012    5       5       0.2747119       71.28754
2012    5       6       0.330411        82.8
2012    5       7       0.4482928       104.9059
2012    6       0       0.4474525       104.5339
2012    6       1       0.403304        96.04902
2012    6       2       0.4457693       103.7832
2012    6       3       0.4611808       106.5498
2012    6       4       0.3863287       92.94814
2012    6       5       0.3595849       87.74139
2012    6       6       0.4278792       99.94889
2012    6       7       0.4752877       108.0138
2012    7       0       0.3839837       91.5674
2012    7       1       0.3805548       91.15593
2012    7       2       0.4027728       95.22198
2012    7       3       0.5619275       121.738
2012    7       4       0.5727307       123.6362
2012    7       5       0.5081734       113.4416
2012    7       6       0.6661342       138.028
2012    7       7       1.023167        180.1886
2012    8       0       0.8104151       156.7683
2012    8       1       0.4319781       100.0942
2012    8       2       0.3982862       94.12187
2012    8       3       0.4509593       103.2257
2012    8       4       0.4759369       106.9104
2012    8       5       0.6049469       126.9486
2012    8       6       0.7305001       144.1137
2012    8       7       0.9256028       166.7656
2012    9       0       0.8789972       160.8226
2012    9       1       0.7534863       145.2614
2012    9       2       0.7306936       142.2057
2012    9       3       0.9388128       165.5628
2012    9       4       1.175624        186.7588
2012    9       5       1.485512        208.4681
2012    9       6       1.869538        227.6319
2012    9       7       1.620586        216.5879
2012    10      0       0.950558        167.4169
2012    10      1       0.7226959       141.692
2012    10      2       0.7178791       140.8184
2012    10      3       0.7090741       139.3614
2012    10      4       0.6551559       131.9646
2012    10      5       0.5392831       115.4046
2012    10      6       0.6534013       132.9128
2012    10      7       0.611364        127.2153
2012    11      0       0.3675781       87.72033
2012    11      1       0.330413        81.05071
2012    11      2       0.2856458       72.24478
2012    11      3       0.249513        64.63353
2012    11      4       0.2385675       62.27464
2012    11      5       0.27273         69.02196
2012    11      6       0.3072001       76.1532
2012    11      7       0.3624894       87.49249
2012    12      0       0.348142        84.96052
2012    12      1       0.297933        75.3173
2012    12      2       0.3234393       80.25625
2012    12      3       0.3580635       86.79248
2012    12      4       0.3074158       76.74071
2012    12      5       0.3143137       78.50638
2012    12      6       0.4500068       104.2488
2012    12      7       0.5401329       119.4183
2012    13      0       0.4735718       108.3547
2012    13      1       0.4997131       112.6828
2012    13      2       0.4299301       100.5113
2012    13      3       0.3820885       91.85819
2012    13      4       0.3115027       78.25503
2012    13      5       0.315081        78.94128
2012    13      6       0.5293676       117.4541
2012    13      7       0.6562538       136.7129
2012    14      0       0.5064828       114.1374
2012    14      1       0.3781429       91.43962
2012    14      2       0.3593648       87.36506
2012    14      3       0.5507006       120.3449
2012    14      4       0.6156555       129.6404
2012    14      5       0.5447507       117.8542
2012    14      6       0.6911011       139.7337
2012    14      7       0.7203468       143.331
2012    15      0       0.5501713       119.5581
2012    15      1       0.4364064       100.8998
2012    15      2       0.4936751       109.7039
2012    15      3       0.5583886       120.6078
2012    15      4       0.5792503       124.5225
2012    15      5       0.7342193       145.9065
2012    15      6       0.8870165       164.4987
2012    15      7       0.947399        171.2269
2012    16      0       0.8721822       161.3
2012    16      1       0.8796105       161.7485
2012    16      2       0.9960138       174.1137
2012    16      3       1.016596        176.0666
2012    16      4       0.9163018       165.712
2012    16      5       0.8823512       161.9975
2012    16      6       0.9872311       173.4055
2012    16      7       0.9896029       174.225
2012    17      0       0.8913471       163.9978
2012    17      1       0.7715914       150.2916
2012    17      2       0.7727695       149.9395
2012    17      3       0.8304062       155.6249
2012    17      4       0.7363733       144.4609
2012    17      5       0.7436465       145.2671
2012    17      6       0.7690076       148.8369
2012    17      7       0.6301064       130.7815
2012    18      0       0.5090865       112.6485
2012    18      1       0.4754742       107.489
2012    18      2       0.4718348       106.9183
2012    18      3       0.4330282       100.3237
2012    18      4       0.3944875       93.72194
2012    18      5       0.4188635       98.13728
2012    18      6       0.5271128       116.8343
2012    18      7       0.5680784       123.6275
2012    19      0       0.5244101       116.8903
2012    19      1       0.3987074       95.30594
2012    19      2       0.3842066       92.32008
2012    19      3       0.3736927       90.44697
2012    19      4       0.3625015       88.34579
2012    19      5       0.413434        97.48292
2012    19      6       0.5319391       117.7572
2012    19      7       0.6104037       130.2179
2012    20      0       0.5220437       116.8549
2012    20      1       0.4032811       96.54643
2012    20      2       0.4118258       97.97729
2012    20      3       0.3893901       93.33035
2012    20      4       0.3866707       92.75815
2012    20      5       0.4713104       108.3386
2012    20      6       0.8825409       166.0973
2012    20      7       1.101988        188.2708
2012    21      0       0.9462558       173.4196
2012    21      1       0.6103627       130.8703
2012    21      2       0.5308812       117.9984
2012    21      3       0.6709533       138.6592
2012    21      4       0.7413403       147.4951
2012    21      5       0.7410696       147.0389
2012    21      6       0.981663        174.4193
2012    21      7       0.7462789       147.6693
2012    22      0       0.5863173       125.1732
2012    22      1       0.652367        134.4343
2012    22      2       0.5398686       117.1842
2012    22      3       0.5634515       119.9177
2012    22      4       0.5617172       119.2653
2012    22      5       0.6830202       136.8169
2012    22      6       0.8353216       156.4879
2012    22      7       0.7677184       148.3005
2012    23      0       0.5711983       121.402
2012    23      1       0.4322301       99.14934
2012    23      2       0.3478546       84.24564
2012    23      3       0.2254344       59.72077
2012    23      4       0.206855        55.69208
2012    23      5       0.1869904       51.25367
2012    23      6       0.2846196       71.4617
2012    23      7       0.2916011       73.05417
2012    24      0       0.1952443       53.30581
2012    24      1       0.1151552       35.03633
2012    24      2       0.110985        34.08224
2012    24      3       0.1163014       35.37516
2012    24      4       0.1174849       35.55208
2012    24      5       0.1255787       37.38416
2012    24      6       0.1815435       50.4715
2012    24      7       0.2267663       60.22954
2012    25      0       0.2050013       54.82534
2012    25      1       0.1968841       52.33045
2012    25      2       0.2320969       59.74184
2012    25      3       0.2475493       63.07044
2012    25      4       0.2762119       69.18946
2012    25      5       0.299166        74.25743
2012    25      6       0.3954943       92.95602
2012    25      7       0.433721        100.0572
2012    26      0       0.3978009       93.3827
2012    26      1       0.405324        94.3135
2012    26      2       0.4711611       105.5644
2012    26      3       0.5830905       123.2948
2012    26      4       0.5706126       121.672
2012    26      5       0.5538836       119.3512
2012    26      6       0.6752751       137.6436
2012    26      7       0.6977424       141.0724
2012    27      0       0.4922114       110.3968
2012    27      1       0.3064963       76.59154
2012    27      2       0.2700689       69.13097
2012    27      3       0.2658569       67.98684
2012    27      4       0.2756624       69.68188
2012    27      5       0.3280192       79.69977
2012    27      6       0.4417048       101.452
2012    27      7       0.594733        126.5938
2012    28      0       0.682402        139.6415
2012    28      1       0.7686735       151.2028
2012    28      2       0.7553318       148.8724
2012    28      3       0.6553943       134.4962
2012    28      4       0.6593752       134.1404
2012    28      5       0.7524957       146.7208
2012    28      6       0.9435551       168.9283
2012    28      7       0.8982818       163.6038
2012    29      0       1.003575        173.457
2012    29      1       1.140112        187.3891
2012    29      2       1.341814        202.3193
2012    29      3       1.424687        205.7772
2012    29      4       1.396921        203.2482
2012    29      5       1.405016        204.6103
2012    29      6       1.040954        176.1221
2012    29      7       0.7029084       138.94
2012    30      0       0.5768854       121.5334
2012    30      1       0.5275809       114.1745
2012    30      2       0.5385079       114.9489
2012    30      3       0.7633645       143.0903
2012    30      4       0.8974973       158.5262
2012    30      5       0.9940994       169.6184
2012    30      6       1.230639        191.4606
2012    30      7       1.180355        187.2639
2013    1       0       1.669532        216.9655
2013    1       1       1.42252         203.7597
2013    1       2       1.234172        190.9787
2013    1       3       0.9250641       163.1546
2013    1       4       0.8451299       155.0227
2013    1       5       0.8381386       154.9554
2013    1       6       0.8171446       153.3068
2013    1       7       0.9957644       171.683
2013    2       0       0.9435889       165.989
2013    2       1       0.981887        169.5639
2013    2       2       0.8848663       159.502
2013    2       3       0.5469515       116.555
2013    2       4       0.2721572       68.90267
2013    2       5       0.2443044       63.31353
2013    2       6       0.3400797       82.03639
2013    2       7       0.4637715       104.3707
2013    3       0       0.4980594       109.6399
2013    3       1       0.5334372       114.6228
2013    3       2       0.6419085       130.5002
2013    3       3       0.7505984       145.0443
2013    3       4       0.7587877       146.6426
2013    3       5       0.7512203       146.5991
2013    3       6       0.7657408       149.2644
2013    3       7       0.8117973       155.5664
2013    4       0       0.7592534       149.3931
2013    4       1       0.699482        141.5767
2013    4       2       0.6534802       135.2035
2013    4       3       0.660286        136.177
2013    4       4       0.6520609       134.8269
2013    4       5       0.6198731       130.3426
2013    4       6       0.5987292       127.6244
2013    4       7       0.5670916       123.103
2013    5       0       0.4716629       107.9313
2013    5       1       0.3842032       92.74532
2013    5       2       0.331132        82.64743
2013    5       3       0.298574        76.06537
2013    5       4       0.3247733       81.16763
2013    5       5       0.4105832       97.34696
2013    5       6       0.4940653       111.9564
2013    5       7       0.5522127       121.1211
2013    6       0       0.4416789       102.6318
2013    6       1       0.4182648       98.24246
2013    6       2       0.5296068       116.7062
2013    6       3       0.6682374       136.5618
2013    6       4       0.7515105       146.5066
2013    6       5       0.7576221       146.5956
2013    6       6       0.7391493       144.5608
2013    6       7       0.6759547       136.4359
2013    7       0       0.4559807       103.5701
2013    7       1       0.2331454       61.42098
2013    7       2       0.1326129       38.83908
2013    7       3       0.1502456       42.80946
2013    7       4       0.1529265       42.9185
2013    7       5       0.1875944       50.33902
2013    7       6       0.2630335       67.01135
2013    7       7       0.3297484       80.20815
2013    8       0       0.3097009       75.70553
2013    8       1       0.3023715       74.03961
2013    8       2       0.2959349       72.59594
2013    8       3       0.3571002       83.94868
2013    8       4       0.4052344       93.34835
2013    8       5       0.3845275       90.7644
2013    8       6       0.4963634       110.0593
2013    8       7       0.5465893       117.8961
2013    9       0       0.4556361       103.3829
2013    9       1       0.4621905       104.4796
2013    9       2       0.4179756       96.60008
2013    9       3       0.424995        97.20986
2013    9       4       0.5065704       110.225
2013    9       5       0.612627        125.9015
2013    9       6       0.8974942       160.6189
2013    9       7       1.111887        181.1757
2013    10      0       1.116159        182.1989
2013    10      1       1.170423        186.4089
2013    10      2       1.331066        198.4567
2013    10      3       1.37431         200.8318
2013    10      4       1.478585        206.6059
2013    10      5       1.836081        223.8667
2013    10      6       1.917066        228.0919
2013    10      7       1.894045        228.6756
2013    11      0       1.445312        207.1563
2013    11      1       1.069858        179.7044
2013    11      2       0.9695395       170.1249
2013    11      3       0.8607678       158.0734
2013    11      4       0.7022772       139.0968
2013    11      5       0.6806646       136.5453
2013    11      6       0.8433297       156.983
2013    11      7       0.9492743       168.0092
2013    12      0       0.8894304       160.8681
2013    12      1       0.7851744       148.6788
2013    12      2       0.71853         140.8768
2013    12      3       0.6862358       137.2194
2013    12      4       0.6197525       128.7452
2013    12      5       0.5964288       125.7404
2013    12      6       0.6019624       127.3652
2013    12      7       0.5491914       119.969
2013    13      0       0.526117        116.0938
2013    13      1       0.5350194       117.2678
2013    13      2       0.4831106       109.2797
2013    13      3       0.4753524       108.2952
2013    13      4       0.5030456       112.9096
2013    13      5       0.5176546       115.4653
2013    13      6       0.6045557       129.307
2013    13      7       0.5476235       120.6683
2013    14      0       0.5182401       115.7187
2013    14      1       0.5544051       121.0915
2013    14      2       0.5522779       120.18
2013    14      3       0.5116745       113.1924
2013    14      4       0.5037113       111.7192
2013    14      5       0.5216344       114.1911
2013    14      6       0.6138781       127.8218
2013    14      7       0.5978182       125.6446
2013    15      0       0.3977476       93.41909
2013    15      1       0.2536876       65.85584
2013    15      2       0.2104457       57.09318
2013    15      3       0.1616671       46.00087
2013    15      4       0.1823528       50.67369
2013    15      5       0.220459        59.01798
2013    15      6       0.2696855       69.52292
2013    15      7       0.299371        75.61965
2013    16      0       0.2775293       71.08464
2013    16      1       0.236646        62.90164
2013    16      2       0.2100652       57.26171
2013    16      3       0.2081151       56.76241
2013    16      4       0.2041646       55.83493
2013    16      5       0.2191494       59.13266
2013    16      6       0.3075164       77.88832
2013    16      7       0.4160109       98.23106
2013    17      0       0.355867        86.91079
2013    17      1       0.3466974       84.06066
2013    17      2       0.3955427       92.11343
2013    17      3       0.4800207       106.6603
2013    17      4       0.5570244       118.9719
2013    17      5       0.6251962       128.8858
2013    17      6       0.8384748       156.7308
2013    17      7       0.9759818       171.8922
2013    18      0       0.7895594       151.3079
2013    18      1       0.6037396       127.4183
2013    18      2       0.6332073       132.071
2013    18      3       0.7102762       142.4326
2013    18      4       0.7875933       151.7806
2013    18      5       0.8322582       157.1079
2013    18      6       0.8605471       160.6541
2013    18      7       0.8943638       164.3123
2013    19      0       0.8159011       155.2365
2013    19      1       0.721537        143.3082
2013    19      2       0.6823705       137.9726
2013    19      3       0.6811717       137.5639
2013    19      4       0.6253409       129.8642
2013    19      5       0.6836289       138.0106
2013    19      6       0.9089169       164.9128
2013    19      7       0.9976427       173.6161
2013    20      0       0.8313878       156.2448
2013    20      1       0.7556302       147.5666
2013    20      2       0.6847453       138.4398
2013    20      3       0.5179326       113.6467
2013    20      4       0.4569102       103.2571
2013    20      5       0.4650038       104.2556
2013    20      6       0.5931036       124.3781
2013    20      7       0.7301282       143.3752
2013    21      0       0.7302337       143.5792
2013    21      1       0.8598882       160.8029
2013    21      2       0.6908862       139.5089
2013    21      3       0.6813059       138.3616
2013    21      4       0.7064046       142.0769
2013    21      5       0.7466407       147.536
2013    21      6       0.7726375       151.3093
2013    21      7       0.775775        152.2935
2013    22      0       0.6977332       142.3014
2013    22      1       0.7609954       151.0633
2013    22      2       0.8082521       156.5566
2013    22      3       0.7174952       144.3939
2013    22      4       0.6156608       128.833
2013    22      5       0.6064838       127.7894
2013    22      6       0.7259276       144.8913
2013    22      7       0.9220985       167.6504
2013    23      0       0.9144638       167.0271
2013    23      1       0.9774382       172.5538
2013    23      2       0.8344575       156.5082
2013    23      3       0.7322092       142.8396
2013    23      4       0.7566718       145.5022
2013    23      5       0.7852855       150.9324
2013    23      6       1.007059        176.3112
2013    23      7       1.207198        194.1569
2013    24      0       1.153358        190.0081
2013    24      1       1.087826        184.4482
2013    24      2       1.020577        177.7837
2013    24      3       0.8739348       161.6439
2013    24      4       0.8685028       160.6862
2013    24      5       0.9736772       171.812
2013    24      6       1.072753        181.5898
2013    24      7       0.982761        172.8621
2013    25      0       0.7863562       150.727
2013    25      1       0.6131568       127.9677
2013    25      2       0.5140682       113.0878
2013    25      3       0.5325137       115.5942
2013    25      4       0.5905247       124.3993
2013    25      5       0.6384621       131.5175
2013    25      6       0.7434996       145.9831
2013    25      7       0.7620274       148.7086
2013    26      0       0.5883614       125.4072
2013    26      1       0.523763        115.4836
2013    26      2       0.4991455       111.2297
2013    26      3       0.4600689       104.3516
2013    26      4       0.4899342       108.8933
2013    26      5       0.4747675       106.4082
2013    26      6       0.5355731       115.9949
2013    26      7       0.3612935       86.56423
2013    27      0       0.2307089       60.87959
2013    27      1       0.1310623       38.67384
2013    27      2       0.1145686       34.70426
2013    27      3       0.1223696       36.44006
2013    27      4       0.1434913       41.32042
2013    27      5       0.1819262       50.20902
2013    27      6       0.2656793       68.58275
2013    27      7       0.3222961       79.94059
2013    28      0       0.2501838       65.17597
2013    28      1       0.2348117       62.00724
2013    28      2       0.2522637       65.44719
2013    28      3       0.2683467       68.70156
2013    28      4       0.2820014       71.58576
2013    28      5       0.2953085       74.36016
2013    28      6       0.3553103       86.06841
2013    28      7       0.3294219       81.0276
2013    29      0       0.2747356       70.12355
2013    29      1       0.2630177       67.70966
2013    29      2       0.3539014       84.71672
2013    29      3       0.383359        89.87422
2013    29      4       0.3617495       86.46732
2013    29      5       0.3551884       85.6965
2013    29      6       0.4088287       96.21658
2013    29      7       0.4376022       101.6728
2013    30      0       0.3800119       91.4832
2013    30      1       0.3251202       81.08635
2013    30      2       0.2874603       73.60017
2013    30      3       0.2541442       66.55693
2013    30      4       0.2802769       71.9963
2013    30      5       0.3546261       86.75987
2013    30      6       0.4740778       108.3003
2013    30      7       0.4915871       111.27
2014    1       0       0.3432737       82.85722
2014    1       1       0.2805278       70.70207
2014    1       2       0.2623559       66.78291
2014    1       3       0.2592189       65.40559
2014    1       4       0.2671389       66.28065
2014    1       5       0.3645777       83.78007
2014    1       6       0.4334556       95.56686
2014    1       7       0.4829451       103.1849
2014    2       0       0.4962062       105.0011
2014    2       1       0.4862029       104.4465
2014    2       2       0.4802516       104.0736
2014    2       3       0.3807756       87.75173
2014    2       4       0.2725136       67.84434
2014    2       5       0.2387539       61.49512
2014    2       6       0.2756508       69.38974
2014    2       7       0.2734789       69.22747
2014    3       0       0.1777883       49.16261
2014    3       1       0.1744207       48.09207
2014    3       2       0.2199594       57.5763
2014    3       3       0.2081905       55.37503
2014    3       4       0.2019522       54.22542
2014    3       5       0.1776663       49.28485
2014    3       6       0.2056907       55.48675
2014    3       7       0.2390375       62.40304
2014    4       0       0.2262676       59.47085
2014    4       1       0.2123396       56.36277
2014    4       2       0.1939753       52.371
2014    4       3       0.1837723       50.14475
2014    4       4       0.1845199       50.35009
2014    4       5       0.1916262       52.21041
2014    4       6       0.3072574       76.512
2014    4       7       0.3592357       86.1681
2014    5       0       0.2701409       68.45587
2014    5       1       0.2712616       68.44524
2014    5       2       0.2765897       69.17344
2014    5       3       0.3685946       85.96662
2014    5       4       0.4606611       101.5824
2014    5       5       0.6636599       131.8339
2014    5       6       0.879893        159.3648
2014    5       7       0.81069         152.428
2014    6       0       0.7033004       139.6466
2014    6       1       0.6731377       135.717
2014    6       2       0.6050663       126.6597
2014    6       3       0.5169954       113.152
2014    6       4       0.4501916       101.7508
2014    6       5       0.4085836       94.09053
2014    6       6       0.3917583       91.57295
2014    6       7       0.3978004       92.72883
2014    7       0       0.3323532       80.15329
2014    7       1       0.2661261       67.31295
2014    7       2       0.252511        64.99409
2014    7       3       0.2170663       57.90867
2014    7       4       0.2054388       55.2779
2014    7       5       0.23076         60.60331
2014    7       6       0.3362217       82.50218
2014    7       7       0.4356259       101.3084
2014    8       0       0.3726716       90.1443
2014    8       1       0.212654        57.85497
2014    8       2       0.1953036       53.94776
2014    8       3       0.2300643       61.50998
2014    8       4       0.2081729       56.63116
2014    8       5       0.2233239       59.89972
2014    8       6       0.27361         70.99752
2014    8       7       0.3789654       91.937
2014    9       0       0.320209        80.49248
2014    9       1       0.2784485       71.40252
2014    9       2       0.338942        82.98189
2014    9       3       0.3569338       86.31965
2014    9       4       0.3263285       79.61678
2014    9       5       0.3978914       93.05214
2014    9       6       0.5461128       117.9943
2014    9       7       0.6255758       129.5973
2014    10      0       0.6264285       129.1603
2014    10      1       0.5242677       113.8044
2014    10      2       0.4782151       106.865
2014    10      3       0.525225        113.9886
2014    10      4       0.5800332       121.9507
2014    10      5       0.5922163       124.0191
2014    10      6       0.6430565       131.8323
2014    10      7       0.698676        139.8317
2014    11      0       0.6594628       134.0478
2014    11      1       0.6371708       130.4632
2014    11      2       0.6298601       129.3929
2014    11      3       0.6603208       132.9614
2014    11      4       0.6530513       131.3476
2014    11      5       0.5894637       122.8607
2014    11      6       0.6425232       132.5506
2014    11      7       0.6643316       136.3421
2014    12      0       0.5013431       111.7058
2014    12      1       0.3750853       89.69295
2014    12      2       0.2857137       72.62841
2014    12      3       0.2796892       71.47219
2014    12      4       0.2486788       64.95507
2014    12      5       0.2434243       63.88932
2014    12      6       0.3691007       88.70977
2014    12      7       0.3206039       79.54113
2014    13      0       0.1780108       49.38765
2014    13      1       0.1138863       34.36021
2014    13      2       0.1514029       42.62856
2014    13      3       0.1548421       43.74366
2014    13      4       0.197801        53.33149
2014    13      5       0.2650657       67.88173
2014    13      6       0.3725746       89.31236
2014    13      7       0.4715243       107.1211
2014    14      0       0.4548028       103.9745
2014    14      1       0.4365661       100.8011
2014    14      2       0.4444652       102.0919
2014    14      3       0.5023655       111.5059
2014    14      4       0.5099492       112.4602
2014    14      5       0.5672368       120.9786
2014    14      6       0.6321431       130.4941
2014    14      7       0.6785041       137.2873
2014    15      0       0.7437331       145.914
2014    15      1       0.8027004       154.0711
2014    15      2       0.8029415       154.1603
2014    15      3       0.7870137       151.913
2014    15      4       0.7497953       147.6145
2014    15      5       0.8277055       158.0051
2014    15      6       0.8970374       166.521
2014    15      7       0.8417255       160.0802
2014    16      0       0.8360838       159.4041
2014    16      1       0.989707        176.7888
2014    16      2       1.156332        192.8937
2014    16      3       1.258651        201.1917
2014    16      4       1.367737        208.8951
2014    16      5       1.573536        221.2542
2014    16      6       1.791805        232.1179
2014    16      7       2.068027        242.6048
2014    17      0       2.035758        241.7416
2014    17      1       1.673074        227.8455
2014    17      2       1.396837        212.1965
2014    17      3       1.376405        210.3724
2014    17      4       1.52839         219.596
2014    17      5       1.5827          222.6372
2014    17      6       1.505096        218.4431
2014    17      7       1.398           211.8826
2014    18      0       1.251507        200.7984
2014    18      1       1.120091        189.3462
2014    18      2       0.9154406       168.3128
2014    18      3       0.9237017       168.2696
2014    18      4       1.09379         184.8558
2014    18      5       1.152975        189.8593
2014    18      6       1.26596         198.8539
2014    18      7       1.349185        204.6079
2014    19      0       1.255186        196.19
2014    19      1       1.124018        184.276
2014    19      2       0.9003348       163.147
2014    19      3       0.6490678       133.7194
2014    19      4       0.5049422       112.4074
2014    19      5       0.5042737       112.1809
2014    19      6       0.5978624       126.5261
2014    19      7       0.6374646       132.117
2014    20      0       0.5948867       125.7293
2014    20      1       0.5856394       124.4915
2014    20      2       0.6388832       132.1637
2014    20      3       0.6198958       128.7169
2014    20      4       0.6091493       126.5072
2014    20      5       0.5967179       124.3629
2014    20      6       0.7503263       145.6487
2014    20      7       0.6715792       135.5788
2014    21      0       0.4698842       105.4169
2014    21      1       0.3662117       87.46584
2014    21      2       0.3578335       85.78416
2014    21      3       0.2825997       70.8907
2014    21      4       0.2529683       65.10982
2014    21      5       0.3119813       77.36315
2014    21      6       0.4017478       93.80438
2014    21      7       0.3709196       87.38412
2014    22      0       0.3710415       85.91359
2014    22      1       0.3956978       89.66192
2014    22      2       0.4762792       103.3525
2014    22      3       0.5503631       114.6729
2014    22      4       0.6022695       122.4369
2014    22      5       0.6829015       133.8584
2014    22      6       0.8273202       152.8758
2014    22      7       0.8765017       158.0611
2014    23      0       0.673302        133.0633
2014    23      1       0.6860252       134.0989
2014    23      2       0.6559039       130.8967
2014    23      3       0.5793412       121.4351
2014    23      4       0.5941471       123.1965
2014    23      5       0.5728759       120.3651
2014    23      6       0.7018239       138.4797
2014    23      7       0.8337389       154.0576
2014    24      0       0.6130066       125.7887
2014    24      1       0.7380095       141.1465
2014    24      2       1.023959        171.4937
2014    24      3       1.286754        192.8548
2014    24      4       1.212637        187.7919
2014    24      5       1.051797        174.8323
2014    24      6       0.9589878       166.7706
2014    24      7       0.9210063       162.9116
2014    25      0       0.8239518       151.5003
2014    25      1       0.755314        143.3664
2014    25      2       0.7548211       143.7145
2014    25      3       0.8072184       150.0686
2014    25      4       0.8471151       155.7188
2014    25      5       0.8779479       159.4534
2014    25      6       0.9278335       165.4484
2014    25      7       0.755241        146.547
2014    26      0       0.508719        112.5147
2014    26      1       0.3488222       84.78389
2014    26      2       0.2839201       72.02063
2014    26      3       0.2256558       59.76036
2014    26      4       0.2124007       56.88296
2014    26      5       0.2356106       61.66947
2014    26      6       0.3629733       87.69236
2014    26      7       0.4351024       101.5747
2014    27      0       0.4276278       100.0824
2014    27      1       0.3319354       81.53738
2014    27      2       0.2779175       70.08914
2014    27      3       0.3739078       88.75256
2014    27      4       0.4196113       96.74003
2014    27      5       0.4382287       99.13306
2014    27      6       0.5393328       117.2121
2014    27      7       0.7430744       146.5574
2014    28      0       0.5747602       118.9582
2014    28      1       0.4907818       107.7228
2014    28      2       0.505016        110.4343
2014    28      3       0.5627833       117.8952
2014    28      4       0.7011857       136.6691
2014    28      5       0.8374104       152.9575
2014    28      6       0.8831879       157.7372
2014    28      7       1.469642        206.4951
2014    29      0       0.8777317       160.8138
2014    29      1       0.8422888       156.8515
2014    29      2       0.8374021       153.9239
2014    29      3       1.422218        203.6267
2014    29      4       1.945569        229.5803
2014    29      5       2.119628        235.4498
2014    29      6       1.955995        230.6551
2014    29      7       1.74727         222.6437
2014    30      0       1.293711        196.214
2014    30      1       0.9008346       162.0566
2014    30      2       0.5665566       119.7855
2014    30      3       0.3669827       86.76851
2014    30      4       0.4158837       95.56905
2014    30      5       0.4220982       96.71973
2014    30      6       0.5458231       116.9672
2014    30      7       0.5390189       116.387
2015    1       0       0.7320186       142.3305
2015    1       1       0.7392683       143.5938
2015    1       2       0.7293212       142.6294
2015    1       3       0.6913427       137.8448
2015    1       4       0.6199796       128.7197
2015    1       5       0.5720183       122.2055
2015    1       6       0.6262332       130.1533
2015    1       7       0.7650924       148.3744
2015    2       0       0.6432795       131.9578
2015    2       1       0.7064829       140.4275
2015    2       2       0.8169522       153.5328
2015    2       3       0.9058562       163.0306
2015    2       4       0.9857669       170.7435
2015    2       5       1.021551        173.695
2015    2       6       1.073664        178.4041
2015    2       7       1.150459        185.3191
2015    3       0       0.9575336       167.2213
2015    3       1       0.8589713       157.4548
2015    3       2       0.9565342       168.6682
2015    3       3       1.14098         185.7479
2015    3       4       1.096303        181.6929
2015    3       5       1.085192        180.9404
2015    3       6       1.29855         197.3345
2015    3       7       1.383948        202.9645
2015    4       0       1.168132        186.0149
2015    4       1       1.400006        203.0284
2015    4       2       1.743178        222.4689
2015    4       3       2.051942        234.7139
2015    4       4       1.979255        231.8314
2015    4       5       1.930942        229.928
2015    4       6       1.926684        230.0523
2015    4       7       2.182277        239.2888
2015    5       0       1.795638        224.0775
2015    5       1       1.425887        204.1702
2015    5       2       0.9964375       171.5113
2015    5       3       0.8480834       157.1618
2015    5       4       0.8693018       159.6417
2015    5       5       0.8408787       156.4643
2015    5       6       0.9168597       165.0857
2015    5       7       0.9529969       168.6946
2015    6       0       0.8134678       154.0948
2015    6       1       0.8826256       162.7058
2015    6       2       0.953443        170.4298
2015    6       3       0.9856731       173.6008
2015    6       4       0.8063432       154.1988
2015    6       5       0.6522858       134.4102
2015    6       6       0.9143041       166.1996
2015    6       7       1.111796        185.1184
2015    7       0       1.025526        177.5916
2015    7       1       0.8547609       159.5071
2015    7       2       0.8717422       161.1223
2015    7       3       1.041544        178.5956
2015    7       4       0.9409133       168.6795
2015    7       5       0.7437079       145.8811
2015    7       6       0.9647718       171.374
2015    7       7       0.9703384       171.4531
2015    8       0       0.6270838       129.2708
2015    8       1       0.5671473       120.0447
2015    8       2       0.5320295       114.5109
2015    8       3       0.5245883       112.9652
2015    8       4       0.5595482       118.7219
2015    8       5       0.868395        156.3315
2015    8       6       1.110521        179.9948
2015    8       7       1.244142        190.9901
2015    9       0       1.076978        177.0655
2015    9       1       0.9016185       160.235
2015    9       2       0.7593818       144.7949
2015    9       3       0.6263223       128.2254
2015    9       4       0.6042681       125.4773
2015    9       5       0.6886851       137.049
2015    9       6       0.8306011       154.4789
2015    9       7       0.9114399       163.2468
2015    10      0       0.8408453       155.7728
2015    10      1       0.7708137       147.969
2015    10      2       0.8721548       160.2915
2015    10      3       1.025436        176.3783
2015    10      4       1.064121        180.1989
2015    10      5       1.27364         197.2487
2015    10      6       1.824224        228.4213
2015    10      7       1.883078        231.8135
2015    11      0       1.770426        227.6955
2015    11      1       1.553297        216.9423
2015    11      2       1.317189        202.1142
2015    11      3       1.093874        183.8911
2015    11      4       0.9957106       174.2364
2015    11      5       1.064379        180.0166
2015    11      6       1.636903        219.8482
2015    11      7       2.095786        239.035
2015    12      0       1.760531        225.8765
2015    12      1       1.467622        209.9421
2015    12      2       1.320596        198.3105
2015    12      3       1.477716        206.3409
2015    12      4       1.500887        208.4089
2015    12      5       1.541035        212.6056
2015    12      6       1.242886        195.2359
2015    12      7       0.9728379       174.2479
2015    13      0       0.6769688       137.78
2015    13      1       0.5757875       122.4168
2015    13      2       0.5099646       112.0043
2015    13      3       0.4994851       109.7834
2015    13      4       0.5141655       111.9418
2015    13      5       0.5853684       122.5344
2015    13      6       0.7091019       140.4483
2015    13      7       0.7315547       143.6643
2015    14      0       0.6379165       130.5949
2015    14      1       0.5813892       122.4198
2015    14      2       0.6472877       131.7735
2015    14      3       0.7119425       139.9649
2015    14      4       0.7599035       146.2399
2015    14      5       0.7994863       150.9833
2015    14      6       0.9396839       169.1485
2015    14      7       0.8879187       164.7212
2015    15      0       0.6596457       136.2433
2015    15      1       0.5173246       114.9254
2015    15      2       0.6212767       131.118
2015    15      3       0.7359518       146.4295
2015    15      4       0.7584964       148.0878
2015    15      5       0.7145495       142.4583
2015    15      6       0.9216856       167.7138
2015    15      7       0.8218035       155.3228
2015    16      0       0.670327        134.6741
2015    16      1       0.6398567       130.227
2015    16      2       0.6900476       137.4286
2015    16      3       0.7953325       150.7632
2015    16      4       0.8066427       151.6673
2015    16      5       0.9806065       170.1628
2015    16      6       1.080312        179.6414
2015    16      7       1.080114        180.2219
2015    17      0       1.004911        172.8631
2015    17      1       0.9371951       166.2213
2015    17      2       0.8032895       151.6471
2015    17      3       0.7345091       143.2346
2015    17      4       0.6738663       135.344
2015    17      5       0.7448975       144.9097
2015    17      6       1.023615        176.1483
2015    17      7       0.8627928       158.9922
2015    18      0       0.7693079       147.3541
2015    18      1       0.7338174       142.5704
2015    18      2       0.7400703       142.6814
2015    18      3       0.7149923       139.0335
2015    18      4       0.6736213       133.5969
2015    18      5       0.6350105       128.2528
2015    18      6       0.6579153       131.5173
2015    18      7       0.4656599       102.3842
2015    19      0       0.3061108       74.45128
2015    19      1       0.2292029       59.67512
2015    19      2       0.2590778       65.80984
2015    19      3       0.1911029       52.01704
2015    19      4       0.1291263       37.67296
2015    19      5       0.3038363       73.6765
2015    19      6       0.6005097       122.8414
2015    19      7       0.756329        143.9542
2015    20      0       0.6888442       135.551
2015    20      1       0.6192244       126.8655
2015    20      2       0.6095121       125.9847
2015    20      3       0.6170637       127.4541
2015    20      4       0.6151593       127.462
2015    20      5       0.6174344       127.5555
2015    20      6       0.6898929       137.4787
2015    20      7       0.6514984       131.7121
2015    21      0       0.6073632       124.7396
2015    21      1       0.6402895       129.2346
2015    21      2       0.76213         145.3056
2015    21      3       0.9592462       166.9382
2015    21      4       1.03504         174.3104
2015    21      5       1.075851        178.7034
2015    21      6       1.196961        190.2418
2015    21      7       1.212167        191.7965
2015    22      0       1.171522        187.8265
2015    22      1       0.9559207       168.4754
2015    22      2       0.749211        144.395
2015    22      3       0.6942759       137.6323
2015    22      4       0.7356936       142.5743
2015    22      5       0.7629902       146.898
2015    22      6       0.8133459       154.0291
2015    22      7       0.8209548       155.063
2015    23      0       0.5727023       122.2741
2015    23      1       0.5747623       122.707
2015    23      2       0.5480278       118.0855
2015    23      3       0.5306348       114.4409
2015    23      4       0.5121536       111.3623
2015    23      5       0.5638371       119.5099
2015    23      6       0.7680127       148.0691
2015    23      7       0.7212274       142.3056
2015    24      0       0.5431427       117.2829
2015    24      1       0.5570302       119.0317
2015    24      2       0.5682289       120.0504
2015    24      3       0.7309949       142.2055
2015    24      4       0.624712        127.6176
2015    24      5       0.5450005       116.5245
2015    24      6       0.7305694       142.8869
2015    24      7       0.8509518       156.745
2015    25      0       0.6797821       134.8568
2015    25      1       0.6307469       127.2418
2015    25      2       0.6261079       128.3351
2015    25      3       0.3863191       91.09753
2015    25      4       0.4481492       101.3961
2015    25      5       0.5373069       115.615
2015    25      6       0.6784789       136.359
2015    25      7       0.67059         135.7188
2015    26      0       0.6168058       128.4628
2015    26      1       0.6029349       126.8021
2015    26      2       0.6802598       137.2918
2015    26      3       0.6937261       138.5745
2015    26      4       0.6307903       129.772
2015    26      5       0.6487133       132.1967
2015    26      6       0.7555579       146.1232
2015    26      7       0.7078069       140.2882
2015    27      0       0.6652012       133.8058
2015    27      1       0.6137833       125.9036
2015    27      2       0.5622041       119.0019
2015    27      3       0.5303791       114.7076
2015    27      4       0.4900798       108.2008
2015    27      5       0.451834        101.8791
2015    27      6       0.467119        104.8047
2015    27      7       0.5479838       117.9922
2015    28      0       0.449629        101.9879
2015    28      1       0.3624283       86.38486
2015    28      2       0.3408165       82.25594
2015    28      3       0.3008208       74.70006
2015    28      4       0.2476609       64.21272
2015    28      5       0.237236        62.42687
2015    28      6       0.3750352       90.15664
2015    28      7       0.4466802       103.1682
2015    29      0       0.3762738       90.6571
2015    29      1       0.301245        76.12951
2015    29      2       0.2467972       64.98918
2015    29      3       0.2507816       65.82655
2015    29      4       0.2762862       71.13552
2015    29      5       0.3285592       81.30466
2015    29      6       0.4275286       99.66674
2015    29      7       0.4708938       107.2953
2015    30      0       0.4387887       102.0106
2015    30      1       0.4562507       105.2721
2015    30      2       0.4478402       103.7582
2015    30      3       0.4995463       112.1062
2015    30      4       0.5299733       116.749
2015    30      5       0.5726029       123.2827
2015    30      6       0.6789827       138.8365
2015    30      7       0.7321075       146.0338
2016    1       0       0.541472        114.0683
2016    1       1       0.3896377       90.24033
2016    1       2       0.7733998       146.4321
2016    1       3       0.4972933       108.3084
2016    1       4       0.2315817       59.49869
2016    1       5       0.2531215       64.11202
2016    1       6       0.247469        63.43634
2016    1       7       0.2306478       59.91371
2016    2       0       0.181277        48.93
2016    2       1       0.2736644       66.63581
2016    2       2       0.5430648       110.7743
2016    2       3       0.7826393       143.8463
2016    2       4       0.7370819       141.0356
2016    2       5       0.6261454       128.0867
2016    2       6       0.5983505       125.6044
2016    2       7       0.6634538       134.1901
2016    3       0       0.9018804       163.1036
2016    3       1       1.091709        183.0683
2016    3       2       1.228594        196.6901
2016    3       3       1.021845        180.5757
2016    3       4       0.8652423       163.5435
2016    3       5       0.7460998       149.3416
2016    3       6       0.7682607       152.8263
2016    3       7       0.9960327       179.1077
2016    4       0       0.8795593       166.255
2016    4       1       0.7520471       150.647
2016    4       2       0.6479315       136.4529
2016    4       3       0.6911325       142.8604
2016    4       4       0.7689728       153.0223
2016    4       5       0.7986662       156.6183
2016    4       6       0.8887621       167.8815
2016    4       7       0.9515937       175.5676
2016    5       0       0.9178122       172.0694
2016    5       1       0.8552854       165.1829
2016    5       2       0.6959171       144.7305
2016    5       3       0.5815209       127.3511
2016    5       4       0.5544108       122.734
2016    5       5       0.5938581       128.9342
2016    5       6       0.7144674       146.8273
2016    5       7       0.9337089       173.6975
2016    6       0       1.015728        182.1516
2016    6       1       1.019933        182.2609
2016    6       2       0.8579922       164.5517
2016    6       3       0.7098375       145.2367
2016    6       4       0.5626119       123.0395
2016    6       5       0.7068397       143.8101
2016    6       6       0.9716604       174.8071
2016    6       7       1.146953        191.3427
2016    7       0       1.091905        185.4724
2016    7       1       0.9273465       168.6731
2016    7       2       0.8582398       161.0905
2016    7       3       0.7600911       149.2992
2016    7       4       0.6994966       141.8754
2016    7       5       0.6079038       129.3099
2016    7       6       0.7233172       145.6441
2016    7       7       0.8374044       159.557
2016    8       0       0.8042866       155.6138
2016    8       1       0.7382987       146.7887
2016    8       2       0.5413916       118.0468
2016    8       3       0.5262711       116.0327
2016    8       4       0.5861218       125.2659
2016    8       5       0.6926858       139.8493
2016    8       6       0.9012452       164.9821
2016    8       7       0.9727402       172.6287
2016    9       0       0.8529545       158.795
2016    9       1       0.8269802       155.1027
2016    9       2       0.9813162       172.703
2016    9       3       1.18073         192.4521
2016    9       4       1.084463        184.8822
2016    9       5       0.8888889       165.0103
2016    9       6       0.8703173       162.4284
2016    9       7       0.8743239       162.9547
2016    10      0       0.8068411       154.8615
2016    10      1       0.5791478       123.0839
2016    10      2       0.4345027       99.23765
2016    10      3       0.3823383       90.37859
2016    10      4       0.4817975       108.3263
2016    10      5       0.6401461       132.8963
2016    10      6       0.6525909       134.8308
2016    10      7       0.6452628       134.0147
2016    11      0       0.592807        126.338
2016    11      1       0.5403897       118.3454
2016    11      2       0.5237643       115.6931
2016    11      3       0.5394638       118.3032
2016    11      4       0.5220893       115.5902
2016    11      5       0.5228016       115.6888
2016    11      6       0.6147624       129.7691
2016    11      7       0.5920591       126.2823
2016    12      0       0.5066029       112.5499
2016    12      1       0.4350447       100.3012
2016    12      2       0.4228511       97.66679
2016    12      3       0.4484229       101.7506
2016    12      4       0.4533928       102.2821
2016    12      5       0.5896985       124.0162
2016    12      6       0.768293        148.2981
2016    12      7       0.8366719       155.4934
2016    13      0       0.8291166       153.2522
2016    13      1       0.8548238       156.328
2016    13      2       0.9274502       164.6971
2016    13      3       0.9916542       171.6378
2016    13      4       1.060318        177.5859
2016    13      5       1.091926        180.376
2016    13      6       1.118797        183.1042
2016    13      7       1.061761        179.5012
2016    14      0       0.9781041       172.5042
2016    14      1       0.9879686       173.6074
2016    14      2       0.8208807       155.303
2016    14      3       0.8048812       152.8409
2016    14      4       0.8693898       160.0708
2016    14      5       0.9159364       165.2025
2016    14      6       1.090002        181.9025
2016    14      7       1.112487        183.1812
2016    15      0       1.108419        181.8676
2016    15      1       1.297846        197.1785
2016    15      2       1.161933        187.4558
2016    15      3       0.9701698       169.9763
2016    15      4       0.9270068       164.991
2016    15      5       1.104849        183.0861
2016    15      6       1.40709         207.4418
2016    15      7       1.275909        198.4436
2016    16      0       1.013629        176.0322
2016    16      1       0.9384741       168.0967
2016    16      2       1.039107        177.7796
2016    16      3       1.059806        179.224
2016    16      4       0.9670906       170.0932
2016    16      5       1.116389        184.3076
2016    16      6       1.462284        209.9373
2016    16      7       1.470728        211.1106
2016    17      0       0.8183878       156.3182
2016    17      1       0.2925838       75.09419
2016    17      2       0.1818106       51.3002
2016    17      3       0.1047033       32.58098
2016    17      4       0.1146792       34.84413
2016    17      5       0.2097374       56.83316
2016    17      6       0.3029107       76.25706
2016    17      7       0.3488149       84.85432
2016    18      0       0.3478557       84.9713
2016    18      1       0.3435481       84.38188
2016    18      2       0.2927617       74.43399
2016    18      3       0.2534213       66.2121
2016    18      4       0.2406288       63.66512
2016    18      5       0.3082832       77.61586
2016    18      6       0.525745        116.6804
2016    18      7       0.8351329       159.9898
2016    19      0       1.002902        178.1393
2016    19      1       0.8860424       165.4045
2016    19      2       0.9300432       169.8115
2016    19      3       1.029143        179.7058
2016    19      4       1.013118        178.0197
2016    19      5       0.9766429       174.1272
2016    19      6       1.101951        185.3559
2016    19      7       1.190067        192.5613
2016    20      0       0.9680462       172.6168
2016    20      1       0.8121587       155.5295
2016    20      2       0.9209253       167.1049
2016    20      3       0.9880619       172.8857
2016    20      4       0.9149463       165.1071
2016    20      5       0.7360084       143.5062
2016    20      6       0.9983598       173.4173
2016    20      7       1.089481        182.2839
2016    21      0       0.9376376       167.5169
2016    21      1       0.9576174       170.1205
2016    21      2       1.02488         177.0442
2016    21      3       1.193648        192.0049
2016    21      4       1.272787        197.512
2016    21      5       1.295926        199.3327
2016    21      6       1.686679        223.0002
2016    21      7       1.901472        233.045
2016    22      0       1.577085        218.3904
2016    22      1       1.473896        212.1166
2016    22      2       1.578117        218.4024
2016    22      3       1.600535        219.7506
2016    22      4       1.494886        213.8239
2016    22      5       1.522578        215.4716
2016    22      6       1.813683        229.7821
2016    22      7       2.149789        241.5386
2016    23      0       2.04525         237.4098
2016    23      1       1.83902         228.8859
2016    23      2       1.73544         224.0949
2016    23      3       2.015896        235.788
2016    23      4       2.105996        239.0569
2016    23      5       2.477349        249.1754
2016    23      6       2.837434        255.6787
2016    23      7       2.783054        254.3792
2016    24      0       2.399108        245.9017
2016    24      1       2.033212        235.5124
2016    24      2       1.786343        225.6144
2016    24      3       1.691378        220.5527
2016    24      4       1.398001        204.2912
2016    24      5       1.299219        198.5258
2016    24      6       1.218776        193.4192
2016    24      7       1.053729        180.1623
2016    25      0       0.982552        173.9671
2016    25      1       1.011928        177.4136
2016    25      2       0.9373882       169.7183
2016    25      3       0.7460068       146.3657
2016    25      4       0.6399932       130.9856
2016    25      5       0.7058935       139.7404
2016    25      6       1.033971        177.3818
2016    25      7       0.8719085       160.5547
2016    26      0       0.7363037       144.5104
2016    26      1       0.5789289       122.4845
2016    26      2       0.5096738       111.8204
2016    26      3       0.5761755       121.9404
2016    26      4       0.4789902       107.0349
2016    26      5       0.4600551       104.0469
2016    26      6       0.7106983       141.665
2016    26      7       0.6767545       137.2246
2016    27      0       0.5390934       116.7908
2016    27      1       0.4398594       100.1161
2016    27      2       0.3990884       92.63425
2016    27      3       0.3956747       91.77395
2016    27      4       0.3867011       90.50908
2016    27      5       0.4509924       102.3204
2016    27      6       0.5795714       123.1414
2016    27      7       0.461631        104.5862
2016    28      0       0.3431973       83.43749
2016    28      1       0.2659985       68.41689
2016    28      2       0.2082125       56.22289
2016    28      3       0.1951139       53.21085
2016    28      4       0.1753904       48.79897
2016    28      5       0.178037        49.53964
2016    28      6       0.2744763       70.71855
2016    28      7       0.3419488       84.48299
2016    29      0       0.3016663       76.5804
2016    29      1       0.3118787       78.76964
2016    29      2       0.442333        103.5074
2016    29      3       0.6232134       132.7288
2016    29      4       0.747058        149.9152
2016    29      5       0.9664824       174.8898
2016    29      6       1.228102        198.07
2016    29      7       1.224315        196.7478
2016    30      0       1.451848        213.7611
2016    30      1       1.750622        231.2818
2016    30      2       1.692671        228.4548
2016    30      3       1.697196        228.425
2016    30      4       1.4409          213.5067
2016    30      5       1.235234        199.1491
2016    30      6       1.050279        183.2193
2016    30      7       0.957054        174.2705
2017    1       0       0.6575653       131.2989
2017    1       1       0.7278306       140.2566
2017    1       2       0.8131161       150.2646
2017    1       3       0.9132727       161.0852
2017    1       4       1.070908        176.4513
2017    1       5       1.308018        195.1237
2017    1       6       1.445206        204.0105
2017    1       7       1.561414        211.2978
2017    2       0       1.435489        204.5371
2017    2       1       1.532964        211.0565
2017    2       2       1.366816        200.3933
2017    2       3       1.081684        179.4979
2017    2       4       1.002788        172.6339
2017    2       5       0.9277458       165.3442
2017    2       6       0.9238373       165.0114
2017    2       7       0.6130461       126.4017
2017    3       0       0.4328136       96.58729
2017    3       1       0.3655093       84.10647
2017    3       2       0.494242        104.2056
2017    3       3       0.8707101       153.2478
2017    3       4       1.169023        183.025
2017    3       5       1.157432        183.7069
2017    3       6       1.025994        174.4954
2017    3       7       0.9677227       169.4964
2017    4       0       0.8283475       154.0689
2017    4       1       0.8713532       157.0847
2017    4       2       0.919565        161.06
2017    4       3       1.066066        174.263
2017    4       4       1.245389        188.4626
2017    4       5       1.665549        215.5356
2017    4       6       1.881747        227.5091
2017    4       7       1.960505        232.3751
2017    5       0       2.074705        237.0941
2017    5       1       1.813349        227.3725
2017    5       2       1.577488        216.2646
2017    5       3       1.478186        211.1156
2017    5       4       1.359767        204.3759
2017    5       5       1.188816        192.2193
2017    5       6       1.133276        188.1893
2017    5       7       1.096061        184.7014
2017    6       0       1.077226        182.0081
2017    6       1       1.084778        181.7119
2017    6       2       1.145197        186.0875
2017    6       3       1.089653        182.3612
2017    6       4       1.285475        198.0338
2017    6       5       1.736615        225.1471
2017    6       6       2.035855        237.2192
2017    6       7       1.973428        234.39
2017    7       0       2.044576        235.8392
2017    7       1       1.790447        226.1041
2017    7       2       1.126927        185.6887
2017    7       3       0.8880638       162.1286
2017    7       4       0.8255437       154.5307
2017    7       5       1.043154        176.9921
2017    7       6       1.29376         197.8254
2017    7       7       1.235684        193.725
2017    8       0       1.163456        187.3029
2017    8       1       1.15283         185.9215
2017    8       2       1.121554        182.544
2017    8       3       1.141668        183.2031
2017    8       4       1.096085        179.0981
2017    8       5       1.190213        187.8194
2017    8       6       1.353965        202.1953
2017    8       7       1.381717        205.1625
2017    9       0       1.149475        187.5326
2017    9       1       1.047796        177.7725
2017    9       2       1.147319        185.9269
2017    9       3       1.380021        202.7391
2017    9       4       1.169959        188.0943
2017    9       5       0.8676416       161.0284
2017    9       6       0.7084803       142.117
2017    9       7       0.7240387       144.024
2017    10      0       0.5553316       119.8302
2017    10      1       0.3932025       92.01534
2017    10      2       0.3899098       91.29307
2017    10      3       0.3763267       89.19709
2017    10      4       0.3239224       79.99976
2017    10      5       0.3094387       77.43816
2017    10      6       0.3906978       93.15781
2017    10      7       0.4504361       103.9817
2017    11      0       0.3160216       78.65094
2017    11      1       0.275264        70.70839
2017    11      2       0.3039763       76.52964
2017    11      3       0.229277        60.60754
2017    11      4       0.1987281       53.63961
2017    11      5       0.287213        71.8238
2017    11      6       0.4324021       99.86129
2017    11      7       0.4781508       108.2509
2017    12      0       0.4426727       102.2627
2017    12      1       0.610583        130.7351
2017    12      2       0.6761937       140.5631
2017    12      3       0.5918718       128.0778
2017    12      4       0.3608312       87.99771
2017    12      5       0.401514        95.88546
2017    12      6       0.5326624       118.9451
2017    12      7       0.6961407       143.423
2017    13      0       0.6910966       143.0181
2017    13      1       0.6763625       141.2484
2017    13      2       0.7639724       152.7114
2017    13      3       0.7949782       156.4835
2017    13      4       0.8475561       162.6451
2017    13      5       0.9872669       177.8771
2017    13      6       1.004879        179.4548
2017    13      7       0.9471875       173.1366
2017    14      0       0.725206        147.249
2017    14      1       0.5729971       125.5015
2017    14      2       0.6331566       133.865
2017    14      3       0.6274569       132.5854
2017    14      4       0.5854102       125.7192
2017    14      5       0.6649324       136.8872
2017    14      6       0.853887        160.507
2017    14      7       0.8759239       162.928
2017    15      0       0.736778        145.6961
2017    15      1       0.7948082       152.8473
2017    15      2       0.7519272       147.4267
2017    15      3       0.6511697       134.1012
2017    15      4       0.5938668       125.1086
2017    15      5       0.5424092       115.9043
2017    15      6       0.4248666       97.3703
2017    15      7       0.3659773       87.66519
2017    16      0       0.2254533       60.02689
2017    16      1       0.1852081       50.27804
2017    16      2       0.266726        67.53965
2017    16      3       0.3373505       81.8432
2017    16      4       0.3953291       93.29075
2017    16      5       0.4617544       104.8129
2017    16      6       0.489081        109.296
2017    16      7       0.4947059       110.52
2017    17      0       0.4722187       106.4827
2017    17      1       0.5525724       118.3963
2017    17      2       0.9121843       163.7395
2017    17      3       1.199142        191.5761
2017    17      4       0.5766758       123.1018
2017    17      5       0.5184699       112.6192
2017    17      6       0.692402        137.0047
2017    17      7       0.7230608       141.674
2017    18      0       0.558933        117.4326
2017    18      1       0.5123699       109.6297
2017    18      2       0.5915037       121.6648
2017    18      3       0.6386907       129.4332
2017    18      4       0.5121151       111.9822
2017    18      5       0.5401194       117.0147
2017    18      6       0.6373159       131.5625
2017    18      7       0.7506998       145.9582
2017    19      0       0.8930347       162.6289
2017    19      1       0.8525372       158.6081
2017    19      2       0.8096231       153.3559
2017    19      3       0.7232464       142.4577
2017    19      4       0.7354918       143.7258
2017    19      5       0.8379609       156.3445
2017    19      6       1.020541        176.3144
2017    19      7       1.076879        181.6842
2017    20      0       0.9836597       172.1454
2017    20      1       0.8788904       160.619
2017    20      2       0.9181832       164.3697
2017    20      3       1.033726        175.7938
2017    20      4       0.9883912       171.5316
2017    20      5       1.024594        175.067
2017    20      6       1.077041        180.1812
2017    20      7       1.002784        173.479
2017    21      0       0.6401655       131.5893
2017    21      1       0.4045711       94.92926
2017    21      2       0.3390133       82.97434
2017    21      3       0.2021106       54.84532
2017    21      4       0.1720392       47.47132
2017    21      5       0.2317591       60.61231
2017    21      6       0.3576795       86.33753
2017    21      7       0.4161946       97.08004
2017    22      0       0.3765972       89.1491
2017    22      1       0.3340501       80.44282
2017    22      2       0.3453719       82.55157
2017    22      3       0.3712141       87.62241
2017    22      4       0.3477221       83.56353
2017    22      5       0.4676157       106.0861
2017    22      6       0.433509        100.2332
2017    22      7       0.4680378       106.3868
2017    23      0       0.3877794       92.25566
2017    23      1       0.3035005       76.19015
2017    23      2       0.2821713       71.59305
2017    23      3       0.3018874       75.24736
2017    23      4       0.292975        73.25862
2017    23      5       0.3070111       76.36374
2017    23      6       0.4653147       105.9848
2017    23      7       0.4659305       105.9344
2017    24      0       0.3782865       90.05248
2017    24      1       0.3659744       87.76775
2017    24      2       0.3936817       92.6875
2017    24      3       0.463239        104.6848
2017    24      4       0.5232327       114.3472
2017    24      5       0.5090119       112.1087
2017    24      6       0.5804751       123.5618
2017    24      7       0.4781942       107.5774
2017    25      0       0.4335945       99.95148
2017    25      1       0.4629758       105.0084
2017    25      2       0.4557607       103.7677
2017    25      3       0.4522551       102.6272
2017    25      4       0.3986812       93.06844
2017    25      5       0.3947779       92.97593
2017    25      6       0.4445384       102.7461
2017    25      7       0.4770574       108.9639
2017    26      0       0.4512145       104.8481
2017    26      1       0.5272915       117.6282
2017    26      2       0.5999688       128.888
2017    26      3       0.6135706       130.8761
2017    26      4       0.5945989       127.5922
2017    26      5       0.6173115       130.7544
2017    26      6       0.60375         128.7269
2017    26      7       0.6627937       137.1954
2017    27      0       0.5673706       123.1185
2017    27      1       0.5794354       125.0396
2017    27      2       0.7220316       145.2553
2017    27      3       0.8767217       163.4953
2017    27      4       0.9095448       167.3346
2017    27      5       0.952469        172.5369
2017    27      6       1.029212        180.1077
2017    27      7       0.993918        176.3335
2017    28      0       1.044044        181.7298
2017    28      1       1.100935        187.6156
2017    28      2       1.007265        179.0708
2017    28      3       0.9543828       173.2056
2017    28      4       0.6425642       134.1227
2017    28      5       0.5224708       114.9206
2017    28      6       0.5950172       126.5514
2017    28      7       0.6083118       128.8906
2017    29      0       0.5392341       118.2503
2017    29      1       0.5289679       116.5151
2017    29      2       0.5460359       119.0402
2017    29      3       0.5385985       117.5188
2017    29      4       0.5051573       112.3981
2017    29      5       0.5100198       112.9515
2017    29      6       0.5670544       122.0735
2017    29      7       0.5522574       119.2062
2017    30      0       0.5425421       116.091
2017    30      1       0.5242009       111.6713
2017    30      2       0.5765157       119.077
2017    30      3       0.6274864       127.3817
2017    30      4       0.762615        146.2251
2017    30      5       0.7487184       146.3141
2017    30      6       0.7423649       146.5178
2017    30      7       0.7480517       147.8647
2018    1       0       0.628974        126.1903
2018    1       1       0.7017529       135.7805
2018    1       2       0.853746        154.1438
2018    1       3       1.14178         181.9792
2018    1       4       1.360748        199.8607
2018    1       5       1.533601        212.0556
2018    1       6       1.877441        230.6625
2018    1       7       2.021446        237.616
2018    2       0       1.887916        232.8097
2018    2       1       1.659374        221.8125
2018    2       2       1.76522         226.2339
2018    2       3       1.669531        221.1853
2018    2       4       1.000701        174.1842
2018    2       5       0.6982634       139.5622
2018    2       6       0.5521893       118.4981
2018    2       7       0.4863835       108.0406
2018    3       0       0.3873223       90.81039
2018    3       1       0.3391394       81.93338
2018    3       2       0.3412877       82.87969
2018    3       3       0.3536813       85.34901
2018    3       4       0.3518603       85.16839
2018    3       5       0.3531369       85.60242
2018    3       6       0.3772373       90.39769
2018    3       7       0.3453392       84.63892
2018    4       0       0.2941998       74.55711
2018    4       1       0.3085423       77.30461
2018    4       2       0.4269449       98.88258
2018    4       3       0.5395835       116.3894
2018    4       4       0.5741482       121.6573
2018    4       5       0.5956253       124.8564
2018    4       6       0.6588803       133.6662
2018    4       7       0.7109652       140.7746
2018    5       0       0.6327979       129.9087
2018    5       1       0.4861767       108.0298
2018    5       2       0.459323        103.3723
2018    5       3       0.464172        103.6144
2018    5       4       0.5190239       112.3929
2018    5       5       0.5917792       123.3471
2018    5       6       0.6410099       130.8295
2018    5       7       0.6572074       133.6206
2018    6       0       0.5913964       124.2434
2018    6       1       0.5150392       112.6056
2018    6       2       0.5135283       112.078
2018    6       3       0.5744248       121.0052
2018    6       4       0.6233789       128.3297
2018    6       5       0.5860389       124.5123
2018    6       6       0.6036837       127.2815
2018    6       7       0.6202866       129.5627
2018    7       0       0.5763624       122.9296
2018    7       1       0.5270012       115.3693
2018    7       2       0.5768639       123.3593
2018    7       3       0.5017667       112.7139
2018    7       4       0.3670956       88.86294
2018    7       5       0.4071769       96.18551
2018    7       6       0.4791444       109.2832
2018    7       7       0.552449        121.5127
2018    8       0       0.6082017       129.5479
2018    8       1       0.5227066       116.1623
2018    8       2       0.4073156       95.59963
2018    8       3       0.4248418       97.25833
2018    8       4       0.3627131       86.44796
2018    8       5       0.3609184       86.60848
2018    8       6       0.5190404       115.4041
2018    8       7       0.5268934       116.8122
2018    9       0       0.3916538       93.2957
2018    9       1       0.2773071       70.8192
2018    9       2       0.2870736       72.55908
2018    9       3       0.3489734       84.25807
2018    9       4       0.3839455       90.1617
2018    9       5       0.4419937       100.7679
2018    9       6       0.6146511       128.1577
2018    9       7       0.7032111       139.808
2018    10      0       0.579543        121.7601
2018    10      1       0.5509349       117.6757
2018    10      2       0.5147914       112.1474
2018    10      3       0.5620926       119.4521
2018    10      4       0.6647386       134.1089
2018    10      5       0.7195403       141.8864
2018    10      6       0.7319869       144.3323
2018    10      7       0.7490719       146.7679
2018    11      0       0.6547076       134.1244
2018    11      1       0.5166089       113.2726
2018    11      2       0.4281516       98.4796
2018    11      3       0.5559237       119.4602
2018    11      4       0.5823273       123.2431
2018    11      5       0.5380146       116.401
2018    11      6       0.5272081       114.8311
2018    11      7       0.4889881       108.9212
2018    12      0       0.5294122       115.4199
2018    12      1       0.6045283       126.4605
2018    12      2       0.6005535       125.4775
2018    12      3       0.5532214       117.8969
2018    12      4       0.7916329       149.2191
2018    12      5       0.8987429       160.338
2018    12      6       1.007206        170.8343
2018    12      7       1.198858        187.9095
2018    13      0       1.016421        171.7512
2018    13      1       0.8526775       154.3492
2018    13      2       0.6962647       135.3961
2018    13      3       0.7041299       136.2643
2018    13      4       0.7781195       144.7657
2018    13      5       0.8272671       150.7354
2018    13      6       0.7664292       144.812
2018    13      7       0.76564         145.9712
2018    14      0       0.5622608       119.1474
2018    14      1       0.3287543       79.53072
2018    14      2       0.3595893       83.94641
2018    14      3       0.6571684       129.8665
2018    14      4       0.8948972       159.9805
2018    14      5       0.8604732       157.4043
2018    14      6       0.9069476       162.6125
2018    14      7       0.9946794       171.6034
2018    15      0       0.9246273       164.7172
2018    15      1       0.8134623       152.7483
2018    15      2       0.7777421       148.3122
2018    15      3       0.7718463       147.3676
2018    15      4       0.8256627       154.3751
2018    15      5       0.8930827       162.0223
2018    15      6       1.066712        180.3411
2018    15      7       1.172166        190.5679
2018    16      0       1.027099        177.9171
2018    16      1       0.8584916       160.3112
2018    16      2       0.762628        148.3715
2018    16      3       0.7374855       145.3121
2018    16      4       0.8545682       159.6018
2018    16      5       1.007598        175.8079
2018    16      6       1.161243        189.876
2018    16      7       1.11033         185.1439
2018    17      0       1.15886         188.1593
2018    17      1       1.26256         195.1918
2018    17      2       0.7695526       148.794
2018    17      3       0.6686202       134.9738
2018    17      4       0.5458155       116.4078
2018    17      5       0.5459929       116.4948
2018    17      6       0.8317119       154.9002
2018    17      7       0.8302776       154.8705
2018    18      0       0.5019981       110.2048
2018    18      1       0.4314749       98.79065
2018    18      2       0.4349985       100.1074
2018    18      3       0.4370201       100.4082
2018    18      4       0.4592635       103.422
2018    18      5       0.5028846       110.1338
2018    18      6       0.6331562       129.6891
2018    18      7       0.7261628       143.0714
2018    19      0       0.7591788       148.2264
2018    19      1       0.7517181       148.0284
2018    19      2       0.7998098       154.2223
2018    19      3       0.803106        154.9201
2018    19      4       0.8304518       158.0879
2018    19      5       0.7565141       149.3176
2018    19      6       0.6930246       141.2869
2018    19      7       0.6534372       135.7176
2018    20      0       0.6066069       128.0289
2018    20      1       0.5634443       121.3858
2018    20      2       0.5223205       114.4222
2018    20      3       0.5672088       121.2475
2018    20      4       0.6726342       136.3732
2018    20      5       0.7930794       152.3729
2018    20      6       0.8408436       159.2642
2018    20      7       0.8444303       160.2724
2018    21      0       0.6905045       141.0094
2018    21      1       0.5790596       124.7816
2018    21      2       0.5511056       120.5174
2018    21      3       0.5384009       118.3322
2018    21      4       0.5501442       120.189
2018    21      5       0.6156196       130.5264
2018    21      6       0.6994217       142.5656
2018    21      7       0.7540249       149.6681
2018    22      0       0.6688362       138.0859
2018    22      1       0.6019413       128.3128
2018    22      2       0.6729877       138.8523
2018    22      3       1.009418        178.503
2018    22      4       1.66965         225.012
2018    22      5       1.953338        236.013
2018    22      6       2.044958        239.7543
2018    22      7       1.743466        228.4586
2018    23      0       1.327844        204.7596
2018    23      1       1.153699        191.4343
2018    23      2       1.14222         190.6852
2018    23      3       1.2448          197.9216
2018    23      4       1.228419        196.1905
2018    23      5       1.189144        193.1907
2018    23      6       1.120944        187.6887
2018    23      7       1.062522        181.2837
2018    24      0       0.8413715       158.3555
2018    24      1       0.7372555       145.3221
2018    24      2       0.6397194       130.8119
2018    24      3       0.5908859       122.5257
2018    24      4       0.6148345       126.3177
2018    24      5       0.7294832       142.4855
2018    24      6       0.9701476       170.606
2018    24      7       1.082964        181.1674
2018    25      0       1.087613        181.047
2018    25      1       0.9989763       172.6376
2018    25      2       0.9432412       166.1456
2018    25      3       0.9158172       162.8347
2018    25      4       1.017767        174.1182
2018    25      5       1.240675        194.3966
2018    25      6       1.341114        203.2769
2018    25      7       1.242791        196.5794
2018    26      0       1.140612        188.2735
2018    26      1       1.121893        186.7689
2018    26      2       1.26823         198.5051
2018    26      3       1.236316        195.4043
2018    26      4       1.098965        183.6323
2018    26      5       1.189343        191.5816
2018    26      6       1.014064        177.3059
2018    26      7       0.9009006       165.9826
2018    27      0       0.7099715       142.8385
2018    27      1       0.5276043       116.0351
2018    27      2       0.3240897       79.94236
2018    27      3       0.1994205       53.87774
2018    27      4       0.1673397       46.66187
2018    27      5       0.2234814       59.49538
2018    27      6       0.3714185       89.63949
2018    27      7       0.462492        105.9267
2018    28      0       0.4092398       95.89202
2018    28      1       0.401404        93.37121
2018    28      2       0.675153        136.0543
2018    28      3       1.13189         186.8024
2018    28      4       1.287466        199.7819
2018    28      5       1.359955        205.6284
2018    28      6       1.377763        206.9813
2018    28      7       1.310711        202.6695
2018    29      0       1.191748        193.5098
2018    29      1       1.185324        192.6624
2018    29      2       1.437868        210.4988
2018    29      3       1.433308        210.0022
2018    29      4       1.199325        192.6855
2018    29      5       1.135266        187.1323
2018    29      6       1.272849        198.8837
2018    29      7       1.26207         198.2391
2018    30      0       1.033202        178.5959
2018    30      1       0.8797164       162.5185
2018    30      2       0.8037547       154.1668
2018    30      3       0.890783        164.4007
2018    30      4       1.049982        179.9636
2018    30      5       1.194769        192.0698
2018    30      6       1.406092        206.5424
2018    30      7       1.120132        186.2485
