####################################################################################################
# Month: 09Sep                                                                                     #
# Station: SAN                                                                                     #
# Frequency: 345 GHz                                                                               #
# Columns are: year    day     tau     Tb (K)                                                      #
####################################################################################################
2009    1       1.83136062      228.6492875
2009    2       2.19724937      244.060475
2009    3       2.17660362      244.4491125
2009    4       2.02576187      240.427575
2009    5       1.35279575      204.1897375
2009    6       0.54412901      116.11543625
2009    7       0.92756834      167.00955
2009    8       1.06918912      182.158175
2009    9       0.97245261      172.4245375
2009    10      0.8706816       161.562675
2009    11      1.49141212      214.1033625
2009    12      1.932032        236.7870125
2009    13      0.81556592      154.21065
2009    14      0.74863506      143.62029125
2009    15      0.51601642      113.87457125
2009    16      0.79188642      152.3134375
2009    17      0.99359502      176.2153125
2009    18      1.1410366       187.14215
2009    19      1.56694225      219.740825
2009    20      1.23236702      194.40665
2009    21      0.77534668      150.7450625
2009    22      0.51309259      109.68745375
2009    23      0.66538375      135.872875
2009    24      0.85187956      158.7203
2009    25      0.61949394      129.8292
2009    26      0.66864789      137.7171375
2009    27      0.59593604      127.07755
2009    28      0.68288841      137.4154875
2009    29      0.93868874      167.37715
2009    30      0.7031123       122.01649875
2010    1       0.40963091      97.14984125
2010    2       0.37463304      91.0470075
2010    3       0.45105375      104.81448375
2010    4       0.66477731      137.9787375
2010    5       0.50798772      114.861325
2010    6       0.35555634      85.13916125
2010    7       1.0187671       173.255075
2010    8       0.32811005      80.950865
2010    9       0.22088505      58.8012925
2010    10      0.22351895      60.14311625
2010    11      0.28697105      70.61450875
2010    12      0.73998288      144.9948375
2010    13      0.79067015      149.8890125
2010    14      0.60418468      121.1168225
2010    15      0.26568472      67.36998625
2010    16      0.23746366      62.19761375
2010    17      0.25767385      67.18432
2010    18      0.20279996      55.48219875
2010    19      0.20236541      55.30014125
2010    20      0.18862962      52.476945
2010    21      0.17017435      48.57768875
2010    22      0.37155276      87.452305
2010    23      0.3194953       79.65295875
2010    24      0.34364426      84.65959
2010    25      0.32394702      81.30178375
2010    26      0.45304254      104.6002125
2010    27      1.31654648      201.4331
2010    28      1.7033285       224.13115
2010    29      1.47239225      208.162225
2010    30      2.09936037      239.2254625
2011    1       0.84200858      159.8044125
2011    2       0.80350706      152.8671625
2011    3       1.39698288      208.93405
2011    4       1.57075388      216.2278625
2011    5       2.71393088      257.2609375
2011    6       1.98347125      233.932525
2011    7       1.45821588      212.293975
2011    8       1.50642112      214.6790625
2011    9       0.73143746      140.76861125
2011    10      1.55270488      217.7623625
2011    11      0.74804795      141.13874625
2011    12      0.74414799      143.5528625
2011    13      1.56031912      215.874625
2011    14      1.62381325      214.9952125
2011    15      1.7395985       225.018
2011    16      1.31473242      196.8760875
2011    17      0.52982258      113.994455
2011    18      0.34906456      84.7510275
2011    19      0.37098831      89.17081125
2011    20      0.3796002       90.73548375
2011    21      0.44946888      102.48231125
2011    22      0.98425134      163.8455875
2011    23      1.26125212      195.78875
2011    24      1.32058218      189.02530625
2011    25      0.36760182      87.5512525
2011    26      0.82653986      153.22939
2011    27      0.6648775       135.4663125
2011    28      1.05972984      178.9113125
2011    29      1.3906335       207.4627375
2011    30      1.64809175      221.1283375
2012    1       0.98630034      160.91742125
2012    2       0.6449442       114.88721875
2012    3       2.21117812      244.31305
2012    4       2.40542512      251.92315
2012    5       3.02965125      262.67785
2012    6       2.52747825      253.811225
2012    7       2.28658475      249.2555875
2012    8       2.4496325       252.9613125
2012    9       2.65596038      257.5234875
2012    10      2.41778388      248.9137
2012    11      2.02950038      233.195725
2012    12      0.49948974      106.54547375
2012    13      0.51289794      113.22392375
2012    14      0.41346648      96.30839875
2012    15      0.5711131       122.79647875
2012    16      0.47073679      106.32682875
2012    17      0.44237269      101.17583
2012    18      0.68472016      138.2374875
2012    19      0.89478234      165.0753375
2012    20      1.145647        190.1585625
2012    21      1.35798988      206.7006625
2012    22      1.74306925      227.3425625
2012    23      1.65715662      218.972025
2012    24      1.12504005      186.0026375
2012    25      0.49980314      109.74489875
2012    26      0.55131966      118.69541625
2012    27      0.68876966      137.730925
2012    28      1.03978502      177.320825
2012    29      1.14983187      187.9733625
2012    30      0.89140876      159.5215875
2013    1       3.02327012      263.584825
2013    2       2.62372212      256.5535375
2013    3       2.813483        259.8447
2013    4       2.08953212      241.595725
2013    5       2.55646088      251.202775
2013    6       2.54362962      254.5295375
2013    7       2.74687812      258.5094625
2013    8       1.69078562      222.253025
2013    9       1.9772495       235.3636375
2013    10      1.852239        230.4354625
2013    11      1.73759775      225.5434125
2013    12      1.35697212      203.4539875
2013    13      1.09511584      185.1529125
2013    14      1.19769625      193.6678
2013    15      1.47134678      210.2319125
2013    16      0.80284521      153.4422375
2013    17      0.27779981      69.7474225
2013    18      0.36484728      88.8017875
2013    19      0.31710044      79.71586875
2013    20      0.50025275      113.3887625
2013    21      0.25636149      67.16032
2013    22      0.37542229      88.19369875
2013    23      0.58427935      125.12195875
2013    24      0.53116284      117.522575
2013    25      0.52037315      115.52297625
2013    26      0.41453469      94.75878625
2013    27      0.22622424      59.36171625
2013    28      0.34699001      83.138955
2013    29      0.39781021      94.28502
2013    30      0.30845453      77.94458625
2014    1       0.62683985      132.4801875
2014    2       0.59561623      127.941725
2014    3       0.54259421      119.4884125
2014    4       0.5901816       126.1458625
2014    5       0.41990314      98.0270225
2014    6       0.72364421      142.7287
2014    7       2.1094635       235.6976
2014    8       3.07748075      265.755275
2014    9       1.85036134      215.771695
2014    10      0.48350871      108.24881125
2014    11      0.795783        151.2282375
2014    12      0.94338934      171.3245125
2014    13      1.43284062      212.5265625
2014    14      1.711655        225.1295625
2014    15      2.01255075      232.3004
2014    16      1.9678805       234.4720375
2014    17      2.28929575      247.0102875
2014    18      1.49921676      193.86751875
2014    19      0.62769091      130.749975
2014    20      0.63409706      132.415
2014    21      0.53323396      116.8318375
2014    22      0.31693684      79.0448525
2014    23      0.24611066      65.27134875
2014    24      0.43278865      98.33147
2014    25      1.36175688      208.0874375
2014    26      1.11502031      187.160175
2014    27      0.64618996      118.24305625
2014    28      0.36256239      85.80839375
2014    29      0.80714819      149.964475
2014    30      0.60561544      125.2963575
2015    1       0.62747289      129.62845
2015    2       0.91969512      163.9099875
2015    3       1.06494376      180.8747125
2015    4       0.64140279      131.4328125
2015    5       0.48092284      107.9743825
2015    6       0.51173985      110.44192625
2015    7       0.90543513      158.5560175
2015    8       1.39343788      207.605775
2015    9       2.41202475      251.7066375
2015    10      2.571572        253.33635
2015    11      1.8258535       228.2721375
2015    12      1.7891946       216.070125
2015    13      1.628417        216.284075
2015    14      0.44652288      97.615335
2015    15      1.00384128      160.308055
2015    16      0.29205435      73.0529725
2015    17      0.6369375       130.44705375
2015    18      0.71297619      142.74375
2015    19      0.65338338      133.7492125
2015    20      1.08500416      182.4105625
2015    21      1.37169625      205.2546625
2015    22      2.08273538      238.5313625
2015    23      1.11383142      182.2868375
2015    24      1.23809788      197.118075
2015    25      1.10493003      186.5718625
2015    26      1.06071852      180.582525
2015    27      1.35079062      203.810275
2015    28      1.41007675      208.871675
2015    29      0.71378868      142.1048
2015    30      0.51023976      113.946775
2016    1       1.35847662      206.678075
2016    2       0.56103806      115.46880875
2016    3       0.17829926      49.8752225
2016    4       0.45402016      97.2042
2016    5       0.6301615       127.80551875
2016    6       0.43505728      99.13953625
2016    7       0.42375258      99.03326125
2016    8       0.51502408      114.5638
2016    9       0.63820554      131.9636875
2016    10      0.5654334       117.13294125
2016    11      0.34621759      83.54196875
2016    12      0.37174724      88.55389625
2016    13      0.40180251      93.659515
2016    14      0.26036158      66.21524375
2016    15      0.2648584       67.66424375
2016    16      0.33947434      82.16534375
2016    17      0.43188258      99.63564375
2016    18      0.52345972      111.49717
2016    19      1.47724288      206.2895125
2016    20      2.92913162      259.4521375
2016    21      2.498454        251.4668125
2016    22      0.74007926      130.8200725
2016    23      0.33523886      77.94332875
2016    24      0.65885231      134.202925
2016    25      0.52002515      114.055305
2016    26      0.79367796      148.4639125
2016    27      1.42940509      203.2420375
2016    28      2.05131413      234.3503875
2016    29      1.73910625      222.8375375
2016    30      1.4220065       207.4049625
2017    1       1.92327088      230.6677625
2017    2       1.64639735      219.7576
2017    3       2.28357438      238.9721375
2017    4       3.07342988      261.4504375
2017    5       1.32278441      198.65515
2017    6       2.239251        248.1376125
2017    7       2.12428512      243.698075
2017    8       1.97388775      235.5329125
2017    9       1.89443175      230.1575
2017    10      1.94169525      234.3296
2017    11      1.56509388      214.3245375
2017    12      1.69393075      223.6693875
2017    13      1.66744076      220.659625
2017    14      0.48776138      108.630595
2017    15      0.4820757       105.14564625
2017    16      0.4719634       104.66546875
2017    17      0.61078085      126.639125
2017    18      0.41513446      96.64793625
2017    19      0.46023634      103.309765
2017    20      0.5534012       119.89015
2017    21      0.58437291      123.5923875
2017    22      0.32756028      76.98439
2017    23      0.53052976      113.4846875
2017    24      0.42285685      96.30370875
2017    25      0.42628378      95.64405625
2017    26      0.80213341      150.399925
2017    27      0.82625964      152.142725
2017    28      0.53569136      115.669815
2017    29      0.57211965      120.59745875
2017    30      1.01374059      175.8982125
2018    1       0.5478137       114.4699225
2018    2       0.60312645      127.9993375
2018    3       0.58434215      124.50596125
2018    4       0.70007956      138.692475
2018    5       0.95992614      165.97755
2018    6       0.59412071      124.8811925
2018    7       0.83875109      157.970025
2018    8       0.71636         144.882975
2018    9       0.34021379      82.840285
2018    10      0.39331796      93.48784625
2018    11      0.418815        98.90853
2018    12      0.38635878      91.8694975
2018    13      0.3494352       84.72642
2018    14      0.69791405      137.6323825
2018    15      0.97286956      172.3223625
2018    16      1.354441        205.53855
2018    17      0.93778366      169.860575
2018    18      0.5583362       121.0245125
2018    19      0.51049028      111.18594125
2018    20      0.23557558      62.085965
2018    21      0.30987319      76.64216125
2018    22      0.66186644      134.229225
2018    23      1.25818687      198.6451125
2018    24      0.48037546      107.120105
2018    25      0.55946165      119.1435925
2018    26      0.58897574      124.50811625
2018    27      0.46856326      105.958555
2018    28      0.45502848      104.1290875
2018    29      0.31185406      77.29721125
2018    30      0.8203223       136.01850125
