####################################################################################################
# Month: 05May                                                                                     #
# Station: TRL                                                                                     #
# Frequency: 345 GHz                                                                               #
# Columns are: year    day     segment         tau     Tb (K)                                      #
####################################################################################################
2009    1       0       0.4529806       96.50599
2009    1       1       0.4100097       88.63533
2009    1       2       0.3232318       73.39335
2009    1       3       0.3352697       76.01896
2009    1       4       0.3905789       86.17858
2009    1       5       0.4128762       89.93063
2009    1       6       0.4894517       102.4443
2009    1       7       0.5049211       104.7619
2009    2       0       0.5032191       103.6004
2009    2       1       0.4476063       94.4912
2009    2       2       0.4404573       93.08571
2009    2       3       0.4998623       102.2278
2009    2       4       0.665633        125.5191
2009    2       5       0.6989826       130.1964
2009    2       6       0.6239387       120.4619
2009    2       7       0.5298572       107.1829
2009    3       0       0.4635898       97.48281
2009    3       1       0.5079616       104.3405
2009    3       2       0.623139        119.3067
2009    3       3       0.8143565       139.9797
2009    3       4       0.4049296       85.88217
2009    3       5       0.3554991       78.03143
2009    3       6       0.4614572       95.16441
2009    3       7       0.5018615       101.1754
2009    4       0       0.4802403       96.61633
2009    4       1       0.3470358       75.07246
2009    4       2       0.2187058       52.76811
2009    4       3       0.188442        47.37419
2009    4       4       0.2005569       50.03953
2009    4       5       0.1959321       49.13934
2009    4       6       0.1809848       45.71795
2009    4       7       0.1904255       47.37715
2009    5       0       0.2102027       51.39936
2009    5       1       0.2110891       51.66444
2009    5       2       0.2201355       53.45754
2009    5       3       0.2313902       55.55953
2009    5       4       0.2275163       54.36947
2009    5       5       0.224745        53.40996
2009    5       6       0.2124906       50.62678
2009    5       7       0.1755291       43.5653
2009    6       0       0.2055801       49.5177
2009    6       1       0.255193        59.04936
2009    6       2       0.2718644       62.17598
2009    6       3       0.3154474       70.13757
2009    6       4       0.3339618       73.54071
2009    6       5       0.3302574       72.949
2009    6       6       0.3075931       68.93043
2009    6       7       0.2818586       64.29333
2009    7       0       0.2553135       59.55451
2009    7       1       0.2652782       61.89072
2009    7       2       0.2810847       65.20026
2009    7       3       0.3122879       69.99208
2009    7       4       0.2084938       50.48431
2009    7       5       0.2231267       53.50371
2009    7       6       0.3572025       77.49639
2009    7       7       0.3726971       80.21258
2009    8       0       0.4837836       98.27772
2009    8       1       0.6303431       119.4146
2009    8       2       0.6546957       123.5118
2009    8       3       0.6708458       125.2497
2009    8       4       0.6617422       124.378
2009    8       5       0.6665129       125.0876
2009    8       6       0.8122477       142.1248
2009    8       7       0.852762        145.6432
2009    9       0       0.7458487       134.1106
2009    9       1       0.900063        152.3157
2009    9       2       0.8912435       152.2676
2009    9       3       0.8011619       143.2429
2009    9       4       0.6916593       129.6564
2009    9       5       0.6737623       126.8586
2009    9       6       0.8256137       144.9541
2009    9       7       0.8145123       143.5214
2009    10      0       0.9011924       151.7538
2009    10      1       0.7999114       139.9565
2009    10      2       0.6894534       127.1583
2009    10      3       0.7132239       130.7205
2009    10      4       0.7869818       139.3247
2009    10      5       0.7668603       136.6695
2009    10      6       0.7264693       131.6691
2009    10      7       0.7058191       129.161
2009    11      0       0.7191667       131.2098
2009    11      1       0.7638991       136.9245
2009    11      2       0.9252513       152.4223
2009    11      3       0.9301095       151.9779
2009    11      4       0.6642022       123.0481
2009    11      5       0.278698        64.1131
2009    11      6       0.2805827       64.22726
2009    11      7       0.2935144       66.31709
2009    12      0       0.2625396       60.58459
2009    12      1       0.2356784       55.66684
2009    12      2       0.2061302       50.09146
2009    12      3       0.2339473       55.37552
2009    12      4       0.2093145       50.7116
2009    12      5       0.161885        41.33869
2009    12      6       0.162755        41.41032
2009    12      7       0.1632357       41.45567
2009    13      0       0.159223        40.62352
2009    13      1       0.1545645       39.63082
2009    13      2       0.2042442       49.27364
2009    13      3       0.2353987       55.42951
2009    13      4       0.241341        56.67787
2009    13      5       0.2369704       55.84114
2009    13      6       0.1938878       47.35182
2009    13      7       0.1898744       46.46234
2009    14      0       0.2159776       51.43988
2009    14      1       0.2440719       56.80903
2009    14      2       0.2463608       57.1072
2009    14      3       0.2698477       61.28274
2009    14      4       0.2612757       59.65752
2009    14      5       0.2411495       55.94014
2009    14      6       0.2381481       55.30784
2009    14      7       0.2452731       56.6719
2009    15      0       0.2604717       59.83533
2009    15      1       0.2681499       61.65799
2009    15      2       0.2743354       62.78791
2009    15      3       0.2826322       64.23754
2009    15      4       0.2841171       64.4238
2009    15      5       0.2791311       63.42537
2009    15      6       0.2806808       63.45803
2009    15      7       0.2742655       62.08508
2009    16      0       0.2693415       61.20968
2009    16      1       0.2781676       62.92423
2009    16      2       0.28361         64.21221
2009    16      3       0.2689677       61.8689
2009    16      4       0.2266096       54.14708
2009    16      5       0.2027696       49.50885
2009    16      6       0.2018984       49.21782
2009    16      7       0.2014078       49.06595
2009    17      0       0.2065809       49.8942
2009    17      1       0.1964897       47.76932
2009    17      2       0.1786417       44.23555
2009    17      3       0.174353        43.37249
2009    17      4       0.1756531       43.65268
2009    17      5       0.1837895       45.28546
2009    17      6       0.1829917       44.99232
2009    17      7       0.1787961       44.08936
2009    18      0       0.172938        43.0022
2009    18      1       0.1762388       43.70369
2009    18      2       0.178529        44.11402
2009    18      3       0.1745696       43.40963
2009    18      4       0.1572541       40.33999
2009    18      5       0.1588699       40.89105
2009    18      6       0.1872578       46.62497
2009    18      7       0.255317        59.39503
2009    19      0       0.1884795       46.24603
2009    19      1       0.2072904       50.0792
2009    19      2       0.2105435       50.85664
2009    19      3       0.1872085       46.3406
2009    19      4       0.1750204       43.81804
2009    19      5       0.1893799       46.48025
2009    19      6       0.2689713       61.82674
2009    19      7       0.2301848       54.48188
2009    20      0       0.1758272       43.78457
2009    20      1       0.1963523       48.10898
2009    20      2       0.1764794       44.43511
2009    20      3       0.199935        48.94522
2009    20      4       0.2063936       50.21546
2009    20      5       0.2116514       51.22236
2009    20      6       0.2326584       55.05599
2009    20      7       0.2732337       62.49637
2009    21      0       0.2828276       64.23603
2009    21      1       0.2203573       52.85075
2009    21      2       0.1983843       48.80287
2009    21      3       0.1268207       33.75133
2009    21      4       0.1393871       36.15295
2009    21      5       0.1406264       36.53716
2009    21      6       0.1418934       36.8933
2009    21      7       0.1433813       37.28319
2009    22      0       0.1526338       39.09688
2009    22      1       0.1644091       41.31589
2009    22      2       0.1625341       40.87223
2009    22      3       0.1280573       33.76995
2009    22      4       0.1199091       31.92966
2009    22      5       0.1603877       40.14403
2009    22      6       0.2188247       51.62723
2009    22      7       0.220996        52.23209
2009    23      0       0.2436748       56.70821
2009    23      1       0.3000422       67.29494
2009    23      2       0.3147135       70.21338
2009    23      3       0.2965815       67.27684
2009    23      4       0.2705527       62.3347
2009    23      5       0.2627241       60.72023
2009    23      6       0.2463454       57.95188
2009    23      7       0.240578        56.94298
2009    24      0       0.254572        59.52835
2009    24      1       0.2733488       63.09271
2009    24      2       0.2727011       63.07677
2009    24      3       0.2580073       60.47477
2009    24      4       0.2630538       61.55419
2009    24      5       0.3140389       71.10338
2009    24      6       0.3591894       79.70004
2009    24      7       0.3788392       83.02216
2009    25      0       0.5844249       112.7763
2009    25      1       0.6701181       124.1059
2009    25      2       0.4120718       87.71505
2009    25      3       0.3032605       68.76207
2009    25      4       0.3820414       82.5845
2009    25      5       0.3991503       85.45364
2009    25      6       0.4654954       95.12475
2009    25      7       0.3421979       75.07214
2009    26      0       0.2955679       67.08441
2009    26      1       0.7749709       136.8088
2009    26      2       0.6435365       121.8454
2009    26      3       0.6848362       127.6937
2009    26      4       0.7127783       129.5763
2009    26      5       0.7223164       130.8213
2009    26      6       0.5587761       110.0887
2009    26      7       0.4472203       94.01631
2009    27      0       0.4944675       101.7621
2009    27      1       0.6499664       124.3785
2009    27      2       0.9656294       161.1891
2009    27      3       1.046061        168.6691
2009    27      4       0.9860676       163.1789
2009    27      5       0.9003341       154.2738
2009    27      6       0.8796512       152.121
2009    27      7       0.6953413       130.0453
2009    28      0       0.6459889       122.9981
2009    28      1       0.6771655       125.6176
2009    28      2       0.4828089       97.84861
2009    28      3       0.3845151       82.30756
2009    28      4       0.3265373       72.62058
2009    28      5       0.356522        77.84361
2009    28      6       0.3719185       80.33606
2009    28      7       0.338196        74.471
2009    29      0       0.3202759       71.30693
2009    29      1       0.3217846       71.57484
2009    29      2       0.3547368       77.42785
2009    29      3       0.4120611       86.68315
2009    29      4       0.4317614       89.83591
2009    29      5       0.4663331       95.23305
2009    29      6       0.4448756       91.66099
2009    29      7       0.3643604       78.68138
2009    30      0       0.2804275       63.85727
2009    30      1       0.2211336       52.72703
2009    30      2       0.216503        51.74832
2009    30      3       0.2485127       57.67438
2009    30      4       0.2302854       54.33315
2009    30      5       0.2336859       54.97513
2009    30      6       0.231042        54.45568
2009    30      7       0.2227582       52.87752
2009    31      0       0.1977593       48.15096
2009    31      1       0.188401        46.43119
2009    31      2       0.2129381       51.24319
2009    31      3       0.2653622       61.17417
2009    31      4       0.3045091       68.25609
2009    31      5       0.3161373       70.41239
2009    31      6       0.312829        69.99314
2009    31      7       0.308441        69.62371
2010    1       0       0.4919577       100.4893
2010    1       1       0.4761171       98.12225
2010    1       2       0.5219055       105.1422
2010    1       3       0.4817903       99.16354
2010    1       4       0.420137        89.44065
2010    1       5       0.3238117       72.97616
2010    1       6       0.3081017       69.88321
2010    1       7       0.5794274       113.3644
2010    2       0       0.7304486       132.3292
2010    2       1       0.6091743       116.3157
2010    2       2       0.6237687       117.787
2010    2       3       0.6997717       126.9584
2010    2       4       0.9630596       157.7577
2010    2       5       0.8865926       149.4393
2010    2       6       0.7140753       129.2562
2010    2       7       0.687781        125.7651
2010    3       0       0.6088782       115.6846
2010    3       1       0.80321         140.7512
2010    3       2       0.9058407       152.1517
2010    3       3       0.9953776       161.7078
2010    3       4       1.11639         172.5993
2010    3       5       1.064594        167.3345
2010    3       6       1.010583        163.0105
2010    3       7       0.8661466       147.9658
2010    4       0       0.7919743       138.913
2010    4       1       0.7503991       133.8013
2010    4       2       0.611984        116.4995
2010    4       3       0.5000189       100.2198
2010    4       4       0.3750022       80.38473
2010    4       5       0.3436264       75.06726
2010    4       6       0.3629897       78.29688
2010    4       7       0.4317424       89.56294
2010    5       0       0.5063564       100.9835
2010    5       1       0.5337765       104.6737
2010    5       2       0.4310011       89.89971
2010    5       3       0.1934071       48.26752
2010    5       4       0.1327401       35.79679
2010    5       5       0.1359554       36.46423
2010    5       6       0.1641945       42.45761
2010    5       7       0.3100232       70.20086
2010    6       0       0.7578865       134.2539
2010    6       1       1.006715        159.876
2010    6       2       0.6151225       117.2887
2010    6       3       0.5555118       108.5938
2010    6       4       0.6618663       123.02
2010    6       5       0.7972874       139.5675
2010    6       6       0.7131968       129.5468
2010    6       7       0.6419637       121.0661
2010    7       0       0.6785865       124.8951
2010    7       1       0.5382445       105.2197
2010    7       2       0.4046299       85.13922
2010    7       3       0.3762352       80.47414
2010    7       4       0.3422205       74.74246
2010    7       5       0.3386328       74.14757
2010    7       6       0.3595674       77.97444
2010    7       7       0.40357         85.31573
2010    8       0       0.4024244       85.18554
2010    8       1       0.3904351       83.19226
2010    8       2       0.3694966       79.20462
2010    8       3       0.3101706       68.99982
2010    8       4       0.3360888       73.7114
2010    8       5       0.4594961       93.70942
2010    8       6       0.5697759       110.2567
2010    8       7       0.9034787       150.8181
2010    9       0       0.9149835       153.2798
2010    9       1       0.829275        143.3776
2010    9       2       0.8481977       145.8507
2010    9       3       0.750124        135.2039
2010    9       4       0.7119184       130.9737
2010    9       5       0.5095644       103.7433
2010    9       6       0.4660741       96.77452
2010    9       7       0.4252271       89.96925
2010    10      0       0.422999        89.55949
2010    10      1       0.4299788       90.79212
2010    10      2       0.4418814       92.94601
2010    10      3       0.4521038       94.63682
2010    10      4       0.443553        93.12999
2010    10      5       0.4103388       87.68976
2010    10      6       0.381067        82.71392
2010    10      7       0.3728911       81.23875
2010    11      0       0.3822703       82.39104
2010    11      1       0.3715301       80.16948
2010    11      2       0.324142        72.14958
2010    11      3       0.2737456       63.29708
2010    11      4       0.2233364       53.83457
2010    11      5       0.195124        48.25978
2010    11      6       0.1656608       42.38529
2010    11      7       0.1390317       36.94377
2010    12      0       0.1277431       34.63414
2010    12      1       0.1484619       39.15218
2010    12      2       0.1671352       42.90282
2010    12      3       0.1709359       43.48244
2010    12      4       0.1743971       44.06441
2010    12      5       0.1750687       44.19904
2010    12      6       0.1656017       42.26809
2010    12      7       0.1856841       46.18591
2010    13      0       0.1879079       46.51794
2010    13      1       0.1666701       42.21451
2010    13      2       0.1647304       41.89529
2010    13      3       0.1668225       42.43547
2010    13      4       0.1649449       42.10207
2010    13      5       0.1615264       41.48327
2010    13      6       0.1584213       40.88863
2010    13      7       0.1200545       32.79872
2010    14      0       0.1191824       32.54285
2010    14      1       0.1324076       35.25673
2010    14      2       0.1344472       35.68457
2010    14      3       0.1419243       37.22353
2010    14      4       0.1407371       36.98743
2010    14      5       0.1437244       37.56602
2010    14      6       0.1503009       38.81122
2010    14      7       0.1564979       39.98636
2010    15      0       0.1567599       39.93124
2010    15      1       0.1370363       35.96072
2010    15      2       0.1309761       34.76859
2010    15      3       0.1450445       37.66515
2010    15      4       0.1513177       38.71199
2010    15      5       0.1110773       30.33186
2010    15      6       0.1124038       30.18762
2010    15      7       0.1124196       29.77123
2010    16      0       0.1021423       28.49878
2010    16      1       0.1001291       27.85696
2010    16      2       0.1002677       27.51106
2010    16      3       0.09918704      27.5062
2010    16      4       0.102536        28.47823
2010    16      5       0.1038766       28.81713
2010    16      6       0.09954331      27.80529
2010    16      7       0.09622531      27.05761
2010    17      0       0.09245319      26.3059
2010    17      1       0.1178926       31.10605
2010    17      2       0.1501041       37.03047
2010    17      3       0.1609295       39.33271
2010    17      4       0.1538652       38.42269
2010    17      5       0.1522742       38.44386
2010    17      6       0.1466305       37.50856
2010    17      7       0.1392463       36.12616
2010    18      0       0.1309912       34.5228
2010    18      1       0.1334765       35.01559
2010    18      2       0.1352514       35.39673
2010    18      3       0.1361984       35.57965
2010    18      4       0.137354        35.78616
2010    18      5       0.137988        35.8913
2010    18      6       0.1391629       36.11232
2010    18      7       0.1392395       36.16954
2010    19      0       0.1351724       35.413
2010    19      1       0.1365659       35.62028
2010    19      2       0.1271428       33.66076
2010    19      3       0.1258468       33.40292
2010    19      4       0.1174647       31.60323
2010    19      5       0.1129208       30.31095
2010    19      6       0.1270051       33.51154
2010    19      7       0.1374174       35.84132
2010    20      0       0.1447422       37.15301
2010    20      1       0.1503752       38.05441
2010    20      2       0.147564        37.73657
2010    20      3       0.1459555       37.45204
2010    20      4       0.1387984       35.6576
2010    20      5       0.1319899       34.31966
2010    20      6       0.1284952       33.68747
2010    20      7       0.1275697       33.57701
2010    21      0       0.1269386       33.44548
2010    21      1       0.1264788       33.37813
2010    21      2       0.1262043       33.38556
2010    21      3       0.1405037       36.15751
2010    21      4       0.136224        35.37393
2010    21      5       0.1270159       33.59137
2010    21      6       0.1270531       33.64507
2010    21      7       0.1347101       35.19938
2010    22      0       0.1514611       38.42535
2010    22      1       0.1547643       38.95418
2010    22      2       0.1673448       41.64208
2010    22      3       0.1734552       43.21063
2010    22      4       0.1380178       35.79007
2010    22      5       0.1071704       29.36739
2010    22      6       0.1039602       28.67211
2010    22      7       0.117966        31.36438
2010    23      0       0.1268865       32.94615
2010    23      1       0.1078306       29.14967
2010    23      2       0.1092983       29.20876
2010    23      3       0.1138853       29.87808
2010    23      4       0.1205745       31.42998
2010    23      5       0.118362        31.14752
2010    23      6       0.1138301       30.5343
2010    23      7       0.1134691       30.62019
2010    24      0       0.124287        32.74478
2010    24      1       0.135278        34.97507
2010    24      2       0.113254        30.50828
2010    24      3       0.1112924       30.08985
2010    24      4       0.1105323       29.94722
2010    24      5       0.1088551       29.5657
2010    24      6       0.107579        29.3046
2010    24      7       0.1068627       29.19758
2010    25      0       0.1077884       29.43084
2010    25      1       0.1222277       32.32132
2010    25      2       0.1472932       37.27875
2010    25      3       0.1725353       42.22258
2010    25      4       0.1715149       41.90465
2010    25      5       0.1705822       41.61641
2010    25      6       0.1664564       40.83361
2010    25      7       0.159626        39.58695
2010    26      0       0.1651226       40.75311
2010    26      1       0.1770945       43.09613
2010    26      2       0.1894033       45.45649
2010    26      3       0.1839415       44.55613
2010    26      4       0.1720476       42.35875
2010    26      5       0.1538041       39.02237
2010    26      6       0.1529505       39.07478
2010    26      7       0.1610041       40.77229
2010    27      0       0.1568498       39.98562
2010    27      1       0.1490351       38.3936
2010    27      2       0.1387778       36.30401
2010    27      3       0.1246117       33.41702
2010    27      4       0.1167188       31.81284
2010    27      5       0.1217852       32.9225
2010    27      6       0.1428721       37.29715
2010    27      7       0.150113        38.77562
2010    28      0       0.1377315       36.12566
2010    28      1       0.1358203       35.63118
2010    28      2       0.1470584       37.72401
2010    28      3       0.1451094       37.55871
2010    28      4       0.1575529       40.33851
2010    28      5       0.1793885       44.85068
2010    28      6       0.1820618       45.30804
2010    28      7       0.1744293       43.69265
2010    29      0       0.1641576       41.52178
2010    29      1       0.1639733       41.39792
2010    29      2       0.1536951       39.19907
2010    29      3       0.1326862       34.78614
2010    29      4       0.1093159       29.82751
2010    29      5       0.1102397       29.73832
2010    29      6       0.1132779       30.29393
2010    29      7       0.1194144       31.60127
2010    30      0       0.1279938       33.4584
2010    30      1       0.1332505       34.62307
2010    30      2       0.1330396       34.62508
2010    30      3       0.1314464       34.33242
2010    30      4       0.1298542       34.05057
2010    30      5       0.1269811       33.49125
2010    30      6       0.124478        32.95444
2010    30      7       0.1243968       32.86428
2010    31      0       0.1249065       33.01726
2010    31      1       0.1248996       33.02425
2010    31      2       0.1268141       33.42217
2010    31      3       0.1297666       34.07138
2010    31      4       0.1281686       33.7548
2010    31      5       0.1255913       33.209
2010    31      6       0.1244038       32.95221
2010    31      7       0.123303        32.6826
2011    1       0       0.2993836       67.07588
2011    1       1       0.306239        68.16047
2011    1       2       0.3337212       72.92651
2011    1       3       0.3669279       78.78387
2011    1       4       0.309564        69.04611
2011    1       5       0.2549447       59.22139
2011    1       6       0.2608832       60.2441
2011    1       7       0.2573632       59.5646
2011    2       0       0.199434        48.7433
2011    2       1       0.1967595       48.20114
2011    2       2       0.1955651       47.91825
2011    2       3       0.2531256       58.76142
2011    2       4       0.2926042       65.80781
2011    2       5       0.3142913       69.70705
2011    2       6       0.3179564       70.574
2011    2       7       0.2900331       65.44648
2011    3       0       0.2656316       60.8251
2011    3       1       0.2559031       59.00465
2011    3       2       0.2372123       55.37406
2011    3       3       0.2014484       48.49423
2011    3       4       0.184704        45.25701
2011    3       5       0.157297        39.90127
2011    3       6       0.1429558       37.05505
2011    3       7       0.13597         35.62654
2011    4       0       0.1337504       35.11833
2011    4       1       0.1328167       34.89785
2011    4       2       0.1323307       34.79839
2011    4       3       0.131548        34.64855
2011    4       4       0.1308539       34.51393
2011    4       5       0.1299471       34.35184
2011    4       6       0.129121        34.17915
2011    4       7       0.1279129       33.90352
2011    5       0       0.1271089       33.72773
2011    5       1       0.1270249       33.68559
2011    5       2       0.1279223       33.884
2011    5       3       0.1291796       34.15219
2011    5       4       0.1308685       34.4113
2011    5       5       0.1315607       34.49364
2011    5       6       0.1320119       34.58685
2011    5       7       0.1312957       34.43416
2011    6       0       0.1292366       34.04395
2011    6       1       0.1284361       33.92086
2011    6       2       0.1276454       33.75014
2011    6       3       0.1267682       33.52833
2011    6       4       0.1277464       33.72874
2011    6       5       0.1281739       33.80134
2011    6       6       0.1286839       33.90748
2011    6       7       0.1329482       34.83377
2011    7       0       0.1380348       35.90508
2011    7       1       0.1390613       36.17422
2011    7       2       0.1385505       36.16287
2011    7       3       0.1806156       44.45827
2011    7       4       0.1997671       48.23448
2011    7       5       0.2205049       52.3336
2011    7       6       0.2365316       55.88359
2011    7       7       0.2557756       60.109
2011    8       0       0.252211        59.09291
2011    8       1       0.2349366       55.02165
2011    8       2       0.2893165       65.18253
2011    8       3       0.2960542       66.45995
2011    8       4       0.2869853       65.20716
2011    8       5       0.2619911       61.00082
2011    8       6       0.2864825       65.64241
2011    8       7       0.3404096       75.76839
2011    9       0       0.3277289       73.76217
2011    9       1       0.3273201       73.67264
2011    9       2       0.3176703       71.97941
2011    9       3       0.2214049       53.72932
2011    9       4       0.1581608       40.85265
2011    9       5       0.1452377       38.20852
2011    9       6       0.1377005       36.6847
2011    9       7       0.1307816       35.24389
2011    10      0       0.1652016       42.56019
2011    10      1       0.18959         47.69957
2011    10      2       0.2776725       64.86599
2011    10      3       0.2760746       64.80662
2011    10      4       0.1961489       49.39507
2011    10      5       0.2664815       62.48847
2011    10      6       0.55587         108.962
2011    10      7       0.760321        135.2675
2011    11      0       1.142206        174.3094
2011    11      1       1.058909        165.7598
2011    11      2       1.065622        166.8645
2011    11      3       1.107995        171.6481
2011    11      4       1.126492        173.6173
2011    11      5       1.16341         176.893
2011    11      6       1.164011        175.9992
2011    11      7       0.9902904       160.3392
2011    12      0       0.8475623       145.3787
2011    12      1       0.6069057       116.3515
2011    12      2       0.5364622       105.8414
2011    12      3       0.3181387       71.34961
2011    12      4       0.2878645       65.88549
2011    12      5       0.2518564       59.16377
2011    12      6       0.3840588       81.93784
2011    12      7       0.3843269       81.82787
2011    13      0       0.3203492       70.77817
2011    13      1       0.2569411       59.43249
2011    13      2       0.1956158       48.04172
2011    13      3       0.192417        47.3849
2011    13      4       0.1882127       46.57356
2011    13      5       0.1965711       48.16393
2011    13      6       0.227109        53.90826
2011    13      7       0.2297988       54.26783
2011    14      0       0.1856305       45.78835
2011    14      1       0.1805634       44.69717
2011    14      2       0.1681951       42.20628
2011    14      3       0.1496106       38.44458
2011    14      4       0.1358248       35.61527
2011    14      5       0.1262859       33.65991
2011    14      6       0.117133        31.8117
2011    14      7       0.1134775       31.08929
2011    15      0       0.11277         30.9636
2011    15      1       0.1471667       37.74852
2011    15      2       0.1304684       34.40643
2011    15      3       0.1487992       37.99715
2011    15      4       0.1259941       33.38721
2011    15      5       0.1060432       29.37191
2011    15      6       0.1054017       29.27172
2011    15      7       0.1030816       28.8052
2011    16      0       0.1017937       28.5507
2011    16      1       0.100674        28.31912
2011    16      2       0.1000906       28.19236
2011    16      3       0.1000318       28.16467
2011    16      4       0.09970517      28.05801
2011    16      5       0.09942231      27.9543
2011    16      6       0.09995682      28.012
2011    16      7       0.1006896       28.12033
2011    17      0       0.1011439       28.21676
2011    17      1       0.1054636       29.0736
2011    17      2       0.1302029       33.76285
2011    17      3       0.1552527       38.29978
2011    17      4       0.1622351       39.58775
2011    17      5       0.1704732       40.97727
2011    17      6       0.1540838       37.93596
2011    17      7       0.1201218       31.83671
2011    18      0       0.1260005       33.29431
2011    18      1       0.1368812       35.5228
2011    18      2       0.1351587       35.11568
2011    18      3       0.1304975       34.17333
2011    18      4       0.1324013       34.53849
2011    18      5       0.1354599       35.06711
2011    18      6       0.1372777       35.41019
2011    18      7       0.1343168       34.88606
2011    19      0       0.1304646       34.19505
2011    19      1       0.1273568       33.57057
2011    19      2       0.1230087       32.67262
2011    19      3       0.1214508       32.3734
2011    19      4       0.1383669       35.78876
2011    19      5       0.1463049       37.42637
2011    19      6       0.1360153       35.39643
2011    19      7       0.1177744       31.71523
2011    20      0       0.1318944       34.60596
2011    20      1       0.1668716       41.68666
2011    20      2       0.1821087       44.74212
2011    20      3       0.1876358       45.84549
2011    20      4       0.1542138       39.27255
2011    20      5       0.1557254       39.77
2011    20      6       0.1880709       45.95066
2011    20      7       0.1867463       45.83795
2011    21      0       0.219126        51.93016
2011    21      1       0.2152796       51.10213
2011    21      2       0.1971055       47.54714
2011    21      3       0.1990682       47.864
2011    21      4       0.1793353       44.13696
2011    21      5       0.1708475       42.41176
2011    21      6       0.1676277       41.76155
2011    21      7       0.1742846       43.10406
2011    22      0       0.1668855       41.59015
2011    22      1       0.1638711       40.92581
2011    22      2       0.1532169       38.74193
2011    22      3       0.1402615       36.11882
2011    22      4       0.1355177       35.1196
2011    22      5       0.1282099       33.61635
2011    22      6       0.1197287       31.90735
2011    22      7       0.1178787       31.51172
2011    23      0       0.1070002       29.29568
2011    23      1       0.1058651       28.99385
2011    23      2       0.1016236       28.0269
2011    23      3       0.09768966      27.11242
2011    23      4       0.09618509      26.65681
2011    23      5       0.09613707      26.44823
2011    23      6       0.09360192      26.2811
2011    23      7       0.09369138      26.18286
2011    24      0       0.09353933      26.15945
2011    24      1       0.09307492      26.14673
2011    24      2       0.09283222      26.13662
2011    24      3       0.0921831       26.03181
2011    24      4       0.09226605      26.12007
2011    24      5       0.09367062      26.34518
2011    24      6       0.09457391      26.50297
2011    24      7       0.0949252       26.51781
2011    25      0       0.09631873      26.80949
2011    25      1       0.09943889      27.45413
2011    25      2       0.1006896       27.71947
2011    25      3       0.09978177      27.60397
2011    25      4       0.09937221      27.21341
2011    25      5       0.09677552      26.76336
2011    25      6       0.09509524      26.49564
2011    25      7       0.09663725      26.70119
2011    26      0       0.1004114       27.53964
2011    26      1       0.1041915       28.38124
2011    26      2       0.1057443       28.89644
2011    26      3       0.1078055       29.4299
2011    26      4       0.1086316       29.65005
2011    26      5       0.10966         29.89702
2011    26      6       0.1129317       30.609
2011    26      7       0.1171864       31.51189
2011    27      0       0.1203559       32.20231
2011    27      1       0.1221662       32.63133
2011    27      2       0.1228425       32.84651
2011    27      3       0.1607029       40.39691
2011    27      4       0.2095582       49.44664
2011    27      5       0.2017265       47.6814
2011    27      6       0.1890782       45.2173
2011    27      7       0.1709141       41.75133
2011    28      0       0.1564952       39.07334
2011    28      1       0.1544624       38.70421
2011    28      2       0.1520317       38.23901
2011    28      3       0.1260937       33.306
2011    28      4       0.1251654       33.09021
2011    28      5       0.1281121       33.65713
2011    28      6       0.123928        32.83808
2011    28      7       0.1251477       33.07363
2011    29      0       0.1254648       33.09518
2011    29      1       0.1235964       32.66654
2011    29      2       0.1216151       32.22818
2011    29      3       0.1201799       31.86821
2011    29      4       0.119305        31.65094
2011    29      5       0.1169995       31.17634
2011    29      6       0.1146516       30.68713
2011    29      7       0.1127789       30.29081
2011    30      0       0.1111925       30.00535
2011    30      1       0.1098539       29.76517
2011    30      2       0.1083306       29.47825
2011    30      3       0.1131431       30.45187
2011    30      4       0.133994        34.68838
2011    30      5       0.1514147       38.28874
2011    30      6       0.1575024       39.52847
2011    30      7       0.1828824       44.515
2011    31      0       0.1922573       46.35407
2011    31      1       0.193176        46.5022
2011    31      2       0.2159861       51.11661
2011    31      3       0.2174562       51.78956
2011    31      4       0.2207893       52.75414
2011    31      5       0.2529756       59.0262
2011    31      6       0.2716455       62.52906
2011    31      7       0.2276688       54.52937
2012    1       0       0.1668798       42.01744
2012    1       1       0.224163        53.20896
2012    1       2       0.2501599       58.09992
2012    1       3       0.275893        62.95429
2012    1       4       0.2813308       63.95692
2012    1       5       0.2669506       61.27282
2012    1       6       0.4300143       88.92032
2012    1       7       0.2913389       65.59614
2012    2       0       0.3232269       71.16794
2012    2       1       0.3559283       77.15448
2012    2       2       0.421113        88.08537
2012    2       3       0.4500842       92.5652
2012    2       4       0.4463683       92.10135
2012    2       5       0.4065207       85.49378
2012    2       6       0.3280519       71.97406
2012    2       7       0.2527049       58.48189
2012    3       0       0.2817989       63.98202
2012    3       1       0.3261132       72.03639
2012    3       2       0.3626265       78.12444
2012    3       3       0.2601043       59.91217
2012    3       4       0.2025784       48.7712
2012    3       5       0.1817354       44.64986
2012    3       6       0.178462        44.00279
2012    3       7       0.181107        44.54101
2012    4       0       0.1845916       45.21927
2012    4       1       0.1795974       44.18477
2012    4       2       0.1657675       41.42472
2012    4       3       0.1452403       37.34949
2012    4       4       0.1217921       32.59507
2012    4       5       0.1196688       32.04595
2012    4       6       0.1172976       31.5387
2012    4       7       0.1150352       31.13018
2012    5       0       0.1131415       30.77385
2012    5       1       0.1108496       30.2867
2012    5       2       0.1102308       30.17156
2012    5       3       0.1127487       30.71327
2012    5       4       0.1188079       31.91234
2012    5       5       0.1187206       31.89459
2012    5       6       0.1214673       32.45203
2012    5       7       0.1223621       32.64433
2012    6       0       0.1316367       34.50157
2012    6       1       0.1430899       36.74136
2012    6       2       0.1653755       41.23438
2012    6       3       0.1881268       45.80747
2012    6       4       0.1992527       47.82121
2012    6       5       0.2200748       51.72031
2012    6       6       0.2462792       56.47197
2012    6       7       0.2768115       61.79015
2012    7       0       0.2983589       65.53691
2012    7       1       0.2693497       61.28175
2012    7       2       0.2517054       58.56187
2012    7       3       0.3051584       68.77901
2012    7       4       0.4078677       86.35137
2012    7       5       0.407871        85.84738
2012    7       6       0.3815816       81.40845
2012    7       7       0.4042297       85.23022
2012    8       0       0.4315365       90.29802
2012    8       1       0.4287556       90.63503
2012    8       2       0.3913094       84.57955
2012    8       3       0.4605458       95.31449
2012    8       4       0.4279306       89.46887
2012    8       5       0.437539        90.84317
2012    8       6       0.3988821       84.96631
2012    8       7       0.3798372       82.08167
2012    9       0       0.3731724       81.50414
2012    9       1       0.3354307       75.48807
2012    9       2       0.2425932       58.40318
2012    9       3       0.210195        52.06808
2012    9       4       0.251707        60.07696
2012    9       5       0.3042661       69.51636
2012    9       6       0.2661121       62.34421
2012    9       7       0.2005291       49.6736
2012    10      0       0.1771505       44.50882
2012    10      1       0.2171111       51.76026
2012    10      2       0.2506073       58.24764
2012    10      3       0.2338616       55.53657
2012    10      4       0.2055262       50.16378
2012    10      5       0.1898063       47.12908
2012    10      6       0.1601888       41.24228
2012    10      7       0.1452571       38.10997
2012    11      0       0.2314932       54.48104
2012    11      1       0.2539066       57.50124
2012    11      2       0.1653821       41.06696
2012    11      3       0.1367097       35.7784
2012    11      4       0.1638121       41.18417
2012    11      5       0.1958484       47.39815
2012    11      6       0.2521684       58.09787
2012    11      7       0.2863822       64.34493
2012    12      0       0.2906041       65.37391
2012    12      1       0.328189        72.17536
2012    12      2       0.3307867       72.66525
2012    12      3       0.3661888       79.17638
2012    12      4       0.3942689       84.29758
2012    12      5       0.4564605       94.4526
2012    12      6       0.6308599       117.7306
2012    12      7       0.2655367       60.85378
2012    13      0       0.2215659       52.70223
2012    13      1       0.2300428       54.28606
2012    13      2       0.2541802       58.63171
2012    13      3       0.2181779       52.06159
2012    13      4       0.2341041       54.93904
2012    13      5       0.2262598       53.08865
2012    13      6       0.2160784       51.08414
2012    13      7       0.1857356       45.41138
2012    14      0       0.1597998       40.32625
2012    14      1       0.1799787       44.05821
2012    14      2       0.1734342       42.54436
2012    14      3       0.1426295       36.36955
2012    14      4       0.1151757       30.88825
2012    14      5       0.0954238       26.88326
2012    14      6       0.09405764      26.57379
2012    14      7       0.09212383      26.15947
2012    15      0       0.09143233      25.98032
2012    15      1       0.09179517      26.02475
2012    15      2       0.0928182       25.98744
2012    15      3       0.09501655      26.0126
2012    15      4       0.09490733      25.96206
2012    15      5       0.09358744      25.87053
2012    15      6       0.09282943      25.89692
2012    15      7       0.09210734      25.89757
2012    16      0       0.09211322      26.01686
2012    16      1       0.09525151      26.73086
2012    16      2       0.1060553       29.06481
2012    16      3       0.1011101       28.19012
2012    16      4       0.1037914       28.82159
2012    16      5       0.1087926       29.80748
2012    16      6       0.1049616       28.98236
2012    16      7       0.1032056       28.65331
2012    17      0       0.09928965      27.8479
2012    17      1       0.09460802      26.7548
2012    17      2       0.1264581       32.73028
2012    17      3       0.2126218       49.32694
2012    17      4       0.2426072       55.18165
2012    17      5       0.2260949       52.61599
2012    17      6       0.1996125       47.8864
2012    17      7       0.168731        41.98941
2012    18      0       0.1847179       45.14761
2012    18      1       0.1916044       46.43689
2012    18      2       0.1663582       41.49271
2012    18      3       0.1883811       45.85179
2012    18      4       0.1759272       43.42689
2012    18      5       0.1291002       34.07126
2012    18      6       0.1287476       33.9818
2012    18      7       0.1429465       36.84131
2012    19      0       0.1386769       35.98423
2012    19      1       0.166824        41.66138
2012    19      2       0.1773675       43.7449
2012    19      3       0.1902442       46.28117
2012    19      4       0.1845133       45.13529
2012    19      5       0.1823427       44.68815
2012    19      6       0.1791609       44.06463
2012    19      7       0.1555399       39.30428
2012    20      0       0.1709594       42.29421
2012    20      1       0.1866351       45.38646
2012    20      2       0.2159698       51.21873
2012    20      3       0.2849864       64.28706
2012    20      4       0.2829915       63.86163
2012    20      5       0.2240168       52.81316
2012    20      6       0.1880514       45.70577
2012    20      7       0.1599955       40.14108
2012    21      0       0.148           37.71746
2012    21      1       0.1236676       32.79366
2012    21      2       0.1357315       35.23135
2012    21      3       0.1313536       34.34141
2012    21      4       0.1150512       30.91862
2012    21      5       0.1103306       29.86381
2012    21      6       0.1289143       33.49763
2012    21      7       0.1263632       32.78769
2012    22      0       0.1186493       31.13151
2012    22      1       0.1244068       32.34484
2012    22      2       0.1670388       40.90951
2012    22      3       0.1280211       33.50685
2012    22      4       0.1350334       35.01258
2012    22      5       0.1519752       38.66258
2012    22      6       0.1530081       39.06105
2012    22      7       0.1240136       33.20692
2012    23      0       0.1296515       34.24121
2012    23      1       0.1360764       35.50409
2012    23      2       0.1381983       35.92053
2012    23      3       0.1352374       35.26821
2012    23      4       0.1306808       34.30129
2012    23      5       0.1488634       37.89135
2012    23      6       0.1455228       37.20757
2012    23      7       0.1423          36.53626
2012    24      0       0.1278927       33.61113
2012    24      1       0.1186414       31.70976
2012    24      2       0.1166065       31.2848
2012    24      3       0.1188785       31.73325
2012    24      4       0.124239        32.84984
2012    24      5       0.1266412       33.36737
2012    24      6       0.1249667       33.03969
2012    24      7       0.1196103       31.96489
2012    25      0       0.122258        32.53341
2012    25      1       0.1296583       34.0481
2012    25      2       0.1356998       35.25578
2012    25      3       0.138398        35.79292
2012    25      4       0.1296452       34.03322
2012    25      5       0.1246538       33.03998
2012    25      6       0.121664        32.45207
2012    25      7       0.1247713       33.09147
2012    26      0       0.1286502       33.94428
2012    26      1       0.1341465       35.10725
2012    26      2       0.1529615       38.81949
2012    26      3       0.1332138       34.76236
2012    26      4       0.1333619       34.848
2012    26      5       0.185149        45.15447
2012    26      6       0.2403526       56.03122
2012    26      7       0.295655        66.84556
2012    27      0       0.3241816       72.00557
2012    27      1       0.3003977       67.1172
2012    27      2       0.2567111       58.9402
2012    27      3       0.2316839       54.25217
2012    27      4       0.2487635       57.53602
2012    27      5       0.2470602       57.52868
2012    27      6       0.2313676       54.95442
2012    27      7       0.213639        51.61702
2012    28      0       0.1799568       44.53568
2012    28      1       0.1372975       35.85178
2012    28      2       0.1223959       32.76814
2012    28      3       0.1345972       35.14501
2012    28      4       0.1419231       36.4975
2012    28      5       0.1616803       40.17648
2012    28      6       0.1670367       41.27042
2012    28      7       0.1616754       40.3869
2012    29      0       0.1710511       42.38702
2012    29      1       0.1878931       45.72595
2012    29      2       0.2276434       53.53392
2012    29      3       0.2595002       59.78431
2012    29      4       0.2601992       59.98686
2012    29      5       0.2493069       57.969
2012    29      6       0.1946554       47.09131
2012    29      7       0.1651938       41.22108
2012    30      0       0.1505646       38.24184
2012    30      1       0.1591709       39.87257
2012    30      2       0.1681384       41.67067
2012    30      3       0.2004352       48.03338
2012    30      4       0.2210375       52.00911
2012    30      5       0.2178348       51.39805
2012    30      6       0.2188365       51.70365
2012    30      7       0.2333942       54.67476
2012    31      0       0.2552649       58.74774
2012    31      1       0.258289        59.26681
2012    31      2       0.2568387       59.14705
2012    31      3       0.3144744       69.82445
2012    31      4       0.2735007       63.00615
2012    31      5       0.2098159       51.18355
2012    31      6       0.2051934       50.20789
2012    31      7       0.2596043       60.40972
2013    1       0       0.1657657       42.08154
2013    1       1       0.1577152       40.37426
2013    1       2       0.1491304       38.52186
2013    1       3       0.1503652       38.61287
2013    1       4       0.1395551       36.31231
2013    1       5       0.1334596       35.09311
2013    1       6       0.1343551       35.48816
2013    1       7       0.1295358       34.68543
2013    2       0       0.1356438       35.92438
2013    2       1       0.135862        35.92641
2013    2       2       0.1315081       35.13987
2013    2       3       0.1266093       34.23303
2013    2       4       0.1268584       34.24567
2013    2       5       0.1311661       35.05742
2013    2       6       0.1328885       35.33614
2013    2       7       0.1268781       34.00233
2013    3       0       0.1192462       32.37461
2013    3       1       0.1143745       31.34291
2013    3       2       0.1138061       31.1998
2013    3       3       0.113258        31.05826
2013    3       4       0.1130253       30.99221
2013    3       5       0.1116153       30.6999
2013    3       6       0.1137784       31.1576
2013    3       7       0.1409582       36.59378
2013    4       0       0.1346619       35.26899
2013    4       1       0.1300186       34.36641
2013    4       2       0.148619        38.10432
2013    4       3       0.1661207       41.49315
2013    4       4       0.1627502       40.86257
2013    4       5       0.1568142       39.76068
2013    4       6       0.1366412       35.72186
2013    4       7       0.1223114       32.79946
2013    5       0       0.1210463       32.51404
2013    5       1       0.1449864       37.16485
2013    5       2       0.2069569       48.84263
2013    5       3       0.2413427       55.15698
2013    5       4       0.2030412       48.50551
2013    5       5       0.1811232       44.50512
2013    5       6       0.1688097       41.99459
2013    5       7       0.1598381       40.20709
2013    6       0       0.1904134       46.27057
2013    6       1       0.207473        49.63175
2013    6       2       0.1954604       47.24497
2013    6       3       0.1708799       42.33354
2013    6       4       0.1532558       38.79851
2013    6       5       0.1406969       36.28273
2013    6       6       0.15304         38.7419
2013    6       7       0.1766135       43.42872
2013    7       0       0.1988912       47.84505
2013    7       1       0.2168999       51.32491
2013    7       2       0.1268071       33.52182
2013    7       3       0.1256164       33.1128
2013    7       4       0.1258451       33.19207
2013    7       5       0.1258463       33.21031
2013    7       6       0.1264409       33.36842
2013    7       7       0.1270499       33.54414
2013    8       0       0.1272144       33.61745
2013    8       1       0.1255963       33.24653
2013    8       2       0.1240688       32.96851
2013    8       3       0.1360724       35.42993
2013    8       4       0.1422097       36.64784
2013    8       5       0.1361992       35.53358
2013    8       6       0.1747439       43.40897
2013    8       7       0.1539753       39.31137
2013    9       0       0.2576397       59.25402
2013    9       1       0.408971        85.32187
2013    9       2       0.2811665       63.73076
2013    9       3       0.2771669       63.05264
2013    9       4       0.3672698       78.90478
2013    9       5       0.4376819       90.47918
2013    9       6       0.2987831       66.98208
2013    9       7       0.4911236       98.31735
2013    10      0       0.571566        110.3485
2013    10      1       0.5755869       111.3225
2013    10      2       0.5762854       111.4722
2013    10      3       0.560781        109.4686
2013    10      4       0.3004178       67.41643
2013    10      5       0.2547177       58.96064
2013    10      6       0.3724095       79.63105
2013    10      7       0.3397493       74.17109
2013    11      0       0.3955572       83.53309
2013    11      1       0.4438283       91.32559
2013    11      2       0.5092632       101.1105
2013    11      3       0.5392382       105.4833
2013    11      4       0.6115224       116.4143
2013    11      5       0.5703745       111.1889
2013    11      6       0.7614203       135.2123
2013    11      7       0.3725008       80.043
2013    12      0       0.270426        62.07655
2013    12      1       0.2780859       63.42311
2013    12      2       0.2380998       55.88946
2013    12      3       0.2035418       49.2406
2013    12      4       0.2010203       48.72318
2013    12      5       0.2020114       48.87645
2013    12      6       0.200872        48.69447
2013    12      7       0.1927495       47.18721
2013    13      0       0.187768        46.2691
2013    13      1       0.1967894       48.17032
2013    13      2       0.2448285       57.32129
2013    13      3       0.2545656       58.7607
2013    13      4       0.1749969       43.78385
2013    13      5       0.17443         43.66186
2013    13      6       0.1710146       42.9185
2013    13      7       0.2106259       50.52708
2013    14      0       0.2953914       66.4918
2013    14      1       0.3474207       75.89867
2013    14      2       0.4357666       89.86328
2013    14      3       0.2813875       63.93672
2013    14      4       0.2715068       62.0932
2013    14      5       0.248414        57.70802
2013    14      6       0.2161938       51.52127
2013    14      7       0.1888426       46.21123
2013    15      0       0.1610225       40.6907
2013    15      1       0.1402576       36.51823
2013    15      2       0.146326        37.6954
2013    15      3       0.1640166       41.18936
2013    15      4       0.1789978       44.16905
2013    15      5       0.1819324       44.78602
2013    15      6       0.172281        42.8736
2013    15      7       0.1643893       41.29497
2013    16      0       0.1336087       35.10088
2013    16      1       0.1134603       30.94287
2013    16      2       0.114131        30.90961
2013    16      3       0.1036657       28.67463
2013    16      4       0.1219949       32.08128
2013    16      5       0.1308306       33.56804
2013    16      6       0.1046439       28.56524
2013    16      7       0.1004146       27.58492
2013    17      0       0.09866546      26.99269
2013    17      1       0.09883584      26.80959
2013    17      2       0.1019293       27.21388
2013    17      3       0.1095726       28.60795
2013    17      4       0.1194237       30.69566
2013    17      5       0.121908        31.29503
2013    17      6       0.1153918       30.3301
2013    17      7       0.1107336       29.84011
2013    18      0       0.1161424       31.12161
2013    18      1       0.131994        34.40394
2013    18      2       0.1501333       38.09224
2013    18      3       0.1611361       40.29539
2013    18      4       0.1527092       38.5843
2013    18      5       0.1496734       37.94821
2013    18      6       0.1675302       41.60783
2013    18      7       0.1795719       44.08949
2013    19      0       0.1762143       43.40378
2013    19      1       0.1685769       41.83491
2013    19      2       0.1721871       42.56797
2013    19      3       0.1710311       42.30576
2013    19      4       0.1652428       41.11792
2013    19      5       0.159151        39.85413
2013    19      6       0.1242078       32.7114
2013    19      7       0.1056987       28.93897
2013    20      0       0.1025299       28.28994
2013    20      1       0.1013601       27.99854
2013    20      2       0.09992946      27.55421
2013    20      3       0.0974806       26.92193
2013    20      4       0.09741388      26.89451
2013    20      5       0.09817156      27.06387
2013    20      6       0.09870341      27.2484
2013    20      7       0.09813647      27.161
2013    21      0       0.09733338      27.06096
2013    21      1       0.0994173       27.57098
2013    21      2       0.1040262       28.57119
2013    21      3       0.1161785       31.09684
2013    21      4       0.1164467       31.2035
2013    21      5       0.1263244       33.25282
2013    21      6       0.1280558       33.64757
2013    21      7       0.1252377       33.09869
2013    22      0       0.1578142       39.68013
2013    22      1       0.1917811       46.49123
2013    22      2       0.2275005       53.42245
2013    22      3       0.3362664       73.60038
2013    22      4       0.3639723       78.17866
2013    22      5       0.1819043       44.418
2013    22      6       0.175205        43.04891
2013    22      7       0.1439103       36.79093
2013    23      0       0.1226154       32.50492
2013    23      1       0.1234008       32.64187
2013    23      2       0.1241723       32.75842
2013    23      3       0.1137983       30.63075
2013    23      4       0.1073641       29.34419
2013    23      5       0.117976        31.58189
2013    23      6       0.09118987      25.86947
2013    23      7       0.1008213       27.78515
2013    24      0       0.1519045       37.45209
2013    24      1       0.119181        31.62101
2013    24      2       0.1220564       32.1306
2013    24      3       0.1236825       32.41046
2013    24      4       0.1271112       33.20978
2013    24      5       0.1321124       34.36645
2013    24      6       0.1383311       35.57956
2013    24      7       0.1390652       35.82498
2013    25      0       0.1355713       35.16883
2013    25      1       0.1513412       38.31416
2013    25      2       0.1787327       43.53423
2013    25      3       0.1828332       44.32546
2013    25      4       0.1969231       47.09359
2013    25      5       0.2563151       58.51616
2013    25      6       0.2794091       62.608
2013    25      7       0.1418693       36.60475
2013    26      0       0.1380933       35.86714
2013    26      1       0.1317403       34.50968
2013    26      2       0.1488274       37.84084
2013    26      3       0.1496249       37.98995
2013    26      4       0.1238649       32.71331
2013    26      5       0.1119269       30.21784
2013    26      6       0.1144027       30.65084
2013    26      7       0.1154073       30.74947
2013    27      0       0.1154274       30.66631
2013    27      1       0.1151548       30.5739
2013    27      2       0.1138352       30.29148
2013    27      3       0.1127444       30.10046
2013    27      4       0.112022        29.93679
2013    27      5       0.1094802       29.52671
2013    27      6       0.1055945       28.87197
2013    27      7       0.1192691       31.737
2013    28      0       0.1270585       33.34088
2013    28      1       0.1344238       34.516
2013    28      2       0.1658011       40.29157
2013    28      3       0.1186341       31.81528
2013    28      4       0.1823824       44.59908
2013    28      5       0.1727002       42.7687
2013    28      6       0.1502222       38.42134
2013    28      7       0.2204267       52.12005
2013    29      0       0.2604645       59.69184
2013    29      1       0.2622396       60.0839
2013    29      2       0.2759353       62.85726
2013    29      3       0.3368242       74.45733
2013    29      4       0.2612507       61.15057
2013    29      5       0.2653408       61.63712
2013    29      6       0.3591752       77.9
2013    29      7       0.3164197       69.95711
2013    30      0       0.349553        75.95004
2013    30      1       0.5452156       106.9051
2013    30      2       0.5083949       101.3843
2013    30      3       0.3715642       80.27993
2013    30      4       0.2533657       58.88285
2013    30      5       0.2789322       63.56691
2013    30      6       0.3660758       78.77585
2013    30      7       0.3749466       79.99477
2013    31      0       0.3394862       74.45422
2013    31      1       0.3349607       73.90392
2013    31      2       0.3282786       72.6872
2013    31      3       0.3443404       75.82763
2013    31      4       0.3979677       85.35277
2013    31      5       0.3799389       82.44107
2013    31      6       0.3502911       76.77525
2013    31      7       0.3741727       80.33555
2014    1       0       0.1415161       36.87094
2014    1       1       0.1902794       46.56343
2014    1       2       0.1551586       39.5849
2014    1       3       0.140235        36.53822
2014    1       4       0.1710393       42.90945
2014    1       5       0.1624068       41.39857
2014    1       6       0.1411404       36.96068
2014    1       7       0.1413602       36.95767
2014    2       0       0.1722397       43.07236
2014    2       1       0.1550265       39.73971
2014    2       2       0.1501173       38.90712
2014    2       3       0.1597117       41.10326
2014    2       4       0.1612042       41.53097
2014    2       5       0.1399781       37.06399
2014    2       6       0.1203727       32.7922
2014    2       7       0.1073905       30.01314
2014    3       0       0.1328587       35.40253
2014    3       1       0.1673352       42.54664
2014    3       2       0.2008863       49.13161
2014    3       3       0.1806173       44.90448
2014    3       4       0.13393         35.36787
2014    3       5       0.1163469       31.75895
2014    3       6       0.1290033       34.39052
2014    3       7       0.1511444       38.93527
2014    4       0       0.1664572       41.9721
2014    4       1       0.1720373       42.94275
2014    4       2       0.172048        43.04763
2014    4       3       0.1663544       42.04728
2014    4       4       0.1488696       38.49811
2014    4       5       0.1221994       32.95313
2014    4       6       0.1142419       31.27528
2014    4       7       0.1162109       31.66195
2014    5       0       0.1393249       36.37457
2014    5       1       0.1819143       44.84471
2014    5       2       0.2050138       49.42283
2014    5       3       0.1951566       47.54824
2014    5       4       0.1827801       44.99411
2014    5       5       0.1729553       42.94909
2014    5       6       0.156078        39.63304
2014    5       7       0.1390767       36.09757
2014    6       0       0.1171904       31.5361
2014    6       1       0.1029678       28.65954
2014    6       2       0.1023147       28.54176
2014    6       3       0.1095512       29.95012
2014    6       4       0.1201827       32.01185
2014    6       5       0.1352451       34.97402
2014    6       6       0.1356953       35.00916
2014    6       7       0.1193877       31.81719
2014    7       0       0.1141244       30.84452
2014    7       1       0.1085147       29.80234
2014    7       2       0.1101108       30.17853
2014    7       3       0.1109776       30.40464
2014    7       4       0.1220136       32.66373
2014    7       5       0.1357471       35.45188
2014    7       6       0.1409848       36.52114
2014    7       7       0.1331696       34.94161
2014    8       0       0.1089662       30.00452
2014    8       1       0.1082595       29.77059
2014    8       2       0.1071483       29.47098
2014    8       3       0.1052661       29.03574
2014    8       4       0.1040277       28.78985
2014    8       5       0.102107        28.43148
2014    8       6       0.1001448       28.09087
2014    8       7       0.1090964       29.93622
2014    9       0       0.1143501       30.99218
2014    9       1       0.1457114       37.20987
2014    9       2       0.1708836       41.96696
2014    9       3       0.1905352       45.48476
2014    9       4       0.1935032       45.72372
2014    9       5       0.2056664       47.8497
2014    9       6       0.2682602       59.73516
2014    9       7       0.3123125       68.43464
2014    10      0       0.2668595       60.82535
2014    10      1       0.2739478       62.52746
2014    10      2       0.2675463       61.32523
2014    10      3       0.2881837       64.99299
2014    10      4       0.366985        78.69416
2014    10      5       0.2939471       66.13021
2014    10      6       0.2577386       59.32509
2014    10      7       0.2282917       53.80845
2014    11      0       0.2590551       59.85951
2014    11      1       0.3008334       67.68652
2014    11      2       0.2869793       65.02344
2014    11      3       0.240041        56.42124
2014    11      4       0.2392529       56.03595
2014    11      5       0.2304492       54.17923
2014    11      6       0.2378251       55.20701
2014    11      7       0.2542667       57.86161
2014    12      0       0.2811358       62.4657
2014    12      1       0.2641098       59.61085
2014    12      2       0.1520153       39.23422
2014    12      3       0.1222643       33.31168
2014    12      4       0.1514813       39.28895
2014    12      5       0.1405581       37.20046
2014    12      6       0.1524834       39.69409
2014    12      7       0.1739388       43.95874
2014    13      0       0.1885501       46.64577
2014    13      1       0.195423        47.82145
2014    13      2       0.1842627       45.46965
2014    13      3       0.1394137       36.56821
2014    13      4       0.1354566       35.78448
2014    13      5       0.1598782       40.90774
2014    13      6       0.1948226       47.77486
2014    13      7       0.1381643       36.16429
2014    14      0       0.1172202       31.80378
2014    14      1       0.1687534       41.4295
2014    14      2       0.1333017       34.70623
2014    14      3       0.1385414       35.62565
2014    14      4       0.1445167       37.12361
2014    14      5       0.1785238       43.99235
2014    14      6       0.2123276       50.60121
2014    14      7       0.2278646       53.6161
2014    15      0       0.2355837       55.10746
2014    15      1       0.2433599       56.62233
2014    15      2       0.2621288       60.24473
2014    15      3       0.2578234       59.39517
2014    15      4       0.2351297       55.05297
2014    15      5       0.2187585       51.92087
2014    15      6       0.2046655       49.18751
2014    15      7       0.1821849       44.87045
2014    16      0       0.1572102       40.11152
2014    16      1       0.157838        40.29347
2014    16      2       0.162653        41.12718
2014    16      3       0.1637916       41.36435
2014    16      4       0.1627945       41.17597
2014    16      5       0.1606012       40.62782
2014    16      6       0.1616999       40.93789
2014    16      7       0.1604006       40.64875
2014    17      0       0.1586482       40.16988
2014    17      1       0.1536999       39.09125
2014    17      2       0.1472482       37.74199
2014    17      3       0.1384907       35.88744
2014    17      4       0.1338532       35.06915
2014    17      5       0.1480875       37.94101
2014    17      6       0.1712036       42.58191
2014    17      7       0.1335859       35.09164
2014    18      0       0.1267858       33.63502
2014    18      1       0.1392664       36.11105
2014    18      2       0.1137019       30.83825
2014    18      3       0.1256492       33.22809
2014    18      4       0.1564801       39.45494
2014    18      5       0.1875878       45.68355
2014    18      6       0.2149022       51.07204
2014    18      7       0.2302834       54.09122
2014    19      0       0.2642517       60.56847
2014    19      1       0.2637124       60.48668
2014    19      2       0.2125334       50.69748
2014    19      3       0.1845417       45.20414
2014    19      4       0.221038        52.34039
2014    19      5       0.2568566       59.19896
2014    19      6       0.258833        59.56286
2014    19      7       0.2664142       61.00109
2014    20      0       0.2251557       53.11531
2014    20      1       0.1612414       40.53146
2014    20      2       0.1800216       44.23038
2014    20      3       0.1869911       45.63769
2014    20      4       0.1802401       44.29533
2014    20      5       0.1734565       42.9631
2014    20      6       0.1748684       43.28244
2014    20      7       0.1798222       44.32238
2014    21      0       0.1881971       45.98119
2014    21      1       0.1950767       47.29294
2014    21      2       0.2062416       49.46095
2014    21      3       0.2001519       48.30728
2014    21      4       0.1934139       47.18704
2014    21      5       0.1787381       44.51288
2014    21      6       0.185641        45.85129
2014    21      7       0.1991388       48.51284
2014    22      0       0.180973        44.8595
2014    22      1       0.1382978       36.18584
2014    22      2       0.1298591       34.34669
2014    22      3       0.1304326       34.43279
2014    22      4       0.1260309       33.45394
2014    22      5       0.1247212       33.09621
2014    22      6       0.1198487       32.01088
2014    22      7       0.1125863       30.59903
2014    23      0       0.1128482       30.75806
2014    23      1       0.1160603       31.47288
2014    23      2       0.1192867       32.1858
2014    23      3       0.1278761       33.97195
2014    23      4       0.1539097       39.2282
2014    23      5       0.1789536       44.16774
2014    23      6       0.202375        48.8453
2014    23      7       0.2057487       49.57043
2014    24      0       0.21682         52.01942
2014    24      1       0.2247904       53.89927
2014    24      2       0.2124106       51.56047
2014    24      3       0.1871425       46.51091
2014    24      4       0.1835339       45.55034
2014    24      5       0.1947122       47.52722
2014    24      6       0.2351853       55.10816
2014    24      7       0.2497105       57.8311
2014    25      0       0.2334361       55.20518
2014    25      1       0.2361166       55.60983
2014    25      2       0.2324012       54.55235
2014    25      3       0.262096        60.04292
2014    25      4       0.274984        62.9225
2014    25      5       0.2342265       55.65716
2014    25      6       0.2832535       64.21617
2014    25      7       0.2740039       62.45455
2014    26      0       0.3023926       67.67749
2014    26      1       0.4196915       87.43241
2014    26      2       0.5118185       101.9472
2014    26      3       0.4461127       91.36259
2014    26      4       0.2964594       66.57463
2014    26      5       0.395218        83.97831
2014    26      6       0.4399128       91.85001
2014    26      7       0.5009          101.5991
2014    27      0       0.5493429       108.0053
2014    27      1       0.5210579       102.5876
2014    27      2       0.2810693       63.54729
2014    27      3       0.2678292       61.09566
2014    27      4       0.2824453       63.80058
2014    27      5       0.2890161       64.94181
2014    27      6       0.3037707       67.82185
2014    27      7       0.3156292       70.2389
2014    28      0       0.3808468       81.54914
2014    28      1       0.5315118       104.7591
2014    28      2       0.5261098       103.9559
2014    28      3       0.4793146       97.23558
2014    28      4       0.4856411       98.09705
2014    28      5       0.4594989       93.94554
2014    28      6       0.3709051       79.84561
2014    28      7       0.2910928       66.2993
2014    29      0       0.2217663       53.40124
2014    29      1       0.2220602       53.50568
2014    29      2       0.2267781       54.38079
2014    29      3       0.2233604       53.71457
2014    29      4       0.1856379       46.3438
2014    29      5       0.1495702       38.89658
2014    29      6       0.1553088       40.09112
2014    29      7       0.1702718       43.16322
2014    30      0       0.3042137       68.70619
2014    30      1       0.3305366       72.69994
2014    30      2       0.2613686       60.20451
2014    30      3       0.2673263       61.33145
2014    30      4       0.2910493       65.79082
2014    30      5       0.3020104       67.90855
2014    30      6       0.3172331       70.58898
2014    30      7       0.3698372       79.56293
2014    31      0       0.3405111       74.12357
2014    31      1       0.2996841       66.77811
2014    31      2       0.2582657       59.49525
2014    31      3       0.2348991       55.15057
2014    31      4       0.2495022       57.86013
2014    31      5       0.2742624       62.52871
2014    31      6       0.2525885       58.33639
2014    31      7       0.2160358       51.18438
2015    1       0       0.1467686       37.50723
2015    1       1       0.1375156       35.61519
2015    1       2       0.1377812       35.68721
2015    1       3       0.1430367       36.73231
2015    1       4       0.133924        34.8105
2015    1       5       0.1126276       30.5161
2015    1       6       0.1103278       29.96031
2015    1       7       0.1091354       29.61462
2015    2       0       0.1111595       30.00674
2015    2       1       0.1115098       29.88596
2015    2       2       0.1289644       33.33703
2015    2       3       0.1440716       36.63101
2015    2       4       0.1377788       35.83483
2015    2       5       0.1355376       35.55667
2015    2       6       0.1402618       36.63708
2015    2       7       0.1400497       36.71394
2015    3       0       0.1382112       36.27278
2015    3       1       0.1472087       38.01679
2015    3       2       0.1734961       43.49079
2015    3       3       0.1976893       48.59234
2015    3       4       0.2211733       53.10996
2015    3       5       0.2414691       56.77157
2015    3       6       0.2367531       55.68649
2015    3       7       0.2065774       49.56846
2015    4       0       0.1720146       42.76809
2015    4       1       0.1561201       39.71825
2015    4       2       0.1445473       37.45753
2015    4       3       0.1387555       36.26058
2015    4       4       0.1335735       35.18764
2015    4       5       0.1341832       35.32022
2015    4       6       0.1347092       35.42013
2015    4       7       0.1348229       35.47773
2015    5       0       0.1345794       35.45477
2015    5       1       0.1344466       35.4447
2015    5       2       0.1331159       35.23985
2015    5       3       0.1317671       35.04568
2015    5       4       0.137771        36.33954
2015    5       5       0.1717138       43.35278
2015    5       6       0.1994547       49.06372
2015    5       7       0.2109785       51.43671
2015    6       0       0.2140873       51.86978
2015    6       1       0.2027791       49.48847
2015    6       2       0.2074002       50.28057
2015    6       3       0.2197019       52.56286
2015    6       4       0.2398023       56.25655
2015    6       5       0.2382814       55.99398
2015    6       6       0.3264273       72.76546
2015    6       7       0.3900075       84.27901
2015    7       0       0.3589958       78.94465
2015    7       1       0.4041268       86.37049
2015    7       2       0.559887        109.0702
2015    7       3       0.3199205       71.3315
2015    7       4       0.2666969       62.09844
2015    7       5       0.3625339       79.35569
2015    7       6       0.4193908       89.07069
2015    7       7       0.3706359       81.03574
2015    8       0       0.3205495       72.18061
2015    8       1       0.343482        76.00592
2015    8       2       0.362686        78.8804
2015    8       3       0.3767954       80.94178
2015    8       4       0.3560171       77.26598
2015    8       5       0.3395346       74.28025
2015    8       6       0.3328531       73.18368
2015    8       7       0.3241765       71.76203
2015    9       0       0.3071626       68.47053
2015    9       1       0.2984539       66.6996
2015    9       2       0.3061604       68.14943
2015    9       3       0.2956023       66.24226
2015    9       4       0.2211191       52.52189
2015    9       5       0.2070057       49.84967
2015    9       6       0.2175907       51.90802
2015    9       7       0.2273749       53.69626
2015    10      0       0.2411889       56.27271
2015    10      1       0.2363401       55.44218
2015    10      2       0.2336105       54.87301
2015    10      3       0.2379639       55.57742
2015    10      4       0.2286705       53.9968
2015    10      5       0.1978421       48.34588
2015    10      6       0.1708513       43.18515
2015    10      7       0.1568558       40.42465
2015    11      0       0.1620011       41.43558
2015    11      1       0.174092        43.74076
2015    11      2       0.1189654       32.44184
2015    11      3       0.1059254       29.71388
2015    11      4       0.1171333       32.15993
2015    11      5       0.2113174       50.58739
2015    11      6       0.2251315       53.0415
2015    11      7       0.233095        55.16694
2015    12      0       0.2224158       53.03122
2015    12      1       0.1888891       46.34934
2015    12      2       0.1632436       41.32148
2015    12      3       0.196932        47.92821
2015    12      4       0.273696        62.66338
2015    12      5       0.271319        62.66113
2015    12      6       0.2492339       59.01219
2015    12      7       0.2608489       61.104
2015    13      0       0.2798963       64.41072
2015    13      1       0.2972869       67.4411
2015    13      2       0.2827267       64.74764
2015    13      3       0.2563951       59.98371
2015    13      4       0.237653        56.41681
2015    13      5       0.2391937       56.57021
2015    13      6       0.2597931       60.15164
2015    13      7       0.2814977       63.75601
2015    14      0       0.2603215       59.75733
2015    14      1       0.2256441       53.22831
2015    14      2       0.1918274       46.70507
2015    14      3       0.1661767       41.69146
2015    14      4       0.1561276       39.70605
2015    14      5       0.1456365       37.61636
2015    14      6       0.1449634       37.44917
2015    14      7       0.1420581       36.84331
2015    15      0       0.1373927       35.96301
2015    15      1       0.1319292       34.87896
2015    15      2       0.127464        33.95966
2015    15      3       0.1218724       32.80828
2015    15      4       0.1167747       31.74206
2015    15      5       0.1137123       31.10686
2015    15      6       0.1116323       30.6823
2015    15      7       0.1106388       30.46193
2015    16      0       0.1187615       32.17384
2015    16      1       0.168635        42.0784
2015    16      2       0.1815763       44.43218
2015    16      3       0.1519539       38.6616
2015    16      4       0.1535401       38.96773
2015    16      5       0.15096         38.46539
2015    16      6       0.1326503       34.8391
2015    16      7       0.135531        35.44322
2015    17      0       0.1464768       37.66419
2015    17      1       0.1544926       39.28704
2015    17      2       0.1430281       37.05108
2015    17      3       0.1417862       36.8495
2015    17      4       0.1534786       39.20808
2015    17      5       0.1714573       42.83794
2015    17      6       0.228829        53.90572
2015    17      7       0.293394        65.99593
2015    18      0       0.3519745       76.56601
2015    18      1       0.6661943       124.0519
2015    18      2       0.5960677       113.2996
2015    18      3       0.3275807       72.22862
2015    18      4       0.3082822       68.80194
2015    18      5       0.3176043       70.44969
2015    18      6       0.3157704       70.08415
2015    18      7       0.4901742       98.61648
2015    19      0       0.5113419       101.4176
2015    19      1       0.4321023       89.40671
2015    19      2       0.3852293       81.94882
2015    19      3       0.3856563       81.98798
2015    19      4       0.3899723       82.84531
2015    19      5       0.4451165       91.62023
2015    19      6       0.4539097       92.99295
2015    19      7       0.4306891       89.57257
2015    20      0       0.436238        90.18888
2015    20      1       0.3899719       82.72749
2015    20      2       0.3896383       83.0421
2015    20      3       0.3617434       78.67723
2015    20      4       0.2862011       65.63646
2015    20      5       0.1924459       47.70413
2015    20      6       0.1825557       45.6132
2015    20      7       0.1754254       44.11412
2015    21      0       0.2022331       49.30713
2015    21      1       0.2134049       51.77967
2015    21      2       0.2104759       51.47945
2015    21      3       0.2178794       52.97583
2015    21      4       0.2166772       52.65088
2015    21      5       0.2013699       49.58107
2015    21      6       0.1440986       37.84692
2015    21      7       0.1486717       38.74974
2015    22      0       0.2016628       48.76295
2015    22      1       0.1573321       39.49713
2015    22      2       0.13333         34.85473
2015    22      3       0.1439525       36.92675
2015    22      4       0.1501108       38.10155
2015    22      5       0.1514047       38.34533
2015    22      6       0.1469397       37.56343
2015    22      7       0.140381        36.3516
2015    23      0       0.1357912       35.50098
2015    23      1       0.1374422       35.87418
2015    23      2       0.1560572       39.59223
2015    23      3       0.1687611       42.12884
2015    23      4       0.175533        43.49134
2015    23      5       0.1721545       42.79533
2015    23      6       0.1440997       37.25617
2015    23      7       0.1410348       36.64647
2015    24      0       0.1432382       37.03776
2015    24      1       0.1503186       38.40309
2015    24      2       0.1683509       41.89671
2015    24      3       0.1696967       42.12742
2015    24      4       0.18566         45.32447
2015    24      5       0.2044888       49.04258
2015    24      6       0.2107146       50.20857
2015    24      7       0.2191826       51.82436
2015    25      0       0.2126342       50.57448
2015    25      1       0.1899087       46.19081
2015    25      2       0.21667         51.41193
2015    25      3       0.230949        54.16431
2015    25      4       0.1576845       39.98856
2015    25      5       0.1632802       41.11963
2015    25      6       0.1613928       40.76035
2015    25      7       0.2124659       50.70464
2015    26      0       0.2877428       64.94917
2015    26      1       0.2938624       66.07912
2015    26      2       0.3971913       83.66063
2015    26      3       0.4663966       94.73889
2015    26      4       0.4713698       95.86961
2015    26      5       0.4685703       95.55582
2015    26      6       0.412413        86.12749
2015    26      7       0.2536435       58.54126
2015    27      0       0.2328025       54.53663
2015    27      1       0.2201543       52.06771
2015    27      2       0.2049815       49.08491
2015    27      3       0.1921883       46.59101
2015    27      4       0.196968        47.64295
2015    27      5       0.2164227       51.51593
2015    27      6       0.2249744       52.97236
2015    27      7       0.2204926       52.06213
2015    28      0       0.1805447       44.63593
2015    28      1       0.1300216       34.57705
2015    28      2       0.134047        35.41076
2015    28      3       0.1361364       35.74837
2015    28      4       0.1361484       35.71366
2015    28      5       0.1426603       37.04684
2015    28      6       0.1656924       41.33288
2015    28      7       0.1842267       44.53254
2015    29      0       0.1977759       47.16601
2015    29      1       0.1968535       47.2481
2015    29      2       0.2150015       51.08397
2015    29      3       0.2316135       54.67282
2015    29      4       0.2425599       56.97988
2015    29      5       0.2566752       59.42141
2015    29      6       0.2277062       53.57584
2015    29      7       0.1769327       43.43178
2015    30      0       0.1496569       38.07437
2015    30      1       0.1309684       34.36587
2015    30      2       0.1510232       38.13543
2015    30      3       0.1874687       44.96385
2015    30      4       0.1949433       46.66149
2015    30      5       0.2056482       49.61286
2015    30      6       0.2759806       62.77587
2015    30      7       0.3668513       78.23337
2015    31      0       0.393023        82.04237
2015    31      1       0.415778        85.2688
2015    31      2       0.40861         83.19862
2015    31      3       0.2714285       60.71808
2015    31      4       0.158799        40.43394
2015    31      5       0.1968628       48.08936
2015    31      6       0.2497121       58.299
2015    31      7       0.3205712       71.20712
2016    1       0       0.1647733       42.06402
2016    1       1       0.1782056       44.71324
2016    1       2       0.1810063       45.24579
2016    1       3       0.174596        43.96044
2016    1       4       0.1766515       44.38107
2016    1       5       0.1666666       42.46338
2016    1       6       0.1323912       35.60804
2016    1       7       0.1255064       34.27866
2016    2       0       0.1323414       35.70585
2016    2       1       0.1546405       40.25136
2016    2       2       0.1372375       36.93225
2016    2       3       0.1431189       38.05944
2016    2       4       0.1436996       38.24691
2016    2       5       0.1463928       38.88356
2016    2       6       0.1532331       40.35757
2016    2       7       0.1629411       42.47202
2016    3       0       0.1627895       42.50379
2016    3       1       0.1676155       43.57501
2016    3       2       0.1682866       43.73239
2016    3       3       0.1688524       43.80527
2016    3       4       0.1752835       44.79639
2016    3       5       0.1808376       45.97143
2016    3       6       0.2051971       50.82396
2016    3       7       0.2097196       51.80018
2016    4       0       0.2150495       52.84508
2016    4       1       0.2230379       54.45044
2016    4       2       0.2138999       52.871
2016    4       3       0.1932286       49.02856
2016    4       4       0.1850155       47.3565
2016    4       5       0.1794651       46.18643
2016    4       6       0.1862276       47.76777
2016    4       7       0.1918177       48.67371
2016    5       0       0.1933157       48.67808
2016    5       1       0.1898203       47.94968
2016    5       2       0.1830182       46.58953
2016    5       3       0.1989289       49.73743
2016    5       4       0.2129775       52.60625
2016    5       5       0.2090339       51.99398
2016    5       6       0.1955435       49.30701
2016    5       7       0.1785367       45.84084
2016    6       0       0.181586        46.3527
2016    6       1       0.2113219       52.16431
2016    6       2       0.4081643       87.17915
2016    6       3       0.3584369       79.19723
2016    6       4       0.440904        92.52386
2016    6       5       0.327947        72.54748
2016    6       6       0.281236        65.00727
2016    6       7       0.2324952       55.8084
2016    7       0       0.2208037       53.44409
2016    7       1       0.2170025       52.67612
2016    7       2       0.2259063       54.16204
2016    7       3       0.2479406       58.31648
2016    7       4       0.2607773       60.72493
2016    7       5       0.264731        61.49048
2016    7       6       0.2715798       62.84334
2016    7       7       0.3210674       71.77095
2016    8       0       0.3664907       79.72918
2016    8       1       0.3810401       82.43255
2016    8       2       0.3987744       85.44449
2016    8       3       0.4102463       87.43774
2016    8       4       0.4376694       91.853
2016    8       5       0.559508        109.5639
2016    8       6       0.5667013       110.1253
2016    8       7       0.4614428       94.75055
2016    9       0       0.3832165       82.52832
2016    9       1       0.3682327       80.05663
2016    9       2       0.4122801       87.1176
2016    9       3       0.4380233       91.13189
2016    9       4       0.4414224       91.63244
2016    9       5       0.4243939       89.07339
2016    9       6       0.382416        82.38827
2016    9       7       0.3523449       77.24416
2016    10      0       0.3411391       75.30285
2016    10      1       0.3667695       79.57687
2016    10      2       0.3726293       80.56555
2016    10      3       0.3662268       79.52269
2016    10      4       0.3453053       76.11631
2016    10      5       0.3295144       73.5188
2016    10      6       0.5075293       102.0287
2016    10      7       0.3278832       73.48632
2016    11      0       0.3271535       73.52914
2016    11      1       0.3230222       73.40007
2016    11      2       0.328717        73.99455
2016    11      3       0.3258311       73.62226
2016    11      4       0.3209204       72.90867
2016    11      5       0.3101288       71.06686
2016    11      6       0.3118791       71.38775
2016    11      7       0.3068418       70.48354
2016    12      0       0.2919013       67.86897
2016    12      1       0.286127        66.99791
2016    12      2       0.2930071       68.34325
2016    12      3       0.2941308       68.57058
2016    12      4       0.2829066       66.48098
2016    12      5       0.2672096       63.48916
2016    12      6       0.2751025       64.87349
2016    12      7       0.2995451       69.7378
2016    13      0       0.3485816       78.30704
2016    13      1       0.3931331       85.8432
2016    13      2       0.3919178       85.55442
2016    13      3       0.3757763       82.86797
2016    13      4       0.4063369       88.01111
2016    13      5       0.4132988       89.30935
2016    13      6       0.3806256       83.53961
2016    13      7       0.3758329       82.61525
2016    14      0       0.4106986       88.23146
2016    14      1       0.4606653       96.26815
2016    14      2       0.4756414       98.3732
2016    14      3       0.4448726       93.21612
2016    14      4       0.3796513       83.02616
2016    14      5       0.3524192       78.45638
2016    14      6       0.3226971       73.31067
2016    14      7       0.2946573       68.13008
2016    15      0       0.2772934       64.90503
2016    15      1       0.267293        62.91899
2016    15      2       0.2631921       62.20805
2016    15      3       0.2731147       64.02071
2016    15      4       0.3046849       69.77261
2016    15      5       0.3237868       73.18959
2016    15      6       0.327493        73.95711
2016    15      7       0.3325502       74.32992
2016    16      0       0.354142        78.02711
2016    16      1       0.3850919       83.17023
2016    16      2       0.3922489       84.30869
2016    16      3       0.379225        82.13174
2016    16      4       0.3638993       79.46423
2016    16      5       0.3642998       79.45248
2016    16      6       0.3702746       80.87957
2016    16      7       0.3414947       75.77892
2016    17      0       0.3326871       74.22508
2016    17      1       0.3284875       73.511
2016    17      2       0.3099805       70.19223
2016    17      3       0.2803387       64.76104
2016    17      4       0.2655172       62.02849
2016    17      5       0.2596266       60.24228
2016    17      6       0.2514451       59.16894
2016    17      7       0.258472        60.57863
2016    18      0       0.2696774       62.63643
2016    18      1       0.2904878       66.37239
2016    18      2       0.3024379       68.56573
2016    18      3       0.332977        73.27381
2016    18      4       0.3817962       81.37992
2016    18      5       0.3018465       67.83879
2016    18      6       0.3149747       70.1924
2016    18      7       0.3229071       71.61921
2016    19      0       0.334212        73.66587
2016    19      1       0.3499632       76.47086
2016    19      2       0.3436965       75.43745
2016    19      3       0.3187293       71.21337
2016    19      4       0.3112534       69.9183
2016    19      5       0.3015583       68.2272
2016    19      6       0.2936695       66.92558
2016    19      7       0.3569952       77.8529
2016    20      0       0.5076163       101.3184
2016    20      1       0.6089709       115.5393
2016    20      2       0.6611056       122.5402
2016    20      3       0.5879121       112.9481
2016    20      4       0.4419499       91.41064
2016    20      5       0.3871307       82.46407
2016    20      6       0.357559        77.39591
2016    20      7       0.2850881       64.73452
2016    21      0       0.2653301       61.15475
2016    21      1       0.2513169       58.69533
2016    21      2       0.2544929       59.45693
2016    21      3       0.2736083       63.18377
2016    21      4       0.312299        70.23807
2016    21      5       0.3702626       80.16636
2016    21      6       0.4612244       94.72517
2016    21      7       0.5354817       105.8428
2016    22      0       0.4554658       94.3451
2016    22      1       0.4620795       95.66407
2016    22      2       0.5405417       107.0718
2016    22      3       0.3729724       80.96889
2016    22      4       0.3503697       77.20758
2016    22      5       0.3541678       77.83895
2016    22      6       0.334025        74.49578
2016    22      7       0.3032065       69.07772
2016    23      0       0.2539138       60.45399
2016    23      1       0.2299752       57.02421
2016    23      2       0.2391966       58.27992
2016    23      3       0.1719349       44.91939
2016    23      4       0.1475475       39.77015
2016    23      5       0.1083065       31.4133
2016    23      6       0.0981275       29.20601
2016    23      7       0.1209859       34.30815
2016    24      0       0.149522        40.41827
2016    24      1       0.1446728       39.63908
2016    24      2       0.1367578       37.81822
2016    24      3       0.159819        42.57425
2016    24      4       0.170613        44.59486
2016    24      5       0.190485        48.4256
2016    24      6       0.2177286       53.53566
2016    24      7       0.2096925       51.94818
2016    25      0       0.2187625       53.85538
2016    25      1       0.2368893       57.43034
2016    25      2       0.2463225       59.17005
2016    25      3       0.2682567       63.24156
2016    25      4       0.295758        68.22768
2016    25      5       0.3137361       71.42535
2016    25      6       0.2616587       61.84838
2016    25      7       0.2144311       53.06728
2016    26      0       0.1990709       50.28457
2016    26      1       0.2110602       52.71553
2016    26      2       0.2851746       66.88619
2016    26      3       0.3612867       80.33318
2016    26      4       0.3833154       84.32368
2016    26      5       0.3393994       77.0758
2016    26      6       0.2728801       65.21835
2016    26      7       0.2445943       59.96989
2016    27      0       0.2192122       54.97688
2016    27      1       0.1598626       42.83376
2016    27      2       0.1433543       39.40085
2016    27      3       0.1611088       43.05098
2016    27      4       0.1767748       46.19105
2016    27      5       0.1912414       49.23562
2016    27      6       0.2082904       52.84208
2016    27      7       0.2030865       51.70048
2016    28      0       0.1986236       50.46967
2016    28      1       0.2076296       51.86982
2016    28      2       0.2169755       53.5863
2016    28      3       0.2300618       56.09358
2016    28      4       0.2457066       58.99671
2016    28      5       0.2329179       56.53334
2016    28      6       0.2062548       51.39884
2016    28      7       0.1995436       50.28868
2016    29      0       0.1991973       50.35193
2016    29      1       0.2042967       51.01427
2016    29      2       0.2022406       50.45417
2016    29      3       0.1914434       48.19603
2016    29      4       0.2036113       50.26753
2016    29      5       0.2475988       58.27963
2016    29      6       0.288173        65.28219
2016    29      7       0.2578664       59.45001
2016    30      0       0.2848527       64.33073
2016    30      1       0.2821424       63.76739
2016    30      2       0.2715248       61.85782
2016    30      3       0.2529943       58.57002
2016    30      4       0.2411742       56.4265
2016    30      5       0.2335962       54.98331
2016    30      6       0.2275266       53.89092
2016    30      7       0.2123791       51.06834
2016    31      0       0.2039762       49.48445
2016    31      1       0.1942138       47.62495
2016    31      2       0.1911383       47.12342
2016    31      3       0.1923871       47.39996
2016    31      4       0.1927164       47.40856
2016    31      5       0.1908106       46.95971
2016    31      6       0.1876545       46.31184
2016    31      7       0.1847333       45.71155
2017    1       0       0.2295882       55.21694
2017    1       1       0.2294812       55.09953
2017    1       2       0.2021168       49.77239
2017    1       3       0.1891151       47.42567
2017    1       4       0.193488        48.41696
2017    1       5       0.2334355       56.38517
2017    1       6       0.3071826       70.11867
2017    1       7       0.3532792       78.11367
2017    2       0       0.3913085       83.65284
2017    2       1       0.430277        89.96702
2017    2       2       0.4947153       99.93994
2017    2       3       0.5560194       108.9843
2017    2       4       0.5799854       112.2132
2017    2       5       0.5401219       106.4782
2017    2       6       0.5169003       103.2972
2017    2       7       0.4907337       99.56494
2017    3       0       0.4775793       97.60422
2017    3       1       0.4801745       97.95612
2017    3       2       0.5317905       105.6628
2017    3       3       0.5277867       105.1138
2017    3       4       0.4975296       100.8304
2017    3       5       0.5321464       106.0167
2017    3       6       0.6628331       123.7228
2017    3       7       0.532419        105.8748
2017    4       0       0.5294695       105.4736
2017    4       1       0.5629711       110.1973
2017    4       2       0.6200191       117.8507
2017    4       3       0.6430548       120.8717
2017    4       4       0.6405974       120.5849
2017    4       5       0.5973306       114.8541
2017    4       6       0.5720616       111.3538
2017    4       7       0.5533286       108.7317
2017    5       0       0.5447467       107.5667
2017    5       1       0.4842616       98.74401
2017    5       2       0.4315695       90.6655
2017    5       3       0.4180326       88.66639
2017    5       4       0.3684707       80.67269
2017    5       5       0.2981233       68.46183
2017    5       6       0.2566579       60.84068
2017    5       7       0.22253         54.37239
2017    6       0       0.2287171       55.52147
2017    6       1       0.2391309       57.45222
2017    6       2       0.2376976       57.17234
2017    6       3       0.240657        57.64066
2017    6       4       0.2376932       57.01767
2017    6       5       0.227992        55.07796
2017    6       6       0.2133064       52.52926
2017    6       7       0.214988        52.79581
2017    7       0       0.230537        55.7693
2017    7       1       0.2389245       57.34926
2017    7       2       0.246296        58.32001
2017    7       3       0.2445221       57.90048
2017    7       4       0.2433246       57.52536
2017    7       5       0.2587659       60.19203
2017    7       6       0.2777885       63.5068
2017    7       7       0.276372        63.14096
2017    8       0       0.2801591       63.78145
2017    8       1       0.2984545       67.05256
2017    8       2       0.2955062       66.59333
2017    8       3       0.2747156       62.91406
2017    8       4       0.2479928       58.06
2017    8       5       0.2349709       55.65671
2017    8       6       0.2244206       53.66491
2017    8       7       0.2146655       51.73991
2017    9       0       0.2152145       51.77439
2017    9       1       0.2326175       55.05311
2017    9       2       0.2421988       56.80848
2017    9       3       0.2526499       58.67473
2017    9       4       0.2532508       58.72882
2017    9       5       0.2450545       57.14121
2017    9       6       0.2396254       56.07508
2017    9       7       0.2379492       55.76365
2017    10      0       0.2529431       58.63019
2017    10      1       0.3170493       70.18323
2017    10      2       0.3643913       78.18843
2017    10      3       0.3732816       79.67527
2017    10      4       0.3240708       71.52724
2017    10      5       0.2918397       65.93749
2017    10      6       0.286355        65.02798
2017    10      7       0.2813148       64.18054
2017    11      0       0.284039        64.73008
2017    11      1       0.2824317       64.55495
2017    11      2       0.2777682       63.83253
2017    11      3       0.2832501       64.92298
2017    11      4       0.2841096       65.17209
2017    11      5       0.2783214       64.18382
2017    11      6       0.2725443       63.1148
2017    11      7       0.2743966       63.37909
2017    12      0       0.2676054       62.11272
2017    12      1       0.2539853       59.66456
2017    12      2       0.2581608       60.46286
2017    12      3       0.2736471       63.21498
2017    12      4       0.2933081       66.67499
2017    12      5       0.304304        68.53552
2017    12      6       0.2892168       65.74603
2017    12      7       0.2520948       58.85351
2017    13      0       0.2821199       64.28164
2017    13      1       0.299173        67.37358
2017    13      2       0.2825951       64.58565
2017    13      3       0.3005573       68.09222
2017    13      4       0.328877        73.09279
2017    13      5       0.3452108       75.88934
2017    13      6       0.338124        74.8834
2017    13      7       0.3590613       78.578
2017    14      0       0.4078709       86.70286
2017    14      1       0.5128799       102.5665
2017    14      2       0.4537322       93.68407
2017    14      3       0.4875136       98.96608
2017    14      4       0.516318        103.25
2017    14      5       0.559964        109.5425
2017    14      6       0.5426452       106.9989
2017    14      7       0.446061        92.74282
2017    15      0       0.4538498       93.97317
2017    15      1       0.5803491       112.3594
2017    15      2       0.6403996       120.6166
2017    15      3       0.5814169       112.8705
2017    15      4       0.4918155       100.0468
2017    15      5       0.5348368       106.6878
2017    15      6       0.6139808       117.9763
2017    15      7       0.6724753       125.6409
2017    16      0       0.7350671       133.8225
2017    16      1       0.7928714       141.1225
2017    16      2       0.9425241       157.4167
2017    16      3       0.680077        128.3534
2017    16      4       0.5617317       112.7624
2017    16      5       0.6246509       120.8347
2017    16      6       1.037556        165.9452
2017    16      7       1.264618        184.0296
2017    17      0       1.266532        184.5243
2017    17      1       0.8489719       147.578
2017    17      2       0.5780158       113.5228
2017    17      3       0.5300896       106.3979
2017    17      4       0.5383194       107.6171
2017    17      5       0.5401463       107.9953
2017    17      6       0.5579665       110.4617
2017    17      7       0.592383        115.1942
2017    18      0       0.5222399       105.1832
2017    18      1       0.4516902       94.52791
2017    18      2       0.3844716       83.90814
2017    18      3       0.2740415       64.83849
2017    18      4       0.1770105       45.95029
2017    18      5       0.1348334       37.13451
2017    18      6       0.1458072       39.52831
2017    18      7       0.1735476       45.25798
2017    19      0       0.1960975       49.78332
2017    19      1       0.2063706       51.80059
2017    19      2       0.2449408       59.15869
2017    19      3       0.2527735       60.63593
2017    19      4       0.2659669       63.13423
2017    19      5       0.2996433       69.27382
2017    19      6       0.3539917       78.64932
2017    19      7       0.3858965       83.75133
2017    20      0       0.3623531       79.79267
2017    20      1       0.3553111       78.44358
2017    20      2       0.3957275       84.9942
2017    20      3       0.4015237       85.8174
2017    20      4       0.4314459       90.35686
2017    20      5       0.4385092       92.03079
2017    20      6       0.421237        89.18071
2017    20      7       0.4035662       86.29526
2017    21      0       0.3526392       77.76672
2017    21      1       0.3293993       73.80068
2017    21      2       0.3152259       71.6872
2017    21      3       0.3196389       72.77757
2017    21      4       0.3366517       74.65501
2017    21      5       0.3400557       75.15659
2017    21      6       0.3496615       76.75362
2017    21      7       0.3407361       75.8588
2017    22      0       0.3192279       72.07581
2017    22      1       0.2903791       66.8437
2017    22      2       0.2881747       66.47079
2017    22      3       0.3504364       77.60243
2017    22      4       0.4141864       87.64637
2017    22      5       0.4850377       98.75135
2017    22      6       0.5741241       111.5621
2017    22      7       0.5444882       107.2992
2017    23      0       0.5348468       105.9706
2017    23      1       0.5699765       110.9544
2017    23      2       0.5320377       105.8327
2017    23      3       0.510764        102.9232
2017    23      4       0.5239597       104.9192
2017    23      5       0.5256222       105.3265
2017    23      6       0.505605        102.4575
2017    23      7       0.4685109       96.78492
2017    24      0       0.4390846       92.08057
2017    24      1       0.4053976       86.55899
2017    24      2       0.3735018       81.26101
2017    24      3       0.3807682       82.34994
2017    24      4       0.3866542       83.2399
2017    24      5       0.3858587       83.13938
2017    24      6       0.3842299       82.85761
2017    24      7       0.386263        83.18952
2017    25      0       0.4195207       88.48972
2017    25      1       0.4248223       89.28419
2017    25      2       0.4282316       89.75764
2017    25      3       0.4489875       92.84141
2017    25      4       0.3959769       84.43696
2017    25      5       0.4006754       85.21698
2017    25      6       0.4061393       86.09506
2017    25      7       0.410098        86.69251
2017    26      0       0.4149525       87.33018
2017    26      1       0.3895931       83.16093
2017    26      2       0.3701818       80.05403
2017    26      3       0.3621174       78.76832
2017    26      4       0.3419365       75.32237
2017    26      5       0.3289901       73.13891
2017    26      6       0.3283748       73.21928
2017    26      7       0.3373197       74.99741
2017    27      0       0.3475963       76.91214
2017    27      1       0.3568783       78.60444
2017    27      2       0.3489376       77.32189
2017    27      3       0.3366951       75.17901
2017    27      4       0.3029677       69.10728
2017    27      5       0.2918973       66.93141
2017    27      6       0.2908243       66.6333
2017    27      7       0.2884888       66.15671
2017    28      0       0.2941364       66.99729
2017    28      1       0.3944629       83.83933
2017    28      2       0.2849111       65.20613
2017    28      3       0.2759361       63.71801
2017    28      4       0.2682297       62.45794
2017    28      5       0.2670068       62.39463
2017    28      6       0.2774065       64.44659
2017    28      7       0.3054643       69.66557
2017    29      0       0.3422473       76.32817
2017    29      1       0.3882623       84.24804
2017    29      2       0.5799078       113.2388
2017    29      3       0.5225909       105.1065
2017    29      4       0.4113559       88.05815
2017    29      5       0.3795629       82.74382
2017    29      6       0.3816567       82.97442
2017    29      7       0.4159206       88.38496
2017    30      0       0.3705677       80.99864
2017    30      1       0.3604522       79.30114
2017    30      2       0.4045406       86.54104
2017    30      3       0.4552404       94.57448
2017    30      4       0.4610556       95.4552
2017    30      5       0.3857148       83.47999
2017    30      6       0.4028045       86.40363
2017    30      7       0.5322827       106.0522
2017    31      0       0.52857         105.5814
2017    31      1       0.4876177       99.58459
2017    31      2       0.4374788       91.87718
2017    31      3       0.4065306       86.92863
2017    31      4       0.3977355       85.31636
2017    31      5       0.3919035       84.23826
2017    31      6       0.4055776       86.44308
2017    31      7       0.4806909       98.18027
2018    1       0       0.3125377       70.4565
2018    1       1       0.3129954       70.46988
2018    1       2       0.3040652       68.90883
2018    1       3       0.3074042       69.42761
2018    1       4       0.308645        69.68609
2018    1       5       0.3260695       72.74193
2018    1       6       0.3317769       73.68314
2018    1       7       0.3293812       73.26977
2018    2       0       0.3241176       72.22825
2018    2       1       0.3179309       71.02995
2018    2       2       0.3117758       69.85853
2018    2       3       0.3039389       68.39624
2018    2       4       0.2871177       65.23778
2018    2       5       0.2770764       63.36465
2018    2       6       0.2871553       65.19823
2018    2       7       0.2885434       65.39854
2018    3       0       0.2872043       65.09933
2018    3       1       0.2965593       66.74338
2018    3       2       0.3268946       72.08736
2018    3       3       0.3357865       73.70264
2018    3       4       0.3273675       72.27317
2018    3       5       0.2695778       61.93044
2018    3       6       0.2931961       66.22495
2018    3       7       0.3072913       68.73986
2018    4       0       0.2749132       62.91978
2018    4       1       0.2535106       58.99478
2018    4       2       0.2541055       59.21292
2018    4       3       0.2575327       59.80906
2018    4       4       0.2626762       60.71752
2018    4       5       0.2713259       62.34121
2018    4       6       0.2815908       64.24363
2018    4       7       0.2726596       62.65674
2018    5       0       0.261047        60.5898
2018    5       1       0.2549337       59.54397
2018    5       2       0.2525745       59.26127
2018    5       3       0.2583909       60.45239
2018    5       4       0.248103        58.5756
2018    5       5       0.2323264       55.62611
2018    5       6       0.2071065       50.76528
2018    5       7       0.1788239       45.1547
2018    6       0       0.1680014       42.94633
2018    6       1       0.1761598       44.58184
2018    6       2       0.1899055       47.26471
2018    6       3       0.1790414       45.40894
2018    6       4       0.163548        42.29653
2018    6       5       0.1584147       41.2995
2018    6       6       0.1561742       40.79061
2018    6       7       0.1518008       39.83055
2018    7       0       0.1576547       41.01163
2018    7       1       0.1669182       42.90863
2018    7       2       0.1697849       43.56396
2018    7       3       0.1731159       44.25661
2018    7       4       0.1798299       45.59486
2018    7       5       0.1914056       47.81244
2018    7       6       0.1956869       48.55441
2018    7       7       0.194486        48.16805
2018    8       0       0.1912347       47.33883
2018    8       1       0.1925925       47.54897
2018    8       2       0.1957161       48.21815
2018    8       3       0.2004684       49.21116
2018    8       4       0.2043009       49.71659
2018    8       5       0.2048246       49.89498
2018    8       6       0.2072407       50.40721
2018    8       7       0.2107071       51.10286
2018    9       0       0.2200386       52.82191
2018    9       1       0.2278425       54.23291
2018    9       2       0.2238482       53.54061
2018    9       3       0.2162072       52.09778
2018    9       4       0.2604355       60.34197
2018    9       5       0.2105006       50.96193
2018    9       6       0.2125384       51.37574
2018    9       7       0.2136848       51.63141
2018    10      0       0.2178795       52.3989
2018    10      1       0.2246584       53.63246
2018    10      2       0.2334889       55.28943
2018    10      3       0.2389468       56.32067
2018    10      4       0.2373087       56.02662
2018    10      5       0.231643        54.98575
2018    10      6       0.2249858       53.70243
2018    10      7       0.2144004       51.59811
2018    11      0       0.2167387       52.00124
2018    11      1       0.2458976       57.54661
2018    11      2       0.2676883       61.85101
2018    11      3       0.3068254       69.00651
2018    11      4       0.3131908       70.23325
2018    11      5       0.3603773       78.32613
2018    11      6       0.370215        80.11192
2018    11      7       0.3956927       84.49989
2018    12      0       0.5477633       107.7105
2018    12      1       0.5003122       101.1461
2018    12      2       0.4130688       88.32697
2018    12      3       0.5349297       106.6736
2018    12      4       0.837146        144.0846
2018    12      5       0.8627276       146.9536
2018    12      6       0.7925845       139.188
2018    12      7       0.6430797       121.1218
2018    13      0       0.52778         105.5582
2018    13      1       0.4229535       89.50183
2018    13      2       0.4294238       90.46221
2018    13      3       0.4660576       96.44499
2018    13      4       0.4699327       97.05712
2018    13      5       0.4927163       100.4465
2018    13      6       0.4641076       96.07605
2018    13      7       0.3960712       85.02526
2018    14      0       0.3885249       83.63073
2018    14      1       0.4019683       85.8672
2018    14      2       0.4189874       88.64467
2018    14      3       0.448675        93.38946
2018    14      4       0.4675652       96.23554
2018    14      5       0.4559416       94.2545
2018    14      6       0.4410108       91.97149
2018    14      7       0.442779        92.38182
2018    15      0       0.4304644       90.27074
2018    15      1       0.44243         92.08572
2018    15      2       0.4097684       86.79063
2018    15      3       0.3800356       81.98416
2018    15      4       0.348717        76.64598
2018    15      5       0.3338272       74.92736
2018    15      6       0.3940208       85.30234
2018    15      7       0.377795        81.91639
2018    16      0       0.3088393       68.97181
2018    16      1       0.2926947       65.8873
2018    16      2       0.3009919       67.31709
2018    16      3       0.3082311       68.65072
2018    16      4       0.3188909       70.66022
2018    16      5       0.3259058       72.03919
2018    16      6       0.3287786       72.57955
2018    16      7       0.3243306       71.7864
2018    17      0       0.3289801       72.66336
2018    17      1       0.3382915       74.39244
2018    17      2       0.3524172       76.79702
2018    17      3       0.4205723       87.86507
2018    17      4       0.4597773       93.68353
2018    17      5       0.3012918       67.56113
2018    17      6       0.2525775       58.74514
2018    17      7       0.2408741       56.70519
2018    18      0       0.248201        58.12153
2018    18      1       0.2483707       58.29648
2018    18      2       0.239762        56.8334
2018    18      3       0.2408302       57.10245
2018    18      4       0.2530738       59.3969
2018    18      5       0.2714913       62.85804
2018    18      6       0.2878651       65.83783
2018    18      7       0.277953        64.01301
2018    19      0       0.2625151       61.3508
2018    19      1       0.2461347       58.48933
2018    19      2       0.2386642       57.05041
2018    19      3       0.2240619       54.21231
2018    19      4       0.1984276       49.46091
2018    19      5       0.1834252       46.44721
2018    19      6       0.1890299       47.61051
2018    19      7       0.2050267       50.83213
2018    20      0       0.2024684       50.3507
2018    20      1       0.1942425       48.69291
2018    20      2       0.1830876       46.48262
2018    20      3       0.1766274       45.18648
2018    20      4       0.1746937       44.73918
2018    20      5       0.1756208       44.8142
2018    20      6       0.1662121       42.82983
2018    20      7       0.1674959       43.01026
2018    21      0       0.1785935       45.18912
2018    21      1       0.2057571       50.38044
2018    21      2       0.2507056       58.63326
2018    21      3       0.2767257       63.32662
2018    21      4       0.297175        66.72392
2018    21      5       0.3023012       67.55153
2018    21      6       0.2524907       58.56045
2018    21      7       0.229705        54.30128
2018    22      0       0.2128798       51.08581
2018    22      1       0.2308442       54.69721
2018    22      2       0.2626129       60.47211
2018    22      3       0.2665166       61.12867
2018    22      4       0.2759025       62.91084
2018    22      5       0.2824519       64.41317
2018    22      6       0.2873755       65.3871
2018    22      7       0.2841463       64.97185
2018    23      0       0.282851        64.84865
2018    23      1       0.2867429       65.54603
2018    23      2       0.3028984       68.09006
2018    23      3       0.3064171       68.80188
2018    23      4       0.3071429       69.00605
2018    23      5       0.2993208       67.73104
2018    23      6       0.2885415       65.84767
2018    23      7       0.2793322       64.25775
2018    24      0       0.2915526       66.49527
2018    24      1       0.3071483       69.32384
2018    24      2       0.3110576       70.02095
2018    24      3       0.411626        86.86017
2018    24      4       0.3173147       71.0461
2018    24      5       0.3039727       68.61067
2018    24      6       0.2993202       67.7374
2018    24      7       0.3642722       78.84177
2018    25      0       0.3582115       77.78349
2018    25      1       0.3967077       84.03861
2018    25      2       0.4058018       85.56475
2018    25      3       0.3585506       77.93522
2018    25      4       0.3647928       79.04412
2018    25      5       0.388523        82.83438
2018    25      6       0.3884176       82.72911
2018    25      7       0.3564054       77.39625
2018    26      0       0.3401804       74.69516
2018    26      1       0.34404         75.29758
2018    26      2       0.3165631       70.64881
2018    26      3       0.3015905       68.0855
2018    26      4       0.2791157       64.11006
2018    26      5       0.2589258       60.43553
2018    26      6       0.2499757       58.75001
2018    26      7       0.2516861       59.03117
2018    27      0       0.2601184       60.59181
2018    27      1       0.2614255       60.79048
2018    27      2       0.2699321       62.24993
2018    27      3       0.2638189       61.19463
2018    27      4       0.2221909       53.90403
2018    27      5       0.1895333       47.49008
2018    27      6       0.1701333       43.62596
2018    27      7       0.1689588       43.36993
2018    28      0       0.1792277       45.37314
2018    28      1       0.1787484       45.13841
2018    28      2       0.1804277       45.3703
2018    28      3       0.1814804       45.59801
2018    28      4       0.1859443       46.46488
2018    28      5       0.1875118       46.71265
2018    28      6       0.1887877       46.87302
2018    28      7       0.1916149       47.39156
2018    29      0       0.18679         46.77697
2018    29      1       0.2337257       56.41854
2018    29      2       0.226657        54.7803
2018    29      3       0.1845223       46.6582
2018    29      4       0.1844877       46.65401
2018    29      5       0.1853648       46.85165
2018    29      6       0.1898128       47.6654
2018    29      7       0.1945096       48.46671
2018    30      0       0.2021715       49.89408
2018    30      1       0.204589        50.41614
2018    30      2       0.21075         51.741
2018    30      3       0.2156166       52.72719
2018    30      4       0.2103775       51.72444
2018    30      5       0.2078918       51.217
2018    30      6       0.2123799       52.01304
2018    30      7       0.2195104       53.27065
2018    31      0       0.2243309       54.06667
2018    31      1       0.2054476       50.4839
2018    31      2       0.1970127       48.79449
2018    31      3       0.2021614       49.69159
2018    31      4       0.2082452       50.79861
2018    31      5       0.2125696       51.62356
2018    31      6       0.2253893       54.11307
2018    31      7       0.2376297       56.5048
