####################################################################################################
# Month: 11Nov                                                                                     #
# Station: LAS                                                                                     #
# Frequency: 345 GHz                                                                               #
# Columns are: year    day     segment         tau     Tb (K)                                      #
####################################################################################################
2009    1       0       1.169803        189.4593
2009    1       1       1.079068        182.6297
2009    1       2       1.060674        180.5982
2009    1       3       1.074264        181.5324
2009    1       4       1.036091        179.3401
2009    1       5       0.9509043       171.6127
2009    1       6       1.029657        180.09
2009    1       7       1.030188        180.2784
2009    2       0       1.000268        177.1227
2009    2       1       0.8702717       162.2021
2009    2       2       0.9292015       167.3641
2009    2       3       0.9812386       171.3785
2009    2       4       1.166855        188.0629
2009    2       5       1.397478        206.2928
2009    2       6       1.55331         217.5051
2009    2       7       1.617541        222.1912
2009    3       0       1.534281        217.8824
2009    3       1       1.382964        208.2983
2009    3       2       1.308438        202.6046
2009    3       3       1.267666        199.2697
2009    3       4       1.223242        195.5029
2009    3       5       1.313754        202.3635
2009    3       6       1.413002        209.5543
2009    3       7       1.350884        205.4694
2009    4       0       1.250524        197.9033
2009    4       1       1.081965        183.5812
2009    4       2       0.9774894       173.478
2009    4       3       0.9208894       167.3461
2009    4       4       0.816622        155.3989
2009    4       5       0.8258928       156.4916
2009    4       6       0.8316222       157.7398
2009    4       7       0.7621105       149.6816
2009    5       0       0.6782241       138.9399
2009    5       1       0.6359797       132.8398
2009    5       2       0.6703456       137.5397
2009    5       3       0.6720065       137.1702
2009    5       4       0.6786219       137.9973
2009    5       5       0.7141037       142.8922
2009    5       6       0.7703659       150.1416
2009    5       7       0.7394849       146.1582
2009    6       0       0.7125716       142.1172
2009    6       1       0.7336825       144.3734
2009    6       2       0.7110285       141.166
2009    6       3       0.555195        119.1103
2009    6       4       0.4907576       109.4025
2009    6       5       0.6602634       135.3044
2009    6       6       0.7478032       147.1853
2009    6       7       0.7932134       152.9041
2009    7       0       0.7546725       148.3185
2009    7       1       0.9312655       168.655
2009    7       2       1.039354        178.7051
2009    7       3       0.9522226       168.7778
2009    7       4       0.789194        150.1443
2009    7       5       0.8055568       152.8497
2009    7       6       0.7879099       151.3337
2009    7       7       0.655954        134.519
2009    8       0       0.45986         104.7582
2009    8       1       0.4065724       95.23007
2009    8       2       0.2908126       73.3904
2009    8       3       0.3201549       78.79691
2009    8       4       0.2258004       59.24089
2009    8       5       0.3474334       83.48619
2009    8       6       0.5477006       118.0012
2009    8       7       0.5116614       111.9385
2009    9       0       0.3427127       82.24585
2009    9       1       0.2681764       67.90569
2009    9       2       0.3211242       77.64339
2009    9       3       0.464114        100.4612
2009    9       4       0.4165999       93.15281
2009    9       5       0.5183914       111.0473
2009    9       6       0.5971186       124.2566
2009    9       7       0.6172577       128.2699
2009    10      0       0.5575347       119.2324
2009    10      1       0.6182622       127.7911
2009    10      2       0.6094216       125.851
2009    10      3       0.5709817       119.5193
2009    10      4       0.4902301       106.181
2009    10      5       0.6971046       138.0659
2009    10      6       0.8055679       152.4241
2009    10      7       0.8241061       154.9547
2009    11      0       0.7172914       141.96
2009    11      1       0.6830064       137.1368
2009    11      2       0.7084911       140.7029
2009    11      3       0.7252317       142.931
2009    11      4       0.7314178       144.0015
2009    11      5       0.7984906       153.0838
2009    11      6       0.9174397       167.6776
2009    11      7       0.9344637       169.9753
2009    12      0       0.7511169       148.6095
2009    12      1       0.6829172       139.2298
2009    12      2       0.6307356       131.6929
2009    12      3       0.6388491       132.4007
2009    12      4       0.6594121       135.3856
2009    12      5       0.7517513       148.2745
2009    12      6       0.9496744       172.0996
2009    12      7       0.9142425       168.8764
2009    13      0       0.8240185       158.6824
2009    13      1       0.7134597       144.4175
2009    13      2       0.7018925       142.4989
2009    13      3       0.7227215       145.1676
2009    13      4       0.7629275       150.5374
2009    13      5       0.7834691       153.6443
2009    13      6       0.8438606       161.1529
2009    13      7       0.777459        153.0402
2009    14      0       0.717264        145.1941
2009    14      1       0.5674397       123.32
2009    14      2       0.6035602       129.0204
2009    14      3       0.5905081       126.7759
2009    14      4       0.6357567       132.898
2009    14      5       0.641882        134.0664
2009    14      6       0.7313657       147.0161
2009    14      7       0.70046         142.7479
2009    15      0       0.6033829       128.6048
2009    15      1       0.4974932       111.8579
2009    15      2       0.4454337       102.7628
2009    15      3       0.4186987       97.43246
2009    15      4       0.4236445       98.18375
2009    15      5       0.4527976       103.7024
2009    15      6       0.5794513       125.9393
2009    15      7       0.5032541       114.6487
2009    16      0       0.3760243       92.47572
2009    16      1       0.3374698       84.98666
2009    16      2       0.416464        99.6081
2009    16      3       0.5693129       124.8633
2009    16      4       0.6431162       135.3287
2009    16      5       0.6791747       140.2035
2009    16      6       0.6965515       143.0043
2009    16      7       0.6609309       138.2175
2009    17      0       0.6231738       132.6225
2009    17      1       0.5462228       120.1693
2009    17      2       0.6871163       138.9547
2009    17      3       0.6854038       137.7481
2009    17      4       0.6729582       136.4762
2009    17      5       0.7569068       148.724
2009    17      6       0.8046752       155.3985
2009    17      7       0.7742256       152.6426
2009    18      0       0.7277722       146.3502
2009    18      1       0.6993445       141.3147
2009    18      2       0.7227363       143.9604
2009    18      3       0.7642398       149.0267
2009    18      4       0.7807228       150.4274
2009    18      5       0.9684378       172.114
2009    18      6       1.09388         184.8872
2009    18      7       1.080073        182.7987
2009    19      0       0.9932823       173.5462
2009    19      1       0.6312646       131.6043
2009    19      2       0.5613817       121.8263
2009    19      3       0.486005        109.969
2009    19      4       0.5353234       117.5519
2009    19      5       0.6009575       127.4434
2009    19      6       0.6890114       140.4896
2009    19      7       0.6419453       133.7862
2009    20      0       0.5898188       126.2131
2009    20      1       0.5607518       121.9188
2009    20      2       0.6524222       134.8881
2009    20      3       0.8092077       154.2355
2009    20      4       0.9847164       173.3231
2009    20      5       1.177216        191.4981
2009    20      6       1.259236        198.4481
2009    20      7       1.261646        198.8978
2009    21      0       1.147719        189.2464
2009    21      1       1.13603         187.3665
2009    21      2       1.19967         191.6811
2009    21      3       1.324617        201.0952
2009    21      4       1.624015        219.9959
2009    21      5       1.770448        229.8023
2009    21      6       1.688508        227.4114
2009    21      7       1.602457        223.7043
2009    22      0       1.429985        214.3596
2009    22      1       1.330355        207.8266
2009    22      2       1.353663        208.7459
2009    22      3       1.392109        210.555
2009    22      4       1.424343        211.9202
2009    22      5       1.300973        203.5041
2009    22      6       1.282124        202.9487
2009    22      7       1.236771        200.239
2009    23      0       1.19585         197.0164
2009    23      1       1.2186          198.7185
2009    23      2       1.273034        203.0537
2009    23      3       1.391206        211.5746
2009    23      4       1.511527        219.5975
2009    23      5       1.577294        224.2988
2009    23      6       1.593396        225.8807
2009    23      7       1.409351        215.2625
2009    24      0       1.215286        201.1215
2009    24      1       1.135538        194.0091
2009    24      2       1.10259         189.9812
2009    24      3       0.9874211       178.3242
2009    24      4       0.847944        162.8642
2009    24      5       0.8021004       157.4758
2009    24      6       0.7189267       147.111
2009    24      7       0.5696569       125.0772
2009    25      0       0.4362187       102.3012
2009    25      1       0.3645727       88.06033
2009    25      2       0.3990213       93.47803
2009    25      3       0.4669451       104.4691
2009    25      4       0.4610273       103.6033
2009    25      5       0.4660212       105.4714
2009    25      6       0.4614701       106.5774
2009    25      7       0.4731667       108.7979
2009    26      0       0.4306704       101.374
2009    26      1       0.3846689       92.88025
2009    26      2       0.3944466       94.64608
2009    26      3       0.4164367       98.6882
2009    26      4       0.4484317       104.3384
2009    26      5       0.5258881       117.7838
2009    26      6       0.6099289       131.1149
2009    26      7       0.7058298       143.4466
2009    27      0       0.8153111       155.9379
2009    27      1       0.8350134       158.1628
2009    27      2       0.8289899       157.4036
2009    27      3       0.8941169       164.8585
2009    27      4       1.020367        178.2492
2009    27      5       1.136039        189.8417
2009    27      6       1.261423        201.5249
2009    27      7       1.102211        188.7502
2009    28      0       0.8999528       168.7294
2009    28      1       0.7801062       154.828
2009    28      2       0.7440434       150.2358
2009    28      3       0.7128511       145.709
2009    28      4       0.7310108       147.7988
2009    28      5       0.6849653       142.2015
2009    28      6       0.698655        144.3117
2009    28      7       0.660495        138.006
2009    29      0       0.6804971       139.6172
2009    29      1       0.6994818       142.3003
2009    29      2       0.7337637       146.3263
2009    29      3       0.8342514       158.1608
2009    29      4       0.9558833       171.8655
2009    29      5       1.138285        189.8696
2009    29      6       1.25583         200.8928
2009    29      7       1.162008        193.9716
2009    30      0       1.159015        193.1837
2009    30      1       1.106203        188.2308
2009    30      2       1.221338        197.781
2009    30      3       1.344915        206.7294
2009    30      4       1.428526        212.1873
2009    30      5       1.479437        215.8216
2009    30      6       1.461912        215.5468
2009    30      7       1.336515        207.5779
2010    1       0       0.5841256       126.0189
2010    1       1       0.6128342       130.1765
2010    1       2       0.6177609       130.9777
2010    1       3       0.5711799       124.1764
2010    1       4       0.5295996       117.6979
2010    1       5       0.5416218       119.3438
2010    1       6       0.6351377       134.0167
2010    1       7       0.6586833       137.8053
2010    2       0       0.6648171       139.0732
2010    2       1       0.6340101       134.8611
2010    2       2       0.5991428       129.5055
2010    2       3       0.593335        128.552
2010    2       4       0.5884137       127.7026
2010    2       5       0.6750651       140.2462
2010    2       6       0.9802283       177.2514
2010    2       7       1.019728        181.2015
2010    3       0       1.024509        181.9029
2010    3       1       1.06357         185.4423
2010    3       2       1.034033        181.9794
2010    3       3       1.041015        182.0025
2010    3       4       0.9330341       170.6639
2010    3       5       0.8991967       166.7122
2010    3       6       1.087331        185.6787
2010    3       7       1.075732        184.4743
2010    4       0       0.9791246       174.8201
2010    4       1       0.8281638       157.7746
2010    4       2       0.8375615       158.0035
2010    4       3       0.9900509       173.5035
2010    4       4       0.9687288       171.4472
2010    4       5       0.9219581       167.099
2010    4       6       1.050019        180.8946
2010    4       7       0.9115503       167.1873
2010    5       0       0.7823846       152.6092
2010    5       1       0.6634671       137.1225
2010    5       2       0.6413896       133.2805
2010    5       3       0.619605        129.8988
2010    5       4       0.5462752       118.6423
2010    5       5       0.6047497       127.2044
2010    5       6       0.810607        155.9119
2010    5       7       0.9406075       171.3016
2010    6       0       0.9297156       170.3041
2010    6       1       0.9571835       173.0851
2010    6       2       1.040323        181.2878
2010    6       3       1.120636        188.4525
2010    6       4       1.202874        195.2918
2010    6       5       1.249738        199.6818
2010    6       6       1.29914         204.7491
2010    6       7       1.303768        205.757
2010    7       0       1.347132        208.8695
2010    7       1       1.419948        213.1365
2010    7       2       1.612947        223.3971
2010    7       3       1.734385        228.171
2010    7       4       1.609663        221.7152
2010    7       5       1.648003        224.0581
2010    7       6       1.882189        234.9071
2010    7       7       1.893299        234.2884
2010    8       0       1.677801        224.0353
2010    8       1       1.628619        220.4143
2010    8       2       1.782877        227.1174
2010    8       3       1.934347        232.4489
2010    8       4       1.790679        226.2578
2010    8       5       1.50734         212.62
2010    8       6       1.081585        181.9838
2010    8       7       0.6444846       133.1793
2010    9       0       0.4330391       100.686
2010    9       1       0.4109652       97.20837
2010    9       2       0.5110286       114.2747
2010    9       3       0.5660134       123.0518
2010    9       4       0.5654944       123.0272
2010    9       5       0.5343115       118.1525
2010    9       6       0.7336563       147.1683
2010    9       7       0.7680393       151.4829
2010    10      0       0.6576718       136.9773
2010    10      1       0.5909044       127.2343
2010    10      2       0.5731717       124.419
2010    10      3       0.5639604       122.9638
2010    10      4       0.5990665       127.9593
2010    10      5       0.5558633       121.3133
2010    10      6       0.6671623       137.9815
2010    10      7       0.6329507       132.9626
2010    11      0       0.477055        108.6616
2010    11      1       0.380968        91.55754
2010    11      2       0.3930761       93.65102
2010    11      3       0.4024728       95.30368
2010    11      4       0.3979984       94.40385
2010    11      5       0.4339708       100.922
2010    11      6       0.5271742       116.9094
2010    11      7       0.5072083       113.8872
2010    12      0       0.3971512       95.08707
2010    12      1       0.350633        86.1032
2010    12      2       0.3464988       85.09743
2010    12      3       0.350613        85.58089
2010    12      4       0.337822        82.74482
2010    12      5       0.4438444       102.1095
2010    12      6       0.5012173       112.0093
2010    12      7       0.4362438       101.2622
2010    13      0       0.3342823       82.68791
2010    13      1       0.2779249       71.28936
2010    13      2       0.2676887       68.95108
2010    13      3       0.2677151       68.95781
2010    13      4       0.253627        66.07124
2010    13      5       0.3009221       76.21378
2010    13      6       0.4017458       95.97413
2010    13      7       0.44957         104.1457
2010    14      0       0.4509654       103.8933
2010    14      1       0.3644711       87.28217
2010    14      2       0.3439788       83.11738
2010    14      3       0.3174725       77.60981
2010    14      4       0.3318408       79.84332
2010    14      5       0.4246848       97.76691
2010    14      6       0.4940468       110.9479
2010    14      7       0.5027748       113.0103
2010    15      0       0.398419        95.23998
2010    15      1       0.3446751       85.16317
2010    15      2       0.3490977       85.92797
2010    15      3       0.3258599       81.01994
2010    15      4       0.2971243       75.21898
2010    15      5       0.3253334       81.12077
2010    15      6       0.5083393       114.0961
2010    15      7       0.5907118       126.9056
2010    16      0       0.6150358       130.4383
2010    16      1       0.626744        131.7127
2010    16      2       0.5648454       122.3514
2010    16      3       0.4819478       108.8096
2010    16      4       0.4367408       100.9634
2010    16      5       0.5037729       112.4215
2010    16      6       0.7415063       147.3988
2010    16      7       0.9017022       166.4156
2010    17      0       0.8975673       166.9404
2010    17      1       0.8796061       164.3767
2010    17      2       0.7314826       146.0634
2010    17      3       0.7561101       148.6949
2010    17      4       0.6975844       140.4242
2010    17      5       0.6715168       136.5075
2010    17      6       0.722616        143.8003
2010    17      7       0.7147031       142.6138
2010    18      0       0.6271614       130.6583
2010    18      1       0.5028033       110.9807
2010    18      2       0.5210969       113.4861
2010    18      3       0.5908237       124.4237
2010    18      4       0.6835031       137.7368
2010    18      5       0.9112827       165.0853
2010    18      6       0.9432861       168.5979
2010    18      7       0.9015249       163.9069
2010    19      0       0.6360432       131.2843
2010    19      1       0.4903094       108.9255
2010    19      2       0.5071449       111.4253
2010    19      3       0.5417066       116.8049
2010    19      4       0.6379676       130.9414
2010    19      5       0.778288        149.6044
2010    19      6       0.9359094       167.6972
2010    19      7       1.024246        177.0814
2010    20      0       0.9663079       171.4107
2010    20      1       0.9131834       166.0838
2010    20      2       1.025318        177.266
2010    20      3       1.107274        184.0352
2010    20      4       1.093954        181.957
2010    20      5       1.123422        184.5174
2010    20      6       1.222182        192.6829
2010    20      7       1.149749        187.0585
2010    21      0       0.8707011       160.3979
2010    21      1       0.6564726       133.9695
2010    21      2       0.6787081       136.9611
2010    21      3       0.813543        153.8391
2010    21      4       0.9388336       167.8283
2010    21      5       1.053215        179.6778
2010    21      6       1.118401        186.5673
2010    21      7       1.050959        180.7121
2010    22      0       0.8849382       163.6925
2010    22      1       0.783685        151.9247
2010    22      2       0.8047015       154.4515
2010    22      3       0.8408806       158.2861
2010    22      4       0.8571451       159.7876
2010    22      5       1.043812        179.0258
2010    22      6       1.19332         192.1881
2010    22      7       1.196348        192.4319
2010    23      0       1.011923        176.2236
2010    23      1       0.8774164       162.2258
2010    23      2       0.8794987       162.6971
2010    23      3       0.8302518       157.3106
2010    23      4       0.7225169       144.1194
2010    23      5       0.86488         161.1533
2010    23      6       1.289986        200.5027
2010    23      7       1.409207        209.3386
2010    24      0       1.42805         211.654
2010    24      1       1.437938        212.5898
2010    24      2       1.421488        211.6552
2010    24      3       1.355832        207.4345
2010    24      4       1.172834        193.6368
2010    24      5       1.151755        192.1749
2010    24      6       1.198396        196.2336
2010    24      7       1.002613        178.7773
2010    25      0       0.9090757       169.2015
2010    25      1       0.8639931       163.971
2010    25      2       0.9150169       169.2903
2010    25      3       0.9147343       168.9756
2010    25      4       0.698427        142.6505
2010    25      5       0.6858941       141.2599
2010    25      6       0.8614411       163.9405
2010    25      7       0.8672299       165.0702
2010    26      0       0.8726915       165.928
2010    26      1       0.9883066       178.2319
2010    26      2       0.9139406       170.57
2010    26      3       0.9220255       171.2258
2010    26      4       0.8655402       164.7234
2010    26      5       0.8945077       168.0894
2010    26      6       0.9996699       179.3294
2010    26      7       0.8580808       164.1362
2010    27      0       0.6577662       138.4766
2010    27      1       0.5210055       117.4497
2010    27      2       0.5307306       118.6697
2010    27      3       0.5350483       118.5795
2010    27      4       0.4547683       104.8399
2010    27      5       0.5872373       126.0782
2010    27      6       0.6594538       136.7452
2010    27      7       0.5828117       125.8002
2010    28      0       0.403243        96.30176
2010    28      1       0.3254034       81.51677
2010    28      2       0.3120917       78.64104
2010    28      3       0.3039425       76.68938
2010    28      4       0.3202505       79.72491
2010    28      5       0.4205009       98.69164
2010    28      6       0.5272944       116.7357
2010    28      7       0.4996126       112.2319
2010    29      0       0.3824939       91.87966
2010    29      1       0.2342591       62.54478
2010    29      2       0.2276279       61.13998
2010    29      3       0.2320369       61.72602
2010    29      4       0.2549413       66.38136
2010    29      5       0.2758383       71.1496
2010    29      6       0.3713763       89.75209
2010    29      7       0.4028011       95.60732
2010    30      0       0.355729        86.99772
2010    30      1       0.2362796       62.62928
2010    30      2       0.2566381       66.56601
2010    30      3       0.2788739       70.645
2010    30      4       0.3370431       81.66385
2010    30      5       0.4857481       108.6406
2010    30      6       0.6260728       131.3732
2010    30      7       0.6717744       138.4568
2011    1       0       0.7638462       148.2342
2011    1       1       0.8407157       156.9612
2011    1       2       0.9796546       171.7487
2011    1       3       0.9410502       167.9678
2011    1       4       0.9130773       164.9342
2011    1       5       0.9664942       171.9814
2011    1       6       0.8764793       163.6744
2011    1       7       0.7553591       149.9751
2011    2       0       0.6048506       129.8334
2011    2       1       0.4718652       108.513
2011    2       2       0.4365138       101.638
2011    2       3       0.4141686       97.28984
2011    2       4       0.4060579       95.95234
2011    2       5       0.4504807       104.4978
2011    2       6       0.5555801       122.121
2011    2       7       0.5088811       114.5613
2011    3       0       0.4301583       101.5992
2011    3       1       0.3802965       92.69002
2011    3       2       0.274509        71.33667
2011    3       3       0.2751252       71.29911
2011    3       4       0.3651529       89.02696
2011    3       5       0.518939        115.9133
2011    3       6       0.6930883       142.5905
2011    3       7       0.7136625       145.7993
2011    4       0       0.6989654       144.0785
2011    4       1       0.5221472       117.1985
2011    4       2       0.3328916       82.17768
2011    4       3       0.3556497       86.62865
2011    4       4       0.3770308       90.82043
2011    4       5       0.5055166       113.4877
2011    4       6       0.6433203       135.6458
2011    4       7       0.6831373       141.7288
2011    5       0       0.6430094       136.2912
2011    5       1       0.4624557       106.9071
2011    5       2       0.520326        116.8114
2011    5       3       0.3812533       90.90189
2011    5       4       0.3558565       86.62583
2011    5       5       0.3858071       92.88901
2011    5       6       0.5407203       120.7591
2011    5       7       0.51505         116.6272
2011    6       0       0.3391134       85.69625
2011    6       1       0.4354038       104.1156
2011    6       2       0.476228        110.574
2011    6       3       0.4968682       113.007
2011    6       4       0.6750821       141.172
2011    6       5       0.5760644       126.2189
2011    6       6       0.7272717       148.619
2011    6       7       0.8082394       158.8986
2011    7       0       0.6718221       140.2354
2011    7       1       0.493004        113.1997
2011    7       2       0.3573797       87.98764
2011    7       3       0.3622876       88.79419
2011    7       4       0.336739        83.40557
2011    7       5       0.3670183       88.88702
2011    7       6       0.5364606       118.6997
2011    7       7       0.6652927       138.3757
2011    8       0       0.4180491       98.19893
2011    8       1       0.2919222       74.30275
2011    8       2       0.2618092       68.50066
2011    8       3       0.2658926       69.27476
2011    8       4       0.274248        70.9518
2011    8       5       0.4045658       96.3848
2011    8       6       0.6315321       132.9511
2011    8       7       0.7080906       142.7541
2011    9       0       0.760944        148.409
2011    9       1       0.8822895       161.5397
2011    9       2       0.9756263       171.1615
2011    9       3       0.8104435       153.2832
2011    9       4       0.5206319       114.2291
2011    9       5       0.3633261       87.68632
2011    9       6       0.3618867       87.81892
2011    9       7       0.4054562       96.08002
2011    10      0       0.3575842       87.39605
2011    10      1       0.2457696       64.44704
2011    10      2       0.2245503       59.6922
2011    10      3       0.2357744       61.7102
2011    10      4       0.2720704       68.82414
2011    10      5       0.3685946       87.71437
2011    10      6       0.4884345       109.6279
2011    10      7       0.631554        131.963
2011    11      0       0.5985289       126.8977
2011    11      1       0.5711106       122.5074
2011    11      2       0.5989751       126.3655
2011    11      3       0.6245603       129.726
2011    11      4       0.6644166       135.5146
2011    11      5       0.7082743       142.5322
2011    11      6       0.8240259       158.1166
2011    11      7       0.8789099       164.7703
2011    12      0       0.8099213       156.7861
2011    12      1       0.7640494       150.9463
2011    12      2       0.820858        157.3363
2011    12      3       0.8402585       159.1871
2011    12      4       0.8063569       154.6818
2011    12      5       0.8822146       163.7888
2011    12      6       1.051992        181.1175
2011    12      7       0.9374957       169.0795
2011    13      0       0.8010332       153.4903
2011    13      1       0.761108        147.7281
2011    13      2       0.7199003       141.9861
2011    13      3       0.5490715       118.3677
2011    13      4       0.5929932       124.915
2011    13      5       0.664006        135.1757
2011    13      6       0.6982542       140.315
2011    13      7       0.5261492       115.5203
2011    14      0       0.469435        106.6695
2011    14      1       0.4390735       101.3522
2011    14      2       0.4117677       96.17567
2011    14      3       0.4312696       99.37945
2011    14      4       0.4363784       100.3981
2011    14      5       0.4877004       109.8667
2011    14      6       0.6118612       130.16
2011    14      7       0.7731881       152.7882
2011    15      0       0.7008696       143.7025
2011    15      1       0.6821628       141.0676
2011    15      2       0.6833168       140.6946
2011    15      3       0.8089989       155.9571
2011    15      4       0.799642        154.2319
2011    15      5       0.7522086       147.9017
2011    15      6       0.9411991       170.2467
2011    15      7       0.8922243       164.2573
2011    16      0       0.6885601       139.6805
2011    16      1       0.5382408       119.4452
2011    16      2       0.5516275       120.8967
2011    16      3       0.548105        119.7389
2011    16      4       0.475531        107.745
2011    16      5       0.4950205       111.4196
2011    16      6       0.7073472       143.682
2011    16      7       0.7263478       146.3377
2011    17      0       0.5380296       119.119
2011    17      1       0.43515         101.494
2011    17      2       0.4134445       97.38083
2011    17      3       0.3863227       92.30454
2011    17      4       0.3837944       91.7092
2011    17      5       0.5113359       114.0707
2011    17      6       0.6148343       130.4182
2011    17      7       0.5586          122.1692
2011    18      0       0.4700736       108.1014
2011    18      1       0.4326042       101.2193
2011    18      2       0.5281712       116.7603
2011    18      3       0.5355316       117.8123
2011    18      4       0.5230794       115.6515
2011    18      5       0.6222857       130.9959
2011    18      6       0.7932455       153.59
2011    18      7       0.7859692       151.92
2011    19      0       0.5916846       125.0388
2011    19      1       0.4966997       109.5226
2011    19      2       0.5735654       121.7031
2011    19      3       0.6111964       127.2477
2011    19      4       0.6783399       137.1372
2011    19      5       0.695395        140.5968
2011    19      6       0.6817929       139.4418
2011    19      7       0.6174466       130.3945
2011    20      0       0.4586458       105.4917
2011    20      1       0.3979888       94.51151
2011    20      2       0.417287        97.44525
2011    20      3       0.4166577       96.47866
2011    20      4       0.5370867       115.3044
2011    20      5       0.7520306       146.4038
2011    20      6       0.7007141       140.2854
2011    20      7       0.5828394       123.8395
2011    21      0       0.3964708       93.72847
2011    21      1       0.2380475       62.55619
2011    21      2       0.3432997       82.20777
2011    21      3       0.3599909       85.70173
2011    21      4       0.3316994       79.68553
2011    21      5       0.5141241       112.5159
2011    21      6       0.6757264       137.437
2011    21      7       0.7707764       150.6055
2011    22      0       0.6952101       140.7187
2011    22      1       0.6300717       132.0959
2011    22      2       0.5905858       126.3006
2011    22      3       0.5919585       126.645
2011    22      4       0.5915369       126.4497
2011    22      5       0.6842106       140.1845
2011    22      6       0.857128        162.688
2011    22      7       0.8409571       161.1676
2011    23      0       0.797747        155.3372
2011    23      1       0.6222751       131.2349
2011    23      2       0.6203776       130.968
2011    23      3       0.534846        117.671
2011    23      4       0.4777502       108.3178
2011    23      5       0.5403487       119.1064
2011    23      6       0.6571794       137.2287
2011    23      7       0.6729375       139.2935
2011    24      0       0.5907315       127.226
2011    24      1       0.5313479       117.9336
2011    24      2       0.5298402       117.7697
2011    24      3       0.5098677       114.6323
2011    24      4       0.4681722       107.7656
2011    24      5       0.4869207       111.0011
2011    24      6       0.5715017       125.3438
2011    24      7       0.5778827       126.7713
2011    25      0       0.6460982       137.4143
2011    25      1       0.6415513       136.4614
2011    25      2       0.5429477       121.0487
2011    25      3       0.4341644       102.3462
2011    25      4       0.3713091       90.75966
2011    25      5       0.4490801       105.1275
2011    25      6       0.6007114       130.1839
2011    25      7       0.6601826       139.2088
2011    26      0       0.6432007       136.8927
2011    26      1       0.7488811       151.272
2011    26      2       0.9246262       172.5327
2011    26      3       0.821794        160.4797
2011    26      4       0.6694493       139.9162
2011    26      5       0.7315956       148.2207
2011    26      6       0.8210903       159.3321
2011    26      7       0.742571        149.3812
2011    27      0       0.564598        123.5872
2011    27      1       0.428735        101.0952
2011    27      2       0.4109124       97.87371
2011    27      3       0.3812502       92.54369
2011    27      4       0.3057816       78.0159
2011    27      5       0.3985584       96.1526
2011    27      6       0.5732056       125.8214
2011    27      7       0.5731576       125.8773
2011    28      0       0.4199688       100.2459
2011    28      1       0.2473053       65.9432
2011    28      2       0.2922653       75.46025
2011    28      3       0.3202127       81.09407
2011    28      4       0.3239722       81.90234
2011    28      5       0.4321085       102.7109
2011    28      6       0.5663838       125.7124
2011    28      7       0.6043361       131.705
2011    29      0       0.5953367       130.278
2011    29      1       0.6096103       132.4788
2011    29      2       0.634425        136.4775
2011    29      3       0.6761431       142.4847
2011    29      4       0.6389816       137.2515
2011    29      5       0.618696        134.384
2011    29      6       0.6573418       139.8485
2011    29      7       0.6334595       136.1753
2011    30      0       0.5456727       122.5559
2011    30      1       0.5658515       125.7813
2011    30      2       0.6896713       144.4502
2011    30      3       0.7934715       158.2305
2011    30      4       0.7382853       151.2847
2011    30      5       0.7719163       155.7191
2011    30      6       0.7952388       159.2586
2011    30      7       0.8320238       163.7735
2012    1       0       0.4518909       105.0325
2012    1       1       0.3712494       90.49266
2012    1       2       0.3643343       88.98492
2012    1       3       0.381823        91.82628
2012    1       4       0.4075531       96.07549
2012    1       5       0.5190954       115.008
2012    1       6       0.6766275       139.0385
2012    1       7       0.6102846       129.7852
2012    2       0       0.5176775       115.4806
2012    2       1       0.4591632       105.4477
2012    2       2       0.5130916       114.4923
2012    2       3       0.4944506       111.434
2012    2       4       0.3946363       94.10137
2012    2       5       0.4384491       102.2939
2012    2       6       0.6380764       134.536
2012    2       7       0.6789729       140.417
2012    3       0       0.5818427       126.3311
2012    3       1       0.4414128       103.3776
2012    3       2       0.4187759       99.15351
2012    3       3       0.3889552       93.37126
2012    3       4       0.385986        92.90482
2012    3       5       0.4241497       99.90725
2012    3       6       0.5752455       125.3131
2012    3       7       0.5980685       128.8737
2012    4       0       0.4807236       110.3053
2012    4       1       0.3486072       86.2231
2012    4       2       0.3830417       92.72777
2012    4       3       0.402238        96.03411
2012    4       4       0.3731055       90.34756
2012    4       5       0.4468679       103.5684
2012    4       6       0.6443796       135.4074
2012    4       7       0.7003895       143.3862
2012    5       0       0.6256881       132.8842
2012    5       1       0.5277516       117.8521
2012    5       2       0.5131684       115.4809
2012    5       3       0.4709692       108.3522
2012    5       4       0.4113591       97.94747
2012    5       5       0.4704931       108.7765
2012    5       6       0.7115711       145.9497
2012    5       7       0.7642638       153.1152
2012    6       0       0.6883898       143.2906
2012    6       1       0.6008027       130.5842
2012    6       2       0.5600231       124.0842
2012    6       3       0.5268048       118.5818
2012    6       4       0.4734512       109.4866
2012    6       5       0.4451561       104.403
2012    6       6       0.5755769       125.9559
2012    6       7       0.579213        126.5921
2012    7       0       0.5266872       118.3607
2012    7       1       0.4378445       103.1317
2012    7       2       0.353209        87.26938
2012    7       3       0.2988929       76.06044
2012    7       4       0.2677172       69.61605
2012    7       5       0.3139744       79.08273
2012    7       6       0.5821103       126.6095
2012    7       7       0.6951431       142.9668
2012    8       0       0.6762474       140.2622
2012    8       1       0.4379371       102.6401
2012    8       2       0.3320756       82.79179
2012    8       3       0.3914319       94.04952
2012    8       4       0.3989847       95.41586
2012    8       5       0.4446245       103.4309
2012    8       6       0.5361772       118.4499
2012    8       7       0.584166        125.2805
2012    9       0       0.4843855       108.9046
2012    9       1       0.4299948       98.72957
2012    9       2       0.5337505       115.4655
2012    9       3       0.6721011       135.5831
2012    9       4       0.7084257       140.6392
2012    9       5       0.7723448       149.0243
2012    9       6       0.7484005       146.4125
2012    9       7       0.6597356       135.0274
2012    10      0       0.4501605       103.3122
2012    10      1       0.298154        75.43473
2012    10      2       0.2843019       72.66199
2012    10      3       0.2374304       62.75727
2012    10      4       0.1949735       53.69845
2012    10      5       0.2840828       72.84806
2012    10      6       0.3520743       86.44256
2012    10      7       0.325173        81.38044
2012    11      0       0.2555538       66.94685
2012    11      1       0.2032005       55.14113
2012    11      2       0.2045461       55.13633
2012    11      3       0.1973703       53.54592
2012    11      4       0.1986655       53.9224
2012    11      5       0.2303903       61.5775
2012    11      6       0.3217037       81.0167
2012    11      7       0.3820564       92.80659
2012    12      0       0.3417204       85.19424
2012    12      1       0.2303858       61.88279
2012    12      2       0.2096533       57.03643
2012    12      3       0.2356048       62.72313
2012    12      4       0.2827842       72.6601
2012    12      5       0.3677396       89.61012
2012    12      6       0.5746946       125.4482
2012    12      7       0.577239        125.9863
2012    13      0       0.5113138       115.3503
2012    13      1       0.4644616       106.9848
2012    13      2       0.3989656       94.90483
2012    13      3       0.3444204       84.46955
2012    13      4       0.3519158       85.98085
2012    13      5       0.4285475       100.4688
2012    13      6       0.5821534       126.4304
2012    13      7       0.5952077       128.4587
2012    14      0       0.5289013       117.624
2012    14      1       0.4313027       100.4337
2012    14      2       0.4355847       100.2517
2012    14      3       0.4893417       107.604
2012    14      4       0.5638551       119.2095
2012    14      5       0.7340283       145.2681
2012    14      6       0.9733573       174.1921
2012    14      7       0.9944165       176.71
2012    15      0       0.8195322       158.1841
2012    15      1       0.7995282       155.8513
2012    15      2       0.7956891       155.2471
2012    15      3       0.7155391       144.796
2012    15      4       0.666008        138.1436
2012    15      5       0.6962112       141.7363
2012    15      6       0.8297817       158.3562
2012    15      7       0.8562442       161.5074
2012    16      0       0.8140251       156.0541
2012    16      1       0.825524        156.8195
2012    16      2       0.9135762       166.8381
2012    16      3       0.9903759       174.9257
2012    16      4       1.064419        181.8404
2012    16      5       1.208702        194.4898
2012    16      6       1.200762        194.3086
2012    16      7       1.045011        180.9874
2012    17      0       0.8706637       162.9932
2012    17      1       0.5875136       125.9127
2012    17      2       0.4869981       110.2295
2012    17      3       0.4260147       99.53121
2012    17      4       0.4395105       101.4031
2012    17      5       0.5234344       115.8479
2012    17      6       0.6374223       133.619
2012    17      7       0.5714095       124.0017
2012    18      0       0.4999363       112.7162
2012    18      1       0.3775411       91.10733
2012    18      2       0.3593419       87.65316
2012    18      3       0.360142        87.47739
2012    18      4       0.3510166       85.91916
2012    18      5       0.4042752       96.34775
2012    18      6       0.5850286       127.3042
2012    18      7       0.6145711       132.1975
2012    19      0       0.5321741       119.7426
2012    19      1       0.4597534       107.6266
2012    19      2       0.5401394       121.1293
2012    19      3       0.5363188       120.2879
2012    19      4       0.5032431       114.5805
2012    19      5       0.5120856       115.9713
2012    19      6       0.716041        146.63
2012    19      7       0.8043082       158.2105
2012    20      0       0.8126598       159.5336
2012    20      1       0.7764958       155.0996
2012    20      2       0.806847        158.717
2012    20      3       0.6709261       140.3143
2012    20      4       0.6371066       135.4071
2012    20      5       0.6760236       141.0742
2012    20      6       0.7654763       153.1761
2012    20      7       0.5955235       129.1013
2012    21      0       0.4719344       109.3554
2012    21      1       0.3268108       82.30107
2012    21      2       0.3225188       81.17302
2012    21      3       0.3570053       87.5357
2012    21      4       0.4164975       98.38728
2012    21      5       0.6063286       129.4671
2012    21      6       0.7529695       149.4072
2012    21      7       0.7157369       144.1648
2012    22      0       0.565622        123.5446
2012    22      1       0.4078497       97.1763
2012    22      2       0.4052105       96.08003
2012    22      3       0.3986671       94.59208
2012    22      4       0.4110758       96.45108
2012    22      5       0.5343467       117.6383
2012    22      6       0.6298961       132.166
2012    22      7       0.6120857       129.3117
2012    23      0       0.5630885       121.2385
2012    23      1       0.5073787       111.7065
2012    23      2       0.5224115       113.9129
2012    23      3       0.4888494       108.6505
2012    23      4       0.4443523       101.785
2012    23      5       0.4561429       104.7071
2012    23      6       0.5540063       121.1721
2012    23      7       0.5389833       119.1536
2012    24      0       0.4281474       100.9484
2012    24      1       0.3407632       84.71891
2012    24      2       0.3378007       84.16932
2012    24      3       0.3337495       83.21954
2012    24      4       0.3091744       78.09724
2012    24      5       0.3328479       82.76942
2012    24      6       0.5119011       115.1124
2012    24      7       0.577558        125.589
2012    25      0       0.498877        112.8243
2012    25      1       0.4906501       110.9464
2012    25      2       0.491701        110.8402
2012    25      3       0.5265693       115.4118
2012    25      4       0.416317        96.48121
2012    25      5       0.4983764       111.5311
2012    25      6       0.6984596       142.1123
2012    25      7       0.7543033       150.0571
2012    26      0       0.7174645       145.4523
2012    26      1       0.7116347       144.5369
2012    26      2       0.6883884       141.0119
2012    26      3       0.6236723       131.6201
2012    26      4       0.5770576       124.518
2012    26      5       0.6890337       141.2799
2012    26      6       0.8468285       162.0712
2012    26      7       0.7534778       151.1063
2012    27      0       0.6078875       130.9269
2012    27      1       0.4499554       105.2389
2012    27      2       0.3908989       94.33033
2012    27      3       0.3812299       91.85318
2012    27      4       0.4239643       99.44422
2012    27      5       0.4684436       107.4775
2012    27      6       0.5911249       127.7266
2012    27      7       0.5695954       124.413
2012    28      0       0.4439128       103.3099
2012    28      1       0.2963356       75.29856
2012    28      2       0.3412027       84.1353
2012    28      3       0.4086417       96.72966
2012    28      4       0.3980796       94.71439
2012    28      5       0.5964396       127.4129
2012    28      6       0.7972764       154.8888
2012    28      7       0.7581845       149.7301
2012    29      0       0.6064377       127.9666
2012    29      1       0.570973        121.7586
2012    29      2       0.662659        134.8385
2012    29      3       0.6712488       136.4204
2012    29      4       0.875388        160.0722
2012    29      5       0.9761471       169.336
2012    29      6       1.130545        183.4188
2012    29      7       1.056169        177.0739
2012    30      0       0.9474882       166.8779
2012    30      1       0.7936914       149.4166
2012    30      2       0.8988112       160.9558
2012    30      3       1.005705        170.9172
2012    30      4       1.145767        182.7174
2012    30      5       1.320022        197.541
2012    30      6       1.403978        205.324
2012    30      7       1.348207        202.9178
2013    1       0       0.9728574       169.8186
2013    1       1       0.9584965       167.3384
2013    1       2       1.095604        179.4434
2013    1       3       1.134614        182.1291
2013    1       4       0.867097        157.2696
2013    1       5       0.8536379       156.9489
2013    1       6       0.8285996       155.1116
2013    1       7       0.8646644       159.0111
2013    2       0       0.6428919       131.4816
2013    2       1       0.3830103       90.2335
2013    2       2       0.2638057       67.63442
2013    2       3       0.201365        54.52952
2013    2       4       0.2169379       57.68464
2013    2       5       0.2717879       69.92907
2013    2       6       0.4131533       97.60296
2013    2       7       0.5351495       118.4509
2013    3       0       0.4891394       111.4319
2013    3       1       0.3839749       93.00284
2013    3       2       0.3267529       81.84039
2013    3       3       0.3280464       81.75975
2013    3       4       0.3093652       77.56599
2013    3       5       0.3397061       83.45415
2013    3       6       0.4968003       112.3957
2013    3       7       0.5825695       126.7044
2013    4       0       0.5341151       119.6242
2013    4       1       0.5038912       114.8851
2013    4       2       0.55012         122.3042
2013    4       3       0.5877127       127.8472
2013    4       4       0.5373395       119.8721
2013    4       5       0.5478261       121.6454
2013    4       6       0.6567058       138.2994
2013    4       7       0.6523592       137.7225
2013    5       0       0.470783        109.2576
2013    5       1       0.4102892       98.32906
2013    5       2       0.3545168       87.82226
2013    5       3       0.3340604       83.95862
2013    5       4       0.3541168       87.75738
2013    5       5       0.4710955       108.9581
2013    5       6       0.6409391       135.7963
2013    5       7       0.648536        136.9452
2013    6       0       0.5644613       124.4136
2013    6       1       0.4988342       113.4792
2013    6       2       0.4895069       111.4382
2013    6       3       0.497644        112.2901
2013    6       4       0.4805083       109.1401
2013    6       5       0.5324188       117.5566
2013    6       6       0.5149669       115.142
2013    6       7       0.4756203       108.7287
2013    7       0       0.2804683       72.20673
2013    7       1       0.2122247       57.72232
2013    7       2       0.1811198       50.58435
2013    7       3       0.1573136       44.85597
2013    7       4       0.1490682       42.861
2013    7       5       0.1973229       54.11395
2013    7       6       0.3153767       79.23471
2013    7       7       0.3273212       81.75283
2013    8       0       0.276735        71.44885
2013    8       1       0.1958821       53.77855
2013    8       2       0.2080891       56.26682
2013    8       3       0.2287411       60.11314
2013    8       4       0.2567851       65.79907
2013    8       5       0.3516262       84.86604
2013    8       6       0.4893935       109.7967
2013    8       7       0.5534122       120.2444
2013    9       0       0.440129        101.5324
2013    9       1       0.3949926       93.34349
2013    9       2       0.3777851       89.73673
2013    9       3       0.4299503       98.88308
2013    9       4       0.4497031       102.1734
2013    9       5       0.6133175       128.4922
2013    9       6       0.7987536       152.9848
2013    9       7       0.8164987       154.5673
2013    10      0       0.6643017       134.924
2013    10      1       0.6995674       138.6238
2013    10      2       0.8700133       158.7592
2013    10      3       1.076288        178.3873
2013    10      4       1.466319        205.1825
2013    10      5       1.449686        203.3393
2013    10      6       1.620178        212.9929
2013    10      7       1.603747        212.7084
2013    11      0       0.9333402       164.7641
2013    11      1       0.7524049       145.0768
2013    11      2       0.7352925       143.7388
2013    11      3       0.7484849       145.7866
2013    11      4       0.6522165       133.6962
2013    11      5       0.6653418       136.0627
2013    11      6       0.8061968       155.2348
2013    11      7       0.7955416       154.5535
2013    12      0       0.7539211       149.4691
2013    12      1       0.6978217       142.0257
2013    12      2       0.6362865       133.7348
2013    12      3       0.4939313       111.5335
2013    12      4       0.3976205       94.62607
2013    12      5       0.3924078       93.47902
2013    12      6       0.5425888       119.8336
2013    12      7       0.5858383       127.1346
2013    13      0       0.479237        110.2948
2013    13      1       0.4388527       103.3122
2013    13      2       0.4244954       100.7653
2013    13      3       0.4093387       97.79798
2013    13      4       0.3608267       88.88353
2013    13      5       0.4244926       100.9257
2013    13      6       0.5109712       116.0881
2013    13      7       0.5628539       124.4343
2013    14      0       0.4908767       112.763
2013    14      1       0.3888627       94.74094
2013    14      2       0.3771427       92.05017
2013    14      3       0.2446008       64.9009
2013    14      4       0.1978698       54.09565
2013    14      5       0.3084054       77.62541
2013    14      6       0.3786565       91.23583
2013    14      7       0.4182669       98.13961
2013    15      0       0.4854185       109.5407
2013    15      1       0.4599003       105.187
2013    15      2       0.4061404       96.21171
2013    15      3       0.3585432       87.76485
2013    15      4       0.368256        89.63273
2013    15      5       0.3861786       93.31596
2013    15      6       0.4096695       98.18842
2013    15      7       0.3825212       93.42925
2013    16      0       0.2810851       73.53485
2013    16      1       0.2296268       62.40801
2013    16      2       0.21441         59.08554
2013    16      3       0.2410308       64.82413
2013    16      4       0.253674        67.42877
2013    16      5       0.2879945       74.71818
2013    16      6       0.4079027       98.00554
2013    16      7       0.4186408       99.98052
2013    17      0       0.3423694       85.36224
2013    17      1       0.2557744       67.03243
2013    17      2       0.2392065       63.48502
2013    17      3       0.2445006       64.58653
2013    17      4       0.2944979       74.91449
2013    17      5       0.4479806       104.1257
2013    17      6       0.6186355       131.6308
2013    17      7       0.641326        134.7269
2013    18      0       0.4909297       111.0789
2013    18      1       0.4247674       99.13583
2013    18      2       0.4407796       101.5978
2013    18      3       0.5232565       114.5731
2013    18      4       0.5578649       119.3323
2013    18      5       0.5870363       124.3919
2013    18      6       0.7463149       147.1325
2013    18      7       0.8699259       161.7894
2013    19      0       0.8508821       159.4777
2013    19      1       0.6889464       139.3358
2013    19      2       0.65351         134.3289
2013    19      3       0.7504034       146.5534
2013    19      4       0.823281        155.0683
2013    19      5       0.9514102       169.1931
2013    19      6       1.182793        190.7701
2013    19      7       1.289816        199.0174
2013    20      0       1.16831         189.4148
2013    20      1       1.102275        183.734
2013    20      2       1.100656        183.7825
2013    20      3       1.057478        179.9995
2013    20      4       1.047257        178.6493
2013    20      5       1.244208        195.3863
2013    20      6       1.535835        215.81
2013    20      7       1.498128        215.0954
2013    21      0       1.47812         214.6467
2013    21      1       1.396565        210.0625
2013    21      2       1.346097        207.0375
2013    21      3       1.288826        202.8713
2013    21      4       1.213029        197.1863
2013    21      5       1.166047        194.1801
2013    21      6       1.2984          205.5461
2013    21      7       1.274912        203.9109
2013    22      0       1.394028        212.7211
2013    22      1       1.579452        224.1713
2013    22      2       1.47364         217.6569
2013    22      3       1.33062         207.2815
2013    22      4       1.249716        201.3981
2013    22      5       1.194861        197.5715
2013    22      6       1.342752        208.772
2013    22      7       1.276659        203.7797
2013    23      0       1.218023        198.8189
2013    23      1       1.422025        213.7058
2013    23      2       1.32391         207.1795
2013    23      3       1.211084        198.2512
2013    23      4       1.030604        182.2534
2013    23      5       1.037711        182.9491
2013    23      6       1.261137        201.7468
2013    23      7       1.093245        186.7013
2013    24      0       0.7128616       144.1434
2013    24      1       0.5515516       120.4833
2013    24      2       0.5488249       119.4028
2013    24      3       0.6000907       127.1374
2013    24      4       0.5991872       127.0697
2013    24      5       0.6753198       138.1204
2013    24      6       0.863481        162.3884
2013    24      7       0.8032458       155.2151
2013    25      0       0.671695        137.4189
2013    25      1       0.5583648       119.9142
2013    25      2       0.5458054       117.7824
2013    25      3       0.5405242       116.9186
2013    25      4       0.5349361       116.2524
2013    25      5       0.6841195       139.3799
2013    25      6       0.7556995       149.2474
2013    25      7       0.6617599       136.8292
2013    26      0       0.4539537       104.1819
2013    26      1       0.3588058       86.72219
2013    26      2       0.4271583       98.84338
2013    26      3       0.5315527       116.1103
2013    26      4       0.5072454       112.0193
2013    26      5       0.6377889       132.1609
2013    26      6       0.7096277       142.5167
2013    26      7       0.6560448       135.2295
2013    27      0       0.4535512       103.9329
2013    27      1       0.2821593       71.46734
2013    27      2       0.2830721       71.85295
2013    27      3       0.3362571       82.58679
2013    27      4       0.3527082       85.70104
2013    27      5       0.3980183       94.33006
2013    27      6       0.5385811       118.839
2013    27      7       0.4895232       110.8576
2013    28      0       0.3675441       88.97757
2013    28      1       0.296353        74.77968
2013    28      2       0.2979961       74.80844
2013    28      3       0.3011178       75.20892
2013    28      4       0.3386007       82.68058
2013    28      5       0.4676773       106.6503
2013    28      6       0.6462138       134.8977
2013    28      7       0.6393398       133.9233
2013    29      0       0.5100679       114.0831
2013    29      1       0.3410277       83.31905
2013    29      2       0.3734336       89.28595
2013    29      3       0.3565944       86.02053
2013    29      4       0.3524951       85.54386
2013    29      5       0.4198798       98.38667
2013    29      6       0.5327104       117.6984
2013    29      7       0.4920992       111.1854
2013    30      0       0.3832357       92.38239
2013    30      1       0.2974013       75.84441
2013    30      2       0.3289873       82.21057
2013    30      3       0.3101999       78.29933
2013    30      4       0.2654647       69.03442
2013    30      5       0.3030791       76.88851
2013    30      6       0.4455586       103.8381
2013    30      7       0.4725238       108.7202
2014    1       0       0.6680938       134.7638
2014    1       1       0.6318221       129.0873
2014    1       2       0.6834418       135.4677
2014    1       3       0.7896436       148.4483
2014    1       4       0.8802055       158.3304
2014    1       5       0.9810389       169.526
2014    1       6       1.006377        173.0932
2014    1       7       0.9659826       169.5836
2014    2       0       0.8693309       159.6471
2014    2       1       0.8413656       156.1988
2014    2       2       0.8349388       155.83
2014    2       3       0.9211644       164.4474
2014    2       4       0.9035013       161.7709
2014    2       5       0.9480441       166.1249
2014    2       6       1.174037        188.3145
2014    2       7       1.07128         178.5767
2014    3       0       1.02334         173.882
2014    3       1       0.9925832       169.9985
2014    3       2       0.9799644       168.4793
2014    3       3       0.8511793       155.531
2014    3       4       0.6755402       134.9521
2014    3       5       0.6785157       136.6708
2014    3       6       0.7399335       145.4891
2014    3       7       0.7504738       147.1788
2014    4       0       0.711137        142.1807
2014    4       1       0.6505671       133.8986
2014    4       2       0.5821718       123.8472
2014    4       3       0.4791833       107.4256
2014    4       4       0.4514497       102.7486
2014    4       5       0.5735356       122.6243
2014    4       6       0.6107837       128.3419
2014    4       7       0.5701785       122.5508
2014    5       0       0.4903246       109.9565
2014    5       1       0.4539568       103.6949
2014    5       2       0.418901        97.43227
2014    5       3       0.3813967       90.50571
2014    5       4       0.3743663       89.05253
2014    5       5       0.4399498       100.7178
2014    5       6       0.4556019       104.0687
2014    5       7       0.4465019       102.9458
2014    6       0       0.4443031       101.7601
2014    6       1       0.3948061       91.91972
2014    6       2       0.3810205       89.54081
2014    6       3       0.4108453       93.82445
2014    6       4       0.3765279       88.05974
2014    6       5       0.3778278       88.41268
2014    6       6       0.4821995       106.7631
2014    6       7       0.5253089       114.207
2014    7       0       0.50012         110.5017
2014    7       1       0.4333872       98.46331
2014    7       2       0.4081309       94.01488
2014    7       3       0.3989132       92.27721
2014    7       4       0.3656885       86.14677
2014    7       5       0.3269936       79.70843
2014    7       6       0.3897037       92.04814
2014    7       7       0.4127695       96.44357
2014    8       0       0.3774692       89.85466
2014    8       1       0.3333887       81.41211
2014    8       2       0.3047921       75.88024
2014    8       3       0.2979418       74.27225
2014    8       4       0.3027674       75.5332
2014    8       5       0.3442456       84.04132
2014    8       6       0.3963027       94.44533
2014    8       7       0.4219888       99.30005
2014    9       0       0.4000462       95.08658
2014    9       1       0.3953788       93.84818
2014    9       2       0.3718252       89.23217
2014    9       3       0.3496208       84.72961
2014    9       4       0.3908228       92.54344
2014    9       5       0.4693889       107.0003
2014    9       6       0.5771596       124.9163
2014    9       7       0.5845238       126.3384
2014    10      0       0.5249117       116.6915
2014    10      1       0.4823125       109.0094
2014    10      2       0.5324974       116.4179
2014    10      3       0.5825296       123.8111
2014    10      4       0.5619873       120.1547
2014    10      5       0.5912746       126.2006
2014    10      6       0.6635381       137.8098
2014    10      7       0.5920998       127.5766
2014    11      0       0.4308027       101.6649
2014    11      1       0.3292213       82.77792
2014    11      2       0.3755403       91.16421
2014    11      3       0.4363236       101.4102
2014    11      4       0.4130666       96.45965
2014    11      5       0.5592337       119.7573
2014    11      6       0.7748041       149.4133
2014    11      7       0.7710511       149.8224
2014    12      0       0.6028246       127.7757
2014    12      1       0.5449994       117.8586
2014    12      2       0.6200094       129.2045
2014    12      3       0.592483        125.059
2014    12      4       0.4927421       109.2444
2014    12      5       0.4491359       103.1025
2014    12      6       0.6620097       136.8279
2014    12      7       0.7466501       148.0834
2014    13      0       0.5795946       124.7435
2014    13      1       0.3905902       92.7733
2014    13      2       0.3086472       77.38929
2014    13      3       0.2581927       67.08903
2014    13      4       0.2173561       58.78736
2014    13      5       0.2547488       66.99614
2014    13      6       0.4386483       102.785
2014    13      7       0.5357757       118.6609
2014    14      0       0.6709716       138.3002
2014    14      1       0.7572975       149.6158
2014    14      2       0.8626402       162.2949
2014    14      3       0.8839773       164.7713
2014    14      4       0.7849787       153.3942
2014    14      5       0.7647081       151.5333
2014    14      6       0.9830039       176.5269
2014    14      7       1.094957        186.5454
2014    15      0       1.107951        187.2835
2014    15      1       1.236843        198.1727
2014    15      2       1.362758        207.0245
2014    15      3       1.210679        195.5342
2014    15      4       0.9651931       172.9087
2014    15      5       0.9550663       172.4544
2014    15      6       1.233982        198.5656
2014    15      7       1.359354        207.2234
2014    16      0       1.450513        213.5006
2014    16      1       1.403462        210.9026
2014    16      2       1.270719        201.9976
2014    16      3       1.189614        195.7535
2014    16      4       1.084778        186.8184
2014    16      5       1.069626        185.6302
2014    16      6       1.202331        196.8495
2014    16      7       1.097426        187.83
2014    17      0       1.177816        195.0919
2014    17      1       1.339448        207.9
2014    17      2       1.29616         204.9546
2014    17      3       1.114085        189.6509
2014    17      4       0.9409688       172.3245
2014    17      5       0.86716         163.6423
2014    17      6       0.8463384       161.1819
2014    17      7       0.7774347       152.6771
2014    18      0       0.7351782       147.2246
2014    18      1       0.5813285       125.4365
2014    18      2       0.5856573       125.798
2014    18      3       0.5948302       126.811
2014    18      4       0.5653947       122.0451
2014    18      5       0.6717885       137.453
2014    18      6       0.8377916       158.8476
2014    18      7       0.9254471       168.6305
2014    19      0       0.7946916       153.8031
2014    19      1       0.6618028       136.0204
2014    19      2       0.6694197       136.6317
2014    19      3       0.7189644       142.6419
2014    19      4       0.7380425       144.862
2014    19      5       0.8338481       157.0508
2014    19      6       0.927697        167.9574
2014    19      7       0.8598353       160.2504
2014    20      0       0.7903015       151.3719
2014    20      1       0.8276726       154.8703
2014    20      2       0.8888873       161.2781
2014    20      3       0.8748618       159.4564
2014    20      4       0.7177885       141.7713
2014    20      5       0.6470568       133.5009
2014    20      6       0.6941342       140.5091
2014    20      7       0.6497102       134.3066
2014    21      0       0.5026837       112.3099
2014    21      1       0.3633739       87.85056
2014    21      2       0.3308093       81.79876
2014    21      3       0.2726523       70.25278
2014    21      4       0.2212855       59.38377
2014    21      5       0.2691835       69.59683
2014    21      6       0.3539576       86.6344
2014    21      7       0.3814051       91.46772
2014    22      0       0.3419814       83.72179
2014    22      1       0.3410455       82.87043
2014    22      2       0.3782216       89.07581
2014    22      3       0.3821463       89.14067
2014    22      4       0.4025503       93.04585
2014    22      5       0.465327        105.3285
2014    22      6       0.673837        138.7344
2014    22      7       0.7225314       145.8568
2014    23      0       0.6525479       136.2882
2014    23      1       0.5649075       122.8058
2014    23      2       0.4955044       111.1183
2014    23      3       0.4935527       110.0256
2014    23      4       0.514407        113.2419
2014    23      5       0.6316342       131.5613
2014    23      6       0.7524802       148.5911
2014    23      7       0.7409984       147.1852
2014    24      0       0.6285538       131.0219
2014    24      1       0.6035743       126.0366
2014    24      2       0.5083288       110.3587
2014    24      3       0.4797026       105.4856
2014    24      4       0.5184596       111.2109
2014    24      5       0.6628651       132.8197
2014    24      6       0.8010484       151.8724
2014    24      7       0.7587204       147.2778
2014    25      0       0.5679807       120.5886
2014    25      1       0.4482179       100.7041
2014    25      2       0.4287942       97.70683
2014    25      3       0.4618419       103.5379
2014    25      4       0.5511892       118.1893
2014    25      5       0.6734377       136.9218
2014    25      6       0.7832883       151.9547
2014    25      7       0.717091        143.812
2014    26      0       0.5652504       122.4118
2014    26      1       0.4030417       95.11702
2014    26      2       0.3756381       90.44139
2014    26      3       0.3693106       89.34056
2014    26      4       0.3649703       88.5551
2014    26      5       0.4619884       105.9544
2014    26      6       0.608236        129.9931
2014    26      7       0.6407262       135.1027
2014    27      0       0.5746346       125.3024
2014    27      1       0.476681        109.5232
2014    27      2       0.4791901       109.7538
2014    27      3       0.4360854       102.0055
2014    27      4       0.3990228       95.37823
2014    27      5       0.5039555       113.5642
2014    27      6       0.7040587       143.8693
2014    27      7       0.7324362       147.715
2014    28      0       0.6478019       135.7564
2014    28      1       0.570867        123.6941
2014    28      2       0.48084         108.9947
2014    28      3       0.5019976       110.9304
2014    28      4       0.6625956       134.0563
2014    28      5       0.8152675       154.6204
2014    28      6       0.9427627       168.5772
2014    28      7       0.7925733       151.7196
2014    29      0       0.5773189       123.4514
2014    29      1       0.4626172       104.7553
2014    29      2       0.531584        115.1343
2014    29      3       0.6462543       131.2483
2014    29      4       0.8147065       152.4067
2014    29      5       1.087825        179.7381
2014    29      6       1.276073        195.2545
2014    29      7       1.139457        184.8095
2014    30      0       0.9941966       171.4906
2014    30      1       0.8183995       152.7901
2014    30      2       0.6736556       136.1232
2014    30      3       0.5856513       124.2842
2014    30      4       0.471322        106.4841
2014    30      5       0.5100043       113.2256
2014    30      6       0.517922        114.8079
2014    30      7       0.4218821       98.84749
2015    1       0       0.6808493       136.8484
2015    1       1       0.6633508       133.7884
2015    1       2       0.8100109       152.7491
2015    1       3       0.9886491       171.9598
2015    1       4       0.9840212       171.5939
2015    1       5       1.030209        176.5057
2015    1       6       1.112042        184.041
2015    1       7       0.9879957       172.2464
2015    2       0       0.7358911       144.1348
2015    2       1       0.5275488       114.2854
2015    2       2       0.6097131       126.4448
2015    2       3       0.7205195       141.2904
2015    2       4       0.8669384       158.586
2015    2       5       0.8393719       155.4561
2015    2       6       0.8982403       162.8232
2015    2       7       0.9074305       164.2189
2015    3       0       0.776751        149.1851
2015    3       1       0.610165        126.821
2015    3       2       0.7211818       142.04
2015    3       3       0.9298932       166.1936
2015    3       4       1.012375        174.1547
2015    3       5       1.027229        175.7898
2015    3       6       1.0176          175.1968
2015    3       7       1.004012        173.6754
2015    4       0       0.8790444       161.3386
2015    4       1       0.8760649       161.091
2015    4       2       0.9416716       167.5284
2015    4       3       0.858515        158.2739
2015    4       4       0.6040236       125.923
2015    4       5       0.5863343       123.583
2015    4       6       0.6567917       134.3113
2015    4       7       0.4894145       109.7185
2015    5       0       0.3033186       76.54904
2015    5       1       0.1715152       48.45005
2015    5       2       0.126003        37.68002
2015    5       3       0.1104685       33.81928
2015    5       4       0.117886        35.43195
2015    5       5       0.1916882       52.50212
2015    5       6       0.2783724       71.09222
2015    5       7       0.3214247       79.54652
2015    6       0       0.2587584       66.38836
2015    6       1       0.2244683       58.62715
2015    6       2       0.220086        57.81042
2015    6       3       0.2174565       57.26881
2015    6       4       0.2269094       59.41686
2015    6       5       0.3324157       81.02445
2015    6       6       0.4986732       110.6285
2015    6       7       0.5757754       122.6481
2015    7       0       0.5096737       112.3567
2015    7       1       0.446159        101.5356
2015    7       2       0.4679484       104.7784
2015    7       3       0.532721        114.9094
2015    7       4       0.6167675       128.1644
2015    7       5       0.5701631       121.7824
2015    7       6       0.6727154       137.2173
2015    7       7       0.740179        146.2012
2015    8       0       0.6292774       131.3821
2015    8       1       0.4927523       110.1956
2015    8       2       0.4971027       109.8639
2015    8       3       0.531733        114.9117
2015    8       4       0.5870585       122.2659
2015    8       5       0.6510223       131.9845
2015    8       6       0.7456267       146.4523
2015    8       7       0.6994315       140.932
2015    9       0       0.5315506       116.2846
2015    9       1       0.4452554       101.1103
2015    9       2       0.4354813       98.97788
2015    9       3       0.4806954       106.8709
2015    9       4       0.5442109       117.2212
2015    9       5       0.7016734       140.3829
2015    9       6       0.8122856       155.1616
2015    9       7       0.752024        148.3642
2015    10      0       0.5417289       118.627
2015    10      1       0.3975796       94.0197
2015    10      2       0.5085433       112.9828
2015    10      3       0.6867929       138.9765
2015    10      4       0.8011231       153.5394
2015    10      5       0.8054322       154.2013
2015    10      6       0.7687655       150.4709
2015    10      7       0.7013575       141.7576
2015    11      0       0.4516998       103.9024
2015    11      1       0.3554091       86.16992
2015    11      2       0.414113        96.46188
2015    11      3       0.4762089       106.5019
2015    11      4       0.5102036       111.7412
2015    11      5       0.6486474       132.9399
2015    11      6       0.7263379       143.9134
2015    11      7       0.5697861       122.2234
2015    12      0       0.3227673       80.06231
2015    12      1       0.2093988       56.83019
2015    12      2       0.2390263       63.19522
2015    12      3       0.2128358       57.55946
2015    12      4       0.1622641       46.2221
2015    12      5       0.2464353       64.94422
2015    12      6       0.3096129       78.1212
2015    12      7       0.3302135       82.27553
2015    13      0       0.2617915       68.61704
2015    13      1       0.2185678       59.46828
2015    13      2       0.2112637       57.99258
2015    13      3       0.2146366       58.75065
2015    13      4       0.2416906       64.57036
2015    13      5       0.3132578       79.3135
2015    13      6       0.4355948       102.5865
2015    13      7       0.4031396       96.80285
2015    14      0       0.3319781       83.54907
2015    14      1       0.3272598       82.60254
2015    14      2       0.3406773       85.09874
2015    14      3       0.2997025       76.69526
2015    14      4       0.3577712       87.65161
2015    14      5       0.4444823       103.2723
2015    14      6       0.636363        134.2003
2015    14      7       0.6927131       142.0365
2015    15      0       0.5257436       116.8256
2015    15      1       0.411844        96.7556
2015    15      2       0.3677347       89.42942
2015    15      3       0.3737573       90.30391
2015    15      4       0.3667744       88.72402
2015    15      5       0.4228637       98.54973
2015    15      6       0.6072232       129.3531
2015    15      7       0.6391195       133.9412
2015    16      0       0.4320529       100.2974
2015    16      1       0.4035428       94.37979
2015    16      2       0.4475382       102.6635
2015    16      3       0.4744011       106.7103
2015    16      4       0.5015504       110.8589
2015    16      5       0.664224        135.2881
2015    16      6       0.901615        164.6331
2015    16      7       0.980384        171.6865
2015    17      0       0.9293175       165.6699
2015    17      1       0.9510341       165.6125
2015    17      2       0.9215111       163.3386
2015    17      3       0.9207364       164.0089
2015    17      4       0.9362669       165.9711
2015    17      5       0.9626097       169.1734
2015    17      6       1.161675        189.0329
2015    17      7       1.043895        178.5308
2015    18      0       0.8259012       155.7403
2015    18      1       0.6698182       135.7286
2015    18      2       0.8037716       152.8854
2015    18      3       0.8298397       155.6894
2015    18      4       0.8589403       159.0937
2015    18      5       0.9548404       169.9314
2015    18      6       1.019911        176.3873
2015    18      7       0.9708165       171.4577
2015    19      0       0.9274929       166.3812
2015    19      1       0.9272173       165.5033
2015    19      2       0.9017503       162.506
2015    19      3       0.5610738       119.7173
2015    19      4       0.2558235       66.68215
2015    19      5       0.2819235       71.91699
2015    19      6       0.3585538       86.80056
2015    19      7       0.402278        94.56174
2015    20      0       0.3784051       90.17123
2015    20      1       0.3548907       85.51884
2015    20      2       0.3839552       90.79265
2015    20      3       0.3702965       88.21507
2015    20      4       0.3197741       78.60576
2015    20      5       0.3672896       87.93423
2015    20      6       0.4595761       104.6032
2015    20      7       0.4500784       103.2981
2015    21      0       0.4001196       94.6605
2015    21      1       0.2975665       74.8139
2015    21      2       0.3232318       79.39028
2015    21      3       0.3467614       83.27647
2015    21      4       0.3889423       90.12417
2015    21      5       0.5059113       110.332
2015    21      6       0.578227        121.8638
2015    21      7       0.5837356       122.8418
2015    22      0       0.4715907       105.257
2015    22      1       0.3640088       85.97748
2015    22      2       0.3252369       78.71412
2015    22      3       0.3645676       86.11185
2015    22      4       0.4151818       94.88893
2015    22      5       0.5510307       117.2961
2015    22      6       0.5947555       124.7171
2015    22      7       0.5792048       123.2267
2015    23      0       0.478801        106.834
2015    23      1       0.4241562       97.07499
2015    23      2       0.4303685       98.55006
2015    23      3       0.4624319       103.9727
2015    23      4       0.5126101       112.1206
2015    23      5       0.6236421       129.6138
2015    23      6       0.7314742       144.7519
2015    23      7       0.7372178       145.6106
2015    24      0       0.6612557       134.9002
2015    24      1       0.594934        125.0586
2015    24      2       0.5938456       125.3302
2015    24      3       0.5906951       124.2924
2015    24      4       0.5973354       124.9918
2015    24      5       0.6407273       131.6743
2015    24      6       0.7400187       145.6455
2015    24      7       0.7188706       142.5451
2015    25      0       0.556512        118.3319
2015    25      1       0.7314387       140.0429
2015    25      2       0.6389096       131.4939
2015    25      3       0.5494438       118.6909
2015    25      4       0.5622686       120.7947
2015    25      5       0.7363201       145.8034
2015    25      6       0.8457724       159.7489
2015    25      7       0.8431806       159.6212
2015    26      0       0.6462896       134.27
2015    26      1       0.5045264       112.513
2015    26      2       0.6651534       136.8637
2015    26      3       0.6986018       140.8102
2015    26      4       0.6491202       133.3243
2015    26      5       0.7977174       153.0224
2015    26      6       0.7885773       152.4233
2015    26      7       0.6971126       141.2877
2015    27      0       0.5115477       114.2061
2015    27      1       0.2771277       71.45108
2015    27      2       0.2262175       60.51
2015    27      3       0.1966588       53.78367
2015    27      4       0.2011022       54.55691
2015    27      5       0.31361         78.08931
2015    27      6       0.4557445       104.3245
2015    27      7       0.4953324       110.8925
2015    28      0       0.4537724       103.9091
2015    28      1       0.3648684       87.76871
2015    28      2       0.3371132       82.78354
2015    28      3       0.315344        78.63633
2015    28      4       0.3277562       80.95362
2015    28      5       0.4036199       95.23472
2015    28      6       0.5369993       118.0114
2015    28      7       0.5659503       122.6578
2015    29      0       0.4658871       106.6975
2015    29      1       0.298427        75.57802
2015    29      2       0.2921171       74.2695
2015    29      3       0.2729082       70.15063
2015    29      4       0.269888        69.40855
2015    29      5       0.3341669       82.39649
2015    29      6       0.5169066       115.0774
2015    29      7       0.5761159       124.3533
2015    30      0       0.4277305       100.1775
2015    30      1       0.2884436       73.69489
2015    30      2       0.2902788       73.82615
2015    30      3       0.2676311       68.96052
2015    30      4       0.3077935       77.15899
2015    30      5       0.4020681       95.20973
2015    30      6       0.5904868       126.5546
2015    30      7       0.5965897       127.4158
2016    1       0       0.928719        164.3655
2016    1       1       0.8706074       156.6004
2016    1       2       0.8689067       156.9132
2016    1       3       0.5283141       113.8462
2016    1       4       0.3307541       79.88265
2016    1       5       0.3895182       91.3783
2016    1       6       0.4469492       101.9309
2016    1       7       0.3668773       88.10087
2016    2       0       0.3028681       75.95964
2016    2       1       0.2979019       73.80203
2016    2       2       0.3570116       84.05381
2016    2       3       0.3826136       87.67355
2016    2       4       0.4633295       101.7821
2016    2       5       0.5063692       110.5467
2016    2       6       0.638053        132.607
2016    2       7       0.7362236       146.7906
2016    3       0       0.6896446       140.6519
2016    3       1       0.6387607       133.7539
2016    3       2       0.5984465       127.6604
2016    3       3       0.5681879       122.753
2016    3       4       0.5427664       118.7801
2016    3       5       0.5011466       112.8489
2016    3       6       0.5696295       124.8612
2016    3       7       0.6336695       134.9278
2016    4       0       0.612593        131.915
2016    4       1       0.5558453       123.2889
2016    4       2       0.5045204       115.1331
2016    4       3       0.5292821       119.2292
2016    4       4       0.5073854       115.9608
2016    4       5       0.5689904       126.2427
2016    4       6       0.7793694       156.3061
2016    4       7       0.7123102       147.8275
2016    5       0       0.5982274       131.4509
2016    5       1       0.5952868       131.2339
2016    5       2       0.5531399       124.4912
2016    5       3       0.526214        119.5512
2016    5       4       0.3903257       95.18426
2016    5       5       0.3986159       96.52127
2016    5       6       0.5399117       121.5507
2016    5       7       0.5756302       127.2317
2016    6       0       0.5181424       117.9082
2016    6       1       0.5869398       126.7931
2016    6       2       0.6522274       135.9101
2016    6       3       0.5451307       120.46
2016    6       4       0.4270163       100.0163
2016    6       5       0.5002126       112.9241
2016    6       6       0.6852046       141.7421
2016    6       7       0.7967011       156.5614
2016    7       0       0.7250341       147.3667
2016    7       1       0.6697361       139.4812
2016    7       2       0.6558932       137.4369
2016    7       3       0.5142263       115.9523
2016    7       4       0.4194725       99.85276
2016    7       5       0.4489673       105.0052
2016    7       6       0.6189884       132.7968
2016    7       7       0.7099463       145.9301
2016    8       0       0.690533        143.6577
2016    8       1       0.5993378       130.326
2016    8       2       0.6137737       132.1412
2016    8       3       0.5562657       122.6795
2016    8       4       0.4513886       104.92
2016    8       5       0.5339319       118.7458
2016    8       6       0.6675594       139.0826
2016    8       7       0.6529742       137.171
2016    9       0       0.6090244       130.5594
2016    9       1       0.5033503       112.758
2016    9       2       0.5136314       114.2609
2016    9       3       0.4913715       110.3558
2016    9       4       0.4999286       112.0302
2016    9       5       0.5915871       127.5982
2016    9       6       0.7369271       148.9153
2016    9       7       0.7503456       150.9397
2016    10      0       0.6300755       134.3244
2016    10      1       0.5954322       129.1746
2016    10      2       0.6186026       132.425
2016    10      3       0.6537395       136.9295
2016    10      4       0.6759736       139.9551
2016    10      5       0.6853173       141.5156
2016    10      6       0.83869         161.9029
2016    10      7       0.9024499       169.4065
2016    11      0       0.8046842       157.7701
2016    11      1       0.7450626       150.0095
2016    11      2       0.8536203       163.2578
2016    11      3       0.9291626       171.3291
2016    11      4       0.7818456       153.6874
2016    11      5       0.7820566       153.6528
2016    11      6       1.006108        179.3104
2016    11      7       1.033273        182.0016
2016    12      0       0.9274124       170.8688
2016    12      1       0.8642235       163.6725
2016    12      2       0.8533204       162.5809
2016    12      3       0.7098964       144.1417
2016    12      4       0.8208478       157.9604
2016    12      5       0.8578165       162.2852
2016    12      6       0.9811555       175.7688
2016    12      7       1.051294        182.6572
2016    13      0       1.091147        186.0799
2016    13      1       1.142287        190.0478
2016    13      2       1.219198        195.8504
2016    13      3       1.282083        200.3484
2016    13      4       1.177491        191.9129
2016    13      5       1.081542        183.5991
2016    13      6       1.176028        191.8095
2016    13      7       1.124796        188.6648
2016    14      0       1.092803        185.282
2016    14      1       1.127822        187.4663
2016    14      2       1.138795        188.9177
2016    14      3       1.096056        185.2021
2016    14      4       1.054487        181.797
2016    14      5       1.179249        193.1239
2016    14      6       1.350298        206.5283
2016    14      7       1.403045        209.8177
2016    15      0       1.16882         192.6206
2016    15      1       1.061393        183.1745
2016    15      2       1.17755         192.8598
2016    15      3       1.07848         183.9785
2016    15      4       1.128946        188.0367
2016    15      5       1.213075        195.7558
2016    15      6       1.492204        215.5943
2016    15      7       1.555918        219.2427
2016    16      0       1.362403        207.6173
2016    16      1       1.383845        208.7875
2016    16      2       1.287693        201.8355
2016    16      3       0.923995        168.832
2016    16      4       0.9489434       171.3583
2016    16      5       0.9031283       166.2218
2016    16      6       1.061398        183.0249
2016    16      7       1.09723         186.1299
2016    17      0       0.9367671       170.1427
2016    17      1       0.85593         161.8734
2016    17      2       0.7687307       151.7157
2016    17      3       0.6643939       138.0691
2016    17      4       0.6163816       131.5087
2016    17      5       0.6707894       139.3895
2016    17      6       0.9041767       168.7247
2016    17      7       0.9704258       175.9491
2016    18      0       1.004867        180.1003
2016    18      1       1.063776        186.3326
2016    18      2       1.077157        187.336
2016    18      3       0.9211492       170.7754
2016    18      4       0.8362622       160.6066
2016    18      5       0.8968207       167.8498
2016    18      6       0.9774651       177.0581
2016    18      7       1.034202        182.1765
2016    19      0       0.7533901       150.1979
2016    19      1       0.5521623       120.6062
2016    19      2       0.552106        120.0697
2016    19      3       0.5882229       125.7504
2016    19      4       0.6853588       139.6922
2016    19      5       0.8214864       157.1046
2016    19      6       0.9085611       167.094
2016    19      7       0.8006281       154.3229
2016    20      0       0.6035735       127.9165
2016    20      1       0.3756066       89.26574
2016    20      2       0.3772462       88.78847
2016    20      3       0.4197323       96.25251
2016    20      4       0.3465678       83.81678
2016    20      5       0.4778029       107.663
2016    20      6       0.6438281       133.7071
2016    20      7       0.6611729       136.1552
2016    21      0       0.5436735       118.681
2016    21      1       0.4383535       101.0237
2016    21      2       0.4486883       102.4483
2016    21      3       0.487826        108.1624
2016    21      4       0.4885069       108.1995
2016    21      5       0.7429712       145.5645
2016    21      6       1.062965        181.1238
2016    21      7       0.9850835       173.7579
2016    22      0       0.8759804       162.0678
2016    22      1       0.6926407       139.4021
2016    22      2       0.6457657       132.8325
2016    22      3       0.7789935       150.532
2016    22      4       0.9727349       172.6671
2016    22      5       1.123669        187.1914
2016    22      6       1.100507        185.1242
2016    22      7       1.018721        177.4069
2016    23      0       0.8548687       160.0426
2016    23      1       0.8778463       162.3293
2016    23      2       0.9510955       169.3715
2016    23      3       0.9241879       165.9364
2016    23      4       0.9480101       167.6056
2016    23      5       1.074546        179.9538
2016    23      6       1.11408         183.9696
2016    23      7       0.9791892       171.9655
2016    24      0       0.7471028       146.0025
2016    24      1       0.5428947       117.0174
2016    24      2       0.4897232       108.4651
2016    24      3       0.4627306       103.9668
2016    24      4       0.4720947       105.9426
2016    24      5       0.5931562       125.7972
2016    24      6       0.7103221       142.7397
2016    24      7       0.6654144       136.9411
2016    25      0       0.532497        116.7873
2016    25      1       0.4478554       101.9597
2016    25      2       0.4376537       101.0716
2016    25      3       0.429094        99.35716
2016    25      4       0.4226134       98.22449
2016    25      5       0.6232439       130.7264
2016    25      6       0.7118717       143.0849
2016    25      7       0.6963297       140.9383
2016    26      0       0.6821884       138.6524
2016    26      1       0.4829491       107.6547
2016    26      2       0.4664781       104.3751
2016    26      3       0.4755678       106.2497
2016    26      4       0.4441998       101.4066
2016    26      5       0.5785707       123.6822
2016    26      6       0.7368354       146.1634
2016    26      7       0.7357541       145.9657
2016    27      0       0.5428377       117.9984
2016    27      1       0.4534942       102.9179
2016    27      2       0.4836466       108.0453
2016    27      3       0.4694107       105.6716
2016    27      4       0.4576284       104.0654
2016    27      5       0.5279892       116.3791
2016    27      6       0.6494582       134.8185
2016    27      7       0.6001521       127.8399
2016    28      0       0.4721412       107.8634
2016    28      1       0.3336603       82.51238
2016    28      2       0.3563448       86.84716
2016    28      3       0.3391769       83.48831
2016    28      4       0.3249852       80.78919
2016    28      5       0.4398741       102.3528
2016    28      6       0.630223        132.9801
2016    28      7       0.6669503       138.1957
2016    29      0       0.6054242       129.2678
2016    29      1       0.5424958       119.4664
2016    29      2       0.6750647       139.5744
2016    29      3       0.7961447       155.1127
2016    29      4       0.8317883       159.2485
2016    29      5       0.8801076       165.0718
2016    29      6       0.9917106       177.9081
2016    29      7       1.017655        180.6578
2016    30      0       0.877008        165.8716
2016    30      1       0.7380023       148.619
2016    30      2       0.7456452       149.1108
2016    30      3       0.7188063       145.1225
2016    30      4       0.6385757       134.2147
2016    30      5       0.6746031       139.8221
2016    30      6       0.7982506       156.4434
2016    30      7       0.797153        156.3221
2017    1       0       0.3591696       86.05905
2017    1       1       0.3000208       74.72589
2017    1       2       0.303677        75.55518
2017    1       3       0.3460775       83.67802
2017    1       4       0.3660004       87.22678
2017    1       5       0.4375732       99.54058
2017    1       6       0.5160186       112.3476
2017    1       7       0.5428577       116.2482
2017    2       0       0.59144         122.6785
2017    2       1       0.7365834       141.376
2017    2       2       0.9315225       163.0712
2017    2       3       1.177756        185.1576
2017    2       4       1.136876        183.1601
2017    2       5       0.9757935       171.209
2017    2       6       0.8538795       158.5586
2017    2       7       0.7817611       150.0966
2017    3       0       0.7920543       150.3036
2017    3       1       0.8006301       151.4252
2017    3       2       0.8638847       159.4715
2017    3       3       0.8593832       158.9274
2017    3       4       0.8283201       154.3893
2017    3       5       1.008122        170.1234
2017    3       6       0.7433813       143.5029
2017    3       7       0.7457768       144.176
2017    4       0       0.6552831       132.5605
2017    4       1       0.5749662       121.6473
2017    4       2       0.8994279       160.965
2017    4       3       1.151159        183.7856
2017    4       4       1.278866        192.8206
2017    4       5       1.614616        215.3738
2017    4       6       1.399606        205.4461
2017    4       7       1.361452        204.0044
2017    5       0       1.212639        194.0394
2017    5       1       1.104467        184.6806
2017    5       2       1.056204        180.0121
2017    5       3       1.249205        196.6739
2017    5       4       1.46511         212.4173
2017    5       5       1.443305        212.2743
2017    5       6       1.407555        210.7758
2017    5       7       1.421763        212.1226
2017    6       0       1.446016        212.8971
2017    6       1       1.330804        205.4257
2017    6       2       1.459888        213.9861
2017    6       3       1.501312        216.3808
2017    6       4       1.560467        219.7235
2017    6       5       1.603722        221.8046
2017    6       6       1.548243        218.7069
2017    6       7       1.512845        216.5311
2017    7       0       1.312149        202.6887
2017    7       1       1.100594        186.0137
2017    7       2       0.799588        154.6549
2017    7       3       0.8322029       157.0929
2017    7       4       0.9360839       167.855
2017    7       5       0.9909616       173.8335
2017    7       6       1.065636        181.8028
2017    7       7       0.9686359       171.4944
2017    8       0       0.8242056       153.8235
2017    8       1       0.8541079       155.9803
2017    8       2       0.9411627       165.8676
2017    8       3       1.085694        179.5008
2017    8       4       1.163597        186.425
2017    8       5       1.31944         200.0863
2017    8       6       1.421173        208.8959
2017    8       7       1.41594         209.571
2017    9       0       1.381031        207.4447
2017    9       1       1.49708         214.9885
2017    9       2       1.474711        214.0581
2017    9       3       1.46098         213.5552
2017    9       4       1.45734         213.2964
2017    9       5       1.447869        213.0571
2017    9       6       1.302858        203.1771
2017    9       7       0.7009652       142.9988
2017    10      0       0.3939691       94.79688
2017    10      1       0.3408831       84.5802
2017    10      2       0.3493867       86.36133
2017    10      3       0.3340156       83.45714
2017    10      4       0.2985873       76.2051
2017    10      5       0.3498016       86.06246
2017    10      6       0.3571911       87.87724
2017    10      7       0.3181391       80.40194
2017    11      0       0.3052958       77.63218
2017    11      1       0.2691884       70.17253
2017    11      2       0.2550256       67.19019
2017    11      3       0.2789862       72.40862
2017    11      4       0.3396968       84.63832
2017    11      5       0.3589549       88.63393
2017    11      6       0.3745752       91.88087
2017    11      7       0.4165046       99.82934
2017    12      0       0.4901583       112.5732
2017    12      1       0.6825431       142.222
2017    12      2       0.7624371       153.0647
2017    12      3       0.594817        129.6848
2017    12      4       0.4303353       102.2885
2017    12      5       0.3497507       86.86208
2017    12      6       0.3876819       94.03415
2017    12      7       0.3423534       85.40894
2017    13      0       0.2242728       60.93573
2017    13      1       0.1957168       54.68692
2017    13      2       0.175872        49.93017
2017    13      3       0.1857682       51.9856
2017    13      4       0.1631637       46.53983
2017    13      5       0.2494211       65.58986
2017    13      6       0.3414698       84.03856
2017    13      7       0.41466         97.39624
2017    14      0       0.4205766       98.21989
2017    14      1       0.4396396       101.9105
2017    14      2       0.4368584       101.4585
2017    14      3       0.51797         114.5866
2017    14      4       0.5527147       120.3314
2017    14      5       0.5766587       124.9102
2017    14      6       0.6468735       136.0749
2017    14      7       0.6699151       139.3987
2017    15      0       0.566381        123.9508
2017    15      1       0.5014551       113.2547
2017    15      2       0.5047207       113.2137
2017    15      3       0.462617        105.8407
2017    15      4       0.4023889       95.43034
2017    15      5       0.4154916       98.16555
2017    15      6       0.4184443       98.91869
2017    15      7       0.3912131       93.96867
2017    16      0       0.3191867       79.55554
2017    16      1       0.2830447       71.83724
2017    16      2       0.2745623       69.69086
2017    16      3       0.3498176       83.68289
2017    16      4       0.2552897       65.50759
2017    16      5       0.2025136       55.11545
2017    16      6       0.2519533       66.45428
2017    16      7       0.2644893       69.24027
2017    17      0       0.2121927       58.07986
2017    17      1       0.2085366       56.06686
2017    17      2       0.2459247       64.03332
2017    17      3       0.2863748       72.67058
2017    17      4       0.4164989       96.74329
2017    17      5       0.5000548       111.6182
2017    17      6       0.5690016       123.2737
2017    17      7       0.6933982       140.3581
2017    18      0       0.6624963       134.6605
2017    18      1       0.5450812       117.8012
2017    18      2       0.5684506       120.6625
2017    18      3       0.6812192       135.9567
2017    18      4       0.7077074       140.211
2017    18      5       0.7427251       145.2695
2017    18      6       0.934492        168.5335
2017    18      7       0.9732967       173.0199
2017    19      0       0.8228542       156.636
2017    19      1       0.787915        152.2917
2017    19      2       0.7051099       142.0513
2017    19      3       0.6870852       139.4167
2017    19      4       0.6807573       138.6234
2017    19      5       0.7244036       144.6609
2017    19      6       0.8364618       159.041
2017    19      7       0.7772738       152.1444
2017    20      0       0.6296777       132.0722
2017    20      1       0.6310728       131.8291
2017    20      2       0.6100584       128.1128
2017    20      3       0.5283495       115.3929
2017    20      4       0.5003261       111.1035
2017    20      5       0.5774978       123.3308
2017    20      6       0.6186506       129.6021
2017    20      7       0.5762538       123.4814
2017    21      0       0.4685438       106.5677
2017    21      1       0.3698937       89.1093
2017    21      2       0.3567136       86.56493
2017    21      3       0.3122524       78.00317
2017    21      4       0.2736766       70.37656
2017    21      5       0.3585074       87.19545
2017    21      6       0.3977298       94.72657
2017    21      7       0.3678526       89.28981
2017    22      0       0.2350491       62.57544
2017    22      1       0.2174031       58.80586
2017    22      2       0.1827557       51.32063
2017    22      3       0.1616255       46.36985
2017    22      4       0.17833         50.10999
2017    22      5       0.268364        69.91893
2017    22      6       0.4121979       98.368
2017    22      7       0.4216472       100.3104
2017    23      0       0.3694638       90.42392
2017    23      1       0.325781        81.91833
2017    23      2       0.2937694       75.4881
2017    23      3       0.2984019       76.30454
2017    23      4       0.3615892       88.57965
2017    23      5       0.41639         98.9476
2017    23      6       0.4416595       103.5122
2017    23      7       0.433156        102.2505
2017    24      0       0.3417388       85.15566
2017    24      1       0.2595277       68.25343
2017    24      2       0.2590459       67.79507
2017    24      3       0.2849851       72.89976
2017    24      4       0.3050972       76.51858
2017    24      5       0.3890202       92.43636
2017    24      6       0.4059414       95.7313
2017    24      7       0.3412105       84.18435
2017    25      0       0.2107566       57.52356
2017    25      1       0.1481739       43.17275
2017    25      2       0.1320646       39.46544
2017    25      3       0.1241889       37.35466
2017    25      4       0.126544        37.99288
2017    25      5       0.1619598       46.69081
2017    25      6       0.2857355       74.27244
2017    25      7       0.3012815       77.35144
2017    26      0       0.2260983       61.42022
2017    26      1       0.2625899       69.18937
2017    26      2       0.2549307       67.56513
2017    26      3       0.2808369       72.71645
2017    26      4       0.3023584       76.91169
2017    26      5       0.3281327       81.94098
2017    26      6       0.3508679       86.42148
2017    26      7       0.335206        83.17834
2017    27      0       0.2808922       72.32217
2017    27      1       0.2573213       67.28184
2017    27      2       0.2459721       64.73875
2017    27      3       0.2517321       65.79036
2017    27      4       0.235309        62.31539
2017    27      5       0.2869744       73.35559
2017    27      6       0.3721395       90.14323
2017    27      7       0.3731391       90.26737
2017    28      0       0.3070529       77.26765
2017    28      1       0.2785053       71.37356
2017    28      2       0.2873011       73.37948
2017    28      3       0.2760386       70.85064
2017    28      4       0.2636697       68.1247
2017    28      5       0.3138646       78.5437
2017    28      6       0.3254319       80.99938
2017    28      7       0.3215373       80.16509
2017    29      0       0.3075437       77.05713
2017    29      1       0.3454149       84.22269
2017    29      2       0.3704811       88.85265
2017    29      3       0.3748463       89.82986
2017    29      4       0.3411501       84.28056
2017    29      5       0.3694823       90.08223
2017    29      6       0.3600431       88.5211
2017    29      7       0.3568944       87.9411
2017    30      0       0.3326618       82.91944
2017    30      1       0.3539674       86.46801
2017    30      2       0.3573698       87.25506
2017    30      3       0.3508575       85.90483
2017    30      4       0.3531789       86.22829
2017    30      5       0.3975158       94.81562
2017    30      6       0.4414053       102.6754
2017    30      7       0.4334142       101.4705
2018    1       0       0.8345861       157.3492
2018    1       1       0.9289589       167.051
2018    1       2       1.04066         177.9664
2018    1       3       1.04556         178.5551
2018    1       4       1.094047        183.1943
2018    1       5       1.186912        191.9324
2018    1       6       1.316635        203.1443
2018    1       7       1.449454        213.3095
2018    2       0       1.500712        216.8801
2018    2       1       1.373109        208.8101
2018    2       2       1.496722        216.2774
2018    2       3       1.714879        227.8604
2018    2       4       1.887998        235.9668
2018    2       5       1.695595        228.0147
2018    2       6       1.411892        212.6001
2018    2       7       1.300056        204.8266
2018    3       0       1.037404        182.1888
2018    3       1       0.8011748       156.1901
2018    3       2       0.680759        140.1316
2018    3       3       0.5322426       117.8614
2018    3       4       0.4138571       97.62943
2018    3       5       0.4459993       103.5084
2018    3       6       0.4760333       108.7504
2018    3       7       0.4457723       103.5149
2018    4       0       0.3347792       82.59713
2018    4       1       0.3186379       79.16485
2018    4       2       0.3339447       81.90104
2018    4       3       0.3374289       82.49009
2018    4       4       0.3752675       89.82008
2018    4       5       0.4482912       103.1559
2018    4       6       0.4621889       105.7792
2018    4       7       0.441005        102.3158
2018    5       0       0.370762        89.70133
2018    5       1       0.3404202       84.04457
2018    5       2       0.3335124       82.53614
2018    5       3       0.3047076       76.826
2018    5       4       0.3019713       76.31737
2018    5       5       0.3397197       83.85543
2018    5       6       0.4649908       106.8999
2018    5       7       0.4953294       112.2968
2018    6       0       0.3642962       88.90308
2018    6       1       0.3490568       85.76587
2018    6       2       0.3547504       86.55028
2018    6       3       0.3121781       78.03595
2018    6       4       0.3386247       83.11684
2018    6       5       0.4043331       95.4459
2018    6       6       0.5066648       113.5869
2018    6       7       0.5493492       120.8633
2018    7       0       0.494995        111.8949
2018    7       1       0.5538344       121.902
2018    7       2       0.7141233       146.2795
2018    7       3       0.7164002       146.7643
2018    7       4       0.687101        143.0757
2018    7       5       0.6860071       142.9581
2018    7       6       0.6045194       131.0337
2018    7       7       0.459248        107.1435
2018    8       0       0.3618311       89.15914
2018    8       1       0.2772111       72.45332
2018    8       2       0.228687        61.49387
2018    8       3       0.2730525       70.50395
2018    8       4       0.3319505       82.48617
2018    8       5       0.4088678       96.63415
2018    8       6       0.4789312       109.5109
2018    8       7       0.383851        92.52652
2018    9       0       0.3372496       83.71202
2018    9       1       0.2856092       73.49854
2018    9       2       0.2399135       63.23821
2018    9       3       0.242395        63.62375
2018    9       4       0.2610004       67.09529
2018    9       5       0.3520402       85.43977
2018    9       6       0.4552702       104.9567
2018    9       7       0.4122158       97.36988
2018    10      0       0.3203304       79.4718
2018    10      1       0.2943397       73.82629
2018    10      2       0.3196177       78.80649
2018    10      3       0.3327521       81.42741
2018    10      4       0.3479434       84.40513
2018    10      5       0.4331806       100.3086
2018    10      6       0.5051229       112.7891
2018    10      7       0.5180473       114.9175
2018    11      0       0.4340902       100.2495
2018    11      1       0.397965        93.34146
2018    11      2       0.4144196       96.15241
2018    11      3       0.4594094       103.651
2018    11      4       0.4425375       101.374
2018    11      5       0.5124411       113.298
2018    11      6       0.4592842       104.3991
2018    11      7       0.4246252       98.36812
2018    12      0       0.3608982       86.3776
2018    12      1       0.3961351       92.91236
2018    12      2       0.463349        104.5535
2018    12      3       0.4183886       96.3918
2018    12      4       0.3705719       87.8846
2018    12      5       0.4208782       96.9579
2018    12      6       0.4080619       94.75506
2018    12      7       0.291646        73.31495
2018    13      0       0.2501303       64.57632
2018    13      1       0.2172285       57.44358
2018    13      2       0.2275723       59.50639
2018    13      3       0.2112934       56.23263
2018    13      4       0.2150274       56.97574
2018    13      5       0.2554171       65.51689
2018    13      6       0.3369248       81.60397
2018    13      7       0.3331196       80.52414
2018    14      0       0.2678836       67.42304
2018    14      1       0.242505        62.168
2018    14      2       0.2607549       65.8981
2018    14      3       0.2959061       72.91026
2018    14      4       0.3930169       91.38641
2018    14      5       0.459592        104.3975
2018    14      6       0.4962081       111.5233
2018    14      7       0.6019908       127.3478
2018    15      0       0.6794646       138.9702
2018    15      1       0.6384989       132.4873
2018    15      2       0.8082833       154.1374
2018    15      3       1.063464        181.0455
2018    15      4       1.158094        190.068
2018    15      5       1.226208        196.5227
2018    15      6       1.256689        200.2578
2018    15      7       1.096547        187.7074
2018    16      0       0.9747844       176.3341
2018    16      1       0.8332354       160.7469
2018    16      2       0.7614732       151.5906
2018    16      3       0.7587864       150.6939
2018    16      4       0.7446308       148.5077
2018    16      5       0.8276054       158.5967
2018    16      6       0.8544876       161.7937
2018    16      7       0.8122444       156.7391
2018    17      0       0.8177854       156.7952
2018    17      1       0.7450128       146.7534
2018    17      2       0.6362723       131.6721
2018    17      3       0.4679261       106.6544
2018    17      4       0.4225297       99.20106
2018    17      5       0.5219129       116.3248
2018    17      6       0.5820555       125.6016
2018    17      7       0.4693692       106.1109
2018    18      0       0.436099        99.48998
2018    18      1       0.4411691       100.3825
2018    18      2       0.4209286       97.59394
2018    18      3       0.3906555       93.0024
2018    18      4       0.4105429       96.65812
2018    18      5       0.4774676       108.9299
2018    18      6       0.5244739       117.4272
2018    18      7       0.4650046       107.6018
2018    19      0       0.380083        92.26594
2018    19      1       0.3772853       91.77985
2018    19      2       0.3923694       94.44567
2018    19      3       0.421601        99.49552
2018    19      4       0.4368644       102.3418
2018    19      5       0.4813593       110.2222
2018    19      6       0.5551222       122.6052
2018    19      7       0.5739202       125.8646
2018    20      0       0.5203634       117.5901
2018    20      1       0.5084963       115.5927
2018    20      2       0.5357205       119.8795
2018    20      3       0.5706314       125.2561
2018    20      4       0.4659873       108.058
2018    20      5       0.4349656       102.5184
2018    20      6       0.4807082       110.8664
2018    20      7       0.4834507       111.6441
2018    21      0       0.4357011       103.3497
2018    21      1       0.4120221       98.94267
2018    21      2       0.4362415       103.1752
2018    21      3       0.5382758       120.3914
2018    21      4       0.6294142       134.3568
2018    21      5       0.6613369       139.0498
2018    21      6       0.7436922       150.7158
2018    21      7       0.6708521       140.7265
2018    22      0       0.6282371       134.3905
2018    22      1       0.5824326       127.2012
2018    22      2       0.6142735       131.5173
2018    22      3       0.6112381       130.7722
2018    22      4       0.5919067       128.2068
2018    22      5       0.6486473       136.659
2018    22      6       0.7034264       144.6698
2018    22      7       0.6890975       142.9164
2018    23      0       0.6453725       136.6399
2018    23      1       0.7901346       155.4002
2018    23      2       1.014757        179.3427
2018    23      3       1.248483        198.201
2018    23      4       1.18954         193.9243
2018    23      5       1.113629        188.3799
2018    23      6       1.252471        200.7205
2018    23      7       1.16322         193.4394
2018    24      0       1.039612        181.669
2018    24      1       0.9942351       176.8915
2018    24      2       0.9868583       175.7821
2018    24      3       1.074388        183.5054
2018    24      4       1.086121        184.3072
2018    24      5       1.069757        183.4896
2018    24      6       1.186703        194.8453
2018    24      7       1.069055        184.4896
2018    25      0       0.9450228       172.3187
2018    25      1       0.912691        169.0833
2018    25      2       0.7983466       155.4207
2018    25      3       0.7364606       147.1267
2018    25      4       0.753338        149.2963
2018    25      5       0.9285815       170.6589
2018    25      6       1.13968         191.7286
2018    25      7       1.020912        180.612
2018    26      0       0.9822822       176.4342
2018    26      1       1.170731        193.9609
2018    26      2       1.095075        186.0068
2018    26      3       1.141736        189.6128
2018    26      4       1.235209        197.2605
2018    26      5       1.43241         212.1663
2018    26      6       1.561301        220.4736
2018    26      7       1.542118        219.5756
2018    27      0       1.333563        205.9935
2018    27      1       1.182949        194.2761
2018    27      2       1.171327        193.2208
2018    27      3       1.180587        193.5373
2018    27      4       1.189591        193.6508
2018    27      5       1.161409        191.2729
2018    27      6       1.170326        192.8801
2018    27      7       0.9575967       173.4581
2018    28      0       0.770592        151.9437
2018    28      1       0.7265988       145.9732
2018    28      2       0.7405826       147.5712
2018    28      3       0.815288        156.3916
2018    28      4       0.8610894       161.6206
2018    28      5       1.018823        178.6644
2018    28      6       1.009523        178.4243
2018    28      7       0.9428018       171.8042
2018    29      0       0.8887777       165.898
2018    29      1       0.8860126       165.3005
2018    29      2       0.9354888       170.15
2018    29      3       0.9703688       172.9972
2018    29      4       0.9721931       173.1567
2018    29      5       1.001016        176.9021
2018    29      6       1.037346        180.9398
2018    29      7       1.017353        179.0451
2018    30      0       0.9271536       169.422
2018    30      1       0.8444223       159.7631
2018    30      2       0.7850768       152.5472
2018    30      3       0.7302673       145.4614
2018    30      4       0.7482263       147.7103
2018    30      5       0.782971        152.2887
2018    30      6       0.7749427       151.9224
2018    30      7       0.6948064       141.5792
