####################################################################################################
# Month: 09Sep                                                                                     #
# Station: FUJI                                                                                    #
# Frequency: 345 GHz                                                                               #
# Columns are: year    day     tau     Tb (K)                                                      #
####################################################################################################
2009    1       1.36642725      202.82705
2009    2       1.44350475      205.6368375
2009    3       1.46568688      206.647225
2009    4       1.05597111      161.87328125
2009    5       0.20812344      54.8138675
2009    6       0.37703472      89.2927575
2009    7       0.52138474      113.168725
2009    8       1.14394096      185.9343125
2009    9       0.68504672      116.86969125
2009    10      0.5344386       109.97965625
2009    11      1.0814858       167.32465
2009    12      1.12859984      157.17243375
2009    13      0.15070512      41.8752475
2009    14      1.02088358      154.6186375
2009    15      1.18670613      170.61270875
2009    16      0.23332684      58.87224125
2009    17      0.27400236      66.27415875
2009    18      0.7622626       131.45279
2009    19      0.16093915      43.99053375
2009    20      0.23597134      60.40461125
2009    21      0.72395211      135.76656375
2009    22      1.51537         208.905975
2009    23      1.24434513      190.378225
2009    24      0.51297856      105.51542375
2009    25      0.6460622       126.29589375
2009    26      0.57033009      115.246705
2009    27      0.61830129      119.8782325
2009    28      0.93427742      163.7957375
2009    29      1.83075062      223.4603625
2009    30      1.42545382      188.8057725
2010    1       0.64217218      131.36315
2010    2       0.533423        115.6833625
2010    3       0.72121621      140.545675
2010    4       0.86586833      159.0311875
2010    5       0.68008374      135.2461375
2010    6       0.31897722      76.85789125
2010    7       1.16563986      160.4210575
2010    8       2.00108425      231.687075
2010    9       1.25323894      192.7271875
2010    10      1.01256268      171.6751875
2010    11      1.10677608      180.024175
2010    12      1.37411452      195.9665125
2010    13      0.94199666      155.846505
2010    14      0.88851915      149.13189125
2010    15      1.6134405       211.8031625
2010    16      1.18846472      166.424395
2010    17      0.69661714      136.70675
2010    18      1.053876        176.3287625
2010    19      1.34240112      199.22435
2010    20      1.12769762      175.9530375
2010    21      1.0835193       181.222525
2010    22      1.1004328       176.71815
2010    23      1.88484638      224.297825
2010    24      1.33389154      193.729
2010    25      0.17612651      46.9768325
2010    26      1.30834291      181.77957125
2010    27      1.6269466       202.747525
2010    28      1.09299509      176.98345
2010    29      1.31481719      185.65055
2010    30      1.29191343      182.586925
2011    1       2.61141938      250.89915
2011    2       2.10548663      234.3633875
2011    3       1.702584        224.0576875
2011    4       2.2188315       240.834875
2011    5       1.1861116       183.32015
2011    6       0.20693308      53.23524625
2011    7       0.32906527      71.06568
2011    8       1.36665138      199.0111
2011    9       1.68509475      221.008975
2011    10      1.04075236      174.3312125
2011    11      1.31635039      195.3165625
2011    12      0.63660419      129.615825
2011    13      0.60758035      124.11195
2011    14      0.43938071      99.13239125
2011    15      0.32305991      78.9118125
2011    16      0.68416675      131.95802875
2011    17      0.49425095      107.08241375
2011    18      0.73840599      138.63420375
2011    19      1.58098451      204.276375
2011    20      2.612931        250.6021
2011    21      1.68949584      195.98174875
2011    22      0.44525792      94.934815
2011    23      0.10089562      30.83379875
2011    24      0.20747304      53.16516875
2011    25      0.46424348      95.686555
2011    26      1.0745804       173.159975
2011    27      0.26271179      61.6775475
2011    28      0.17894514      46.90974
2011    29      1.1364045       170.02919875
2011    30      1.78982312      223.8329125
2012    1       2.085533        234.2367875
2012    2       2.01825388      230.653925
2012    3       1.69321262      219.1011125
2012    4       1.43776575      204.065175
2012    5       1.08824442      176.4133
2012    6       1.55516495      199.6787
2012    7       0.68148858      134.6976875
2012    8       1.19965506      184.5623875
2012    9       1.306985        196.7070375
2012    10      1.15906705      185.56935
2012    11      1.1336772       176.764425
2012    12      0.59849249      123.383375
2012    13      0.6766834       130.99628
2012    14      1.14784061      182.5867625
2012    15      1.42986565      193.2219875
2012    16      0.79824371      144.50275
2012    17      0.32203181      78.7398525
2012    18      1.19100124      158.2043125
2012    19      1.1616705       171.5434875
2012    20      1.1609158       177.7995125
2012    21      0.86550282      139.93154875
2012    22      1.35893272      190.2161375
2012    23      1.11088788      147.93741625
2012    24      0.82093436      142.09976875
2012    25      0.36893612      72.24907375
2012    26      0.24297056      61.14999375
2012    27      0.58176744      117.3226775
2012    28      0.43703768      96.00486
2012    29      1.2214659       187.1153
2012    30      1.03941349      143.23955125
2013    1       1.2801762       193.8343375
2013    2       1.66097988      217.676625
2013    3       0.97003686      165.3047875
2013    4       1.18493566      186.1758625
2013    5       0.62086671      118.689855
2013    6       0.73535218      137.80124125
2013    7       1.42049162      204.21055
2013    8       1.53648131      206.929475
2013    9       0.96415489      161.147625
2013    10      1.20499162      190.2578375
2013    11      1.19341639      188.248575
2013    12      1.56692362      215.2342625
2013    13      1.30364638      197.4725875
2013    14      1.92773112      223.32805
2013    15      1.8871908       217.3652
2013    16      1.01471429      97.25532875
2013    17      0.24757766      62.687315
2013    18      0.21520338      55.4124575
2013    19      0.14594805      41.62353125
2013    20      0.14462875      41.58162875
2013    21      0.26999489      68.14675
2013    22      0.43298094      94.5473875
2013    23      0.52634702      113.35039625
2013    24      0.33703506      81.22830375
2013    25      1.6762135       208.1942375
2013    26      0.44904852      87.609455
2013    27      0.25320116      62.7354275
2013    28      1.02369964      171.4386
2013    29      0.84680521      156.065175
2013    30      1.08160722      176.45885
2014    1       1.5505635       208.1932875
2014    2       0.54008568      112.1452
2014    3       1.55363012      212.6104625
2014    4       1.59225112      216.6001375
2014    5       1.45303938      206.9419625
2014    6       2.02012962      231.402125
2014    7       1.03461803      163.133605
2014    8       1.28571366      178.6923525
2014    9       0.3125748       72.0817475
2014    10      1.26698211      188.7363375
2014    11      0.86729289      142.227805
2014    12      0.46375534      95.4945575
2014    13      0.21106375      54.910875
2014    14      0.37129988      75.88583875
2014    15      1.35346656      195.2396375
2014    16      0.44670874      96.328745
2014    17      1.23996864      186.617875
2014    18      0.61822679      110.24875375
2014    19      0.71424724      124.8377175
2014    20      0.68601848      122.32147375
2014    21      0.20482215      52.00021125
2014    22      0.12511867      36.46040875
2014    23      0.38767931      83.868935
2014    24      1.96088725      232.040375
2014    25      0.94748206      160.748655
2014    26      0.34208486      79.655425
2014    27      0.41168979      93.6695825
2014    28      0.33265474      78.6603625
2014    29      1.27899315      196.525425
2014    30      1.41841863      204.804475
2015    1       1.72094862      219.1731125
2015    2       1.31310116      190.4571125
2015    3       1.93256425      229.19605
2015    4       0.32630134      78.39356125
2015    5       0.36227155      82.69268375
2015    6       1.75481         219.4414875
2015    7       1.6300535       213.256125
2015    8       2.03508125      233.1549875
2015    9       0.59702371      115.63664
2015    10      0.66912366      131.120825
2015    11      0.391769        87.63825625
2015    12      1.17360276      184.8636
2015    13      0.46356728      87.16897125
2015    14      0.17122508      45.7100775
2015    15      0.47265233      95.80524
2015    16      1.60904588      212.2108875
2015    17      1.24061122      186.4070875
2015    18      0.69076254      127.55510875
2015    19      0.53755586      108.7556675
2015    20      0.34235698      76.5044925
2015    21      0.53282736      103.30894375
2015    22      0.18551807      47.5186475
2015    23      0.71838874      132.073815
2015    24      1.61720562      214.3005875
2015    25      1.2389775       189.9542
2015    26      1.29841795      191.568175
2015    27      0.61599619      112.066625
2015    28      0.53938636      105.19183
2015    29      0.50430231      106.3041075
2015    30      0.79489841      145.3986
2016    1       1.04149431      171.9039125
2016    2       0.48994198      107.64564625
2016    3       0.52963388      107.852015
2016    4       0.99255626      168.861825
2016    5       1.61101572      211.995625
2016    6       1.605172        214.338075
2016    7       1.83699212      225.1670375
2016    8       0.98180032      160.8505125
2016    9       0.39716823      84.27539
2016    10      0.62672851      117.578685
2016    11      1.66764112      217.57615
2016    12      1.364922        200.002
2016    13      1.53212281      208.1153625
2016    14      1.91729025      228.907325
2016    15      1.68066738      218.025725
2016    16      1.60005738      211.1298625
2016    17      1.42266584      195.51125
2016    18      2.15246887      237.1669875
2016    19      2.42022812      246.0585875
2016    20      1.81202995      207.59425
2016    21      0.87081178      156.2131125
2016    22      1.6858615       218.855325
2016    23      1.30478624      180.8977975
2016    24      1.32610629      191.6450125
2016    25      1.31272981      194.7804125
2016    26      0.98443934      168.9035625
2016    27      1.19826475      190.387275
2016    28      2.26166738      241.39385
2016    29      1.76849458      208.72565125
2016    30      1.32402594      187.043225
2017    1       1.44250838      200.4455125
2017    2       0.44515459      95.84260375
2017    3       0.69206174      126.340005
2017    4       0.84367388      151.7591
2017    5       1.44193699      185.171175
2017    6       2.10276775      236.771425
2017    7       1.87446437      226.0358375
2017    8       0.52066519      110.97411125
2017    9       0.49065162      101.14277
2017    10      0.35090838      78.67954125
2017    11      1.74760254      216.449075
2017    12      1.71596739      203.472585
2017    13      0.17934381      47.938995
2017    14      0.29282353      70.22399375
2017    15      0.55509829      112.94623
2017    16      2.06274225      233.8732375
2017    17      1.35897939      177.69270625
2017    18      0.2852695       70.09428
2017    19      1.01711609      164.9234
2017    20      1.0636951       159.52331625
2017    21      0.29834618      70.52137625
2017    22      1.3280226       186.32979375
2017    23      0.87332726      149.844175
2017    24      0.4210763       89.99215
2017    25      0.35942605      82.0999825
2017    26      0.36413148      84.34647
2017    27      1.76631249      219.1069875
2017    28      1.24366238      169.18057125
2017    29      0.46253701      93.69880125
2017    30      0.35933056      71.73678125
2018    1       1.3458845       196.0348
2018    2       1.63092188      213.0862875
2018    3       1.68184525      217.705075
2018    4       1.8713795       226.7053375
2018    5       0.47496212      101.26763875
2018    6       1.5251604       206.5612625
2018    7       1.35680434      198.961425
2018    8       1.28003292      192.8371125
2018    9       1.19771709      186.54105
2018    10      1.37526885      172.72054125
2018    11      0.77609549      142.7902125
2018    12      1.434713        201.9450125
2018    13      1.5043805       207.733975
2018    14      1.885496        228.533125
2018    15      1.35282711      198.39615
2018    16      1.31746725      197.967875
2018    17      0.90092201      151.9287575
2018    18      0.8264304       143.56046375
2018    19      0.90585814      153.5114525
2018    20      2.11328237      236.9366375
2018    21      1.804318        225.101
2018    22      1.53101137      208.0625125
2018    23      1.22227987      190.7798125
2018    24      0.95728398      165.52975
2018    25      0.93784825      143.22378125
2018    26      1.61424272      210.5290375
2018    27      0.75732979      113.2149725
2018    28      0.54243095      95.299465
2018    29      1.59369738      210.701975
2018    30      1.46107629      179.005475
