####################################################################################################
# Month: 01Jan                                                                                     #
# Station: MOR                                                                                     #
# Frequency: 230 GHz                                                                               #
# Columns are: year    day     tau     Tb (K)                                                      #
####################################################################################################
2009    1       0.2117408       54.00903375
2009    2       0.23050519      58.4421725
2009    3       0.06236017      20.4523925
2009    4       0.07020703      22.32857125
2009    5       0.11625448      33.3512275
2009    6       0.179616        46.5657625
2009    7       0.18673243      46.79092875
2009    8       0.18525414      46.35278
2009    9       0.15153448      39.62526625
2009    10      0.30486234      71.14583875
2009    11      0.16949475      43.31153
2009    12      0.08407273      25.59408625
2009    13      0.1032829       29.98391625
2009    14      0.14752102      39.661715
2009    15      0.22744048      56.66173
2009    16      0.42444338      92.62662125
2009    17      0.27929485      65.839365
2009    18      0.10933945      31.48818625
2009    19      0.15012634      40.91147625
2009    20      0.24969971      61.9484625
2009    21      0.18886836      48.44802125
2009    22      0.16380502      44.1113275
2009    23      0.15951686      43.50848125
2009    24      0.07005338      22.3358275
2009    25      0.2071791       50.8474225
2009    26      0.06437093      21.0138575
2009    27      0.11325514      32.6314125
2009    28      0.12431702      35.27881375
2009    29      0.10969492      31.91633
2009    30      0.11167538      32.1851775
2009    31      0.1000346       29.3502775
2010    1       0.13275618      37.39710625
2010    2       0.11436359      33.3532025
2010    3       0.15564403      42.0021225
2010    4       0.25145648      62.80632625
2010    5       0.14157135      39.300465
2010    6       0.48077652      101.84167375
2010    7       0.60672951      120.30016375
2010    8       0.14443923      39.84021375
2010    9       0.15484691      41.69256375
2010    10      0.34132708      78.16672875
2010    11      0.13004685      36.68868125
2010    12      0.29454374      69.49269625
2010    13      0.17905846      47.35408375
2010    14      0.28147768      68.327265
2010    15      0.17248887      46.00218375
2010    16      0.09260254      28.28832375
2010    17      0.12389965      35.4976475
2010    18      0.1755526       46.5596325
2010    19      0.13491402      37.7652175
2010    20      0.0882632       26.71253875
2010    21      0.19800251      51.2948775
2010    22      0.14112774      38.5566575
2010    23      0.08802796      25.9465875
2010    24      0.1264988       35.60013875
2010    25      0.24049222      57.76816875
2010    26      0.14038076      38.58283375
2010    27      0.17038482      44.7757325
2010    28      0.21598999      52.977
2010    29      0.09647972      28.30871375
2010    30      0.07376358      23.04788
2010    31      0.35939133      83.11004125
2011    1       0.07752077      23.95257375
2011    2       0.15519085      42.42665375
2011    3       0.27970825      68.205785
2011    4       0.28513076      69.1652225
2011    5       0.10963319      31.7241725
2011    6       0.1095602       31.5064525
2011    7       0.20049584      51.5667075
2011    8       0.19154456      49.76543875
2011    9       0.13323309      36.7000075
2011    10      0.23506792      59.074785
2011    11      0.1350199       38.09044125
2011    12      0.09010064      27.30928875
2011    13      0.13254725      37.3366625
2011    14      0.18576551      49.07312375
2011    15      0.11638792      33.53337375
2011    16      0.10413843      30.190935
2011    17      0.25499722      62.26668875
2011    18      0.25335756      62.51246625
2011    19      0.20876879      53.74274125
2011    20      0.1304752       36.5625675
2011    21      0.14287965      39.28317875
2011    22      0.23563246      58.569665
2011    23      0.15369298      41.4189475
2011    24      0.30117006      71.25162
2011    25      0.32269945      76.23799
2011    26      0.48436474      103.23103375
2011    27      0.45223876      96.16851625
2011    28      0.09642663      28.2334325
2011    29      0.20113738      51.4040225
2011    30      0.40815494      88.5825825
2011    31      0.0597965       19.67529
2012    1       0.13043148      36.92485
2012    2       0.08258847      25.56939375
2012    3       0.06290445      20.7045525
2012    4       0.08361812      25.40520125
2012    5       0.09143743      27.44668625
2012    6       0.04078988      14.897075
2012    7       0.07164745      22.45722
2012    8       0.11586757      32.54743125
2012    9       0.18657084      48.39095625
2012    10      0.23189499      58.170985
2012    11      0.26999444      65.6313275
2012    12      0.37578592      84.911965
2012    13      0.1840853       48.09853375
2012    14      0.17930646      46.9284475
2012    15      0.31386723      73.64625125
2012    16      0.20476156      52.2986275
2012    17      0.09799762      27.9830675
2012    18      0.07532119      23.48076375
2012    19      0.07104558      22.38684625
2012    20      0.05135592      17.4872
2012    21      0.0960086       28.07287625
2012    22      0.08262177      25.07012
2012    23      0.0750379       23.26245125
2012    24      0.16262676      42.6794925
2012    25      0.33942388      76.592745
2012    26      0.38559194      85.70431875
2012    27      0.22028235      55.296435
2012    28      0.04511651      15.9262525
2012    29      0.04573116      16.1133625
2012    30      0.08319607      25.29715
2012    31      0.10141515      29.5635825
2013    1       0.09465846      28.11949125
2013    2       0.13993657      38.98964875
2013    3       0.14135912      39.95256
2013    4       0.07918777      25.00144875
2013    5       0.06252798      20.60984125
2013    6       0.05343801      18.31693375
2013    7       0.05041232      17.55534125
2013    8       0.04554642      16.1638825
2013    9       0.07158857      22.4880775
2013    10      0.09726428      28.44389
2013    11      0.0978321       28.7772825
2013    12      0.09367242      27.78428875
2013    13      0.10583612      30.2399775
2013    14      0.05288079      17.89680375
2013    15      0.08233862      25.21837125
2013    16      0.13386707      37.05704
2013    17      0.15653974      42.16470375
2013    18      0.29389278      71.5724825
2013    19      0.26017186      63.77934375
2013    20      0.13470012      37.70091375
2013    21      0.15538615      42.65535
2013    22      0.06374063      20.36440875
2013    23      0.07595726      23.50551625
2013    24      0.08396221      25.3266025
2013    25      0.35713996      81.78266625
2013    26      0.09885497      29.560575
2013    27      0.11513355      33.23175625
2013    28      0.11107242      32.2845
2013    29      0.0827174       25.43315
2013    30      0.07999586      24.70866125
2013    31      0.07041132      22.67551
2014    1       0.15435369      41.373555
2014    2       0.39793929      90.9127725
2014    3       0.42654389      96.4048175
2014    4       0.2437255       60.88499
2014    5       0.20541614      52.7976125
2014    6       0.2227556       56.80968875
2014    7       0.14188038      38.9810575
2014    8       0.16386159      44.49019875
2014    9       0.16847558      45.035975
2014    10      0.36325006      81.50299875
2014    11      0.19387312      49.07988875
2014    12      0.16452443      43.96970125
2014    13      0.22762148      57.6040525
2014    14      0.16772442      45.25682875
2014    15      0.21480531      55.99031125
2014    16      0.38883715      86.71839
2014    17      0.3346275       76.48813
2014    18      0.44824506      95.20071625
2014    19      0.15139302      40.94699875
2014    20      0.1551542       41.27871875
2014    21      0.14767351      40.2418525
2014    22      0.36199144      80.74745125
2014    23      0.08489786      25.89943
2014    24      0.11004134      31.559405
2014    25      0.20513491      52.98645125
2014    26      0.17298855      46.2118525
2014    27      0.07430717      23.67190375
2014    28      0.12884424      36.5075725
2014    29      0.27249908      65.60565625
2014    30      0.21836016      55.16660625
2014    31      0.30110887      72.27926375
2015    1       0.05446545      18.10615125
2015    2       0.05405563      18.273575
2015    3       0.06853377      21.98681125
2015    4       0.06248313      20.38346
2015    5       0.12123957      34.2527675
2015    6       0.09898449      29.09608375
2015    7       0.14685909      39.4577125
2015    8       0.10918127      31.166265
2015    9       0.34823429      78.77714375
2015    10      0.34269301      78.7760325
2015    11      0.48900141      104.4075625
2015    12      0.44098336      96.6888925
2015    13      0.54048209      112.52195625
2015    14      0.30920799      72.4162725
2015    15      0.10332944      30.4650325
2015    16      0.15187762      39.79722875
2015    17      0.06357482      20.19939
2015    18      0.33677378      77.81600125
2015    19      0.08911615      27.001635
2015    20      0.06354723      20.746015
2015    21      0.16691088      42.09766
2015    22      0.1352912       37.7622625
2015    23      0.1280395       36.13745125
2015    24      0.07882951      24.20926875
2015    25      0.09371114      27.7635175
2015    26      0.07964597      24.5420325
2015    27      0.08704639      26.4980025
2015    28      0.111043        32.2599575
2015    29      0.16286604      44.2097025
2015    30      0.25155515      63.44540375
2015    31      0.13600929      38.46819625
2016    1       0.17011208      46.01717375
2016    5       0.2988113       67.39537625
2016    6       0.12128438      34.27778875
2016    7       0.18715688      49.77694
2016    8       0.5181798       106.5971775
2016    9       0.22871035      54.4343025
2016    10      0.12077743      34.35585375
2016    11      0.09006933      27.64526875
2016    12      0.07417842      23.6662975
2016    13      0.10388849      30.56384875
2016    14      0.14685148      39.74146
2016    15      0.38408188      88.57912875
2016    16      0.19575776      51.5297775
2016    17      0.13862109      38.47983
2016    18      0.34167394      79.13838
2016    19      0.09322201      27.88603125
2016    20      0.11539445      32.68789375
2016    21      0.16071524      43.389275
2016    22      0.18050409      48.09827625
2016    23      0.17051925      45.6991225
2016    24      0.09651374      28.44445875
2016    25      0.1945887       49.83120875
2016    26      0.15519661      42.1938925
2016    27      0.19253238      49.5591625
2016    28      0.20246121      51.822885
2016    29      0.2260402       56.35129375
2016    30      0.07142988      22.50810125
2016    31      0.14888685      41.00563375
2017    1       0.08209868      24.891055
2017    2       0.06882357      21.90889125
2017    3       0.0829872       25.33054625
2017    4       0.10900544      31.49178375
2017    5       0.13765018      37.9247175
2017    6       0.17136629      45.33222125
2017    7       0.14880784      40.89644375
2017    8       0.14108509      39.03518
2017    9       0.12785819      36.00088875
2017    10      0.12485353      34.73031
2017    11      0.19379278      51.35815625
2017    12      0.10949745      32.278655
2017    13      0.12671595      36.00535625
2017    14      0.14129408      38.5645975
2017    15      0.11966164      33.21385125
2017    16      0.06012518      19.81692375
2017    17      0.05254238      18.00943
2017    18      0.09791021      28.62609375
2017    19      0.16322311      42.09195125
2017    20      0.06552303      20.9193925
2017    21      0.18861701      47.73197375
2017    22      0.06684478      20.960935
2017    23      0.14368255      39.186145
2017    24      0.13759124      37.77480125
2017    25      0.12717161      35.49551125
2017    26      0.17069321      44.8426575
2017    27      0.1853868       48.4922725
2017    28      0.21405311      55.314595
2017    29      0.14453375      40.230395
2017    30      0.10922058      31.95718125
2017    31      0.24661034      59.7821475
2018    1       0.1712979       45.14349
2018    2       0.06609215      21.5282025
2018    3       0.09159053      27.91424375
2018    4       0.0868234       26.6702175
2018    5       0.13007645      36.2758525
2018    6       0.36635512      82.7068775
2018    7       0.42115774      91.53542625
2018    8       0.2399564       57.86808625
2018    9       0.23844604      58.20513625
2018    10      0.13540327      38.21277875
2018    11      0.06978924      22.21528875
2018    12      0.11696394      33.53654375
2018    13      0.1455507       39.520225
2018    14      0.13037801      35.72472125
2018    15      0.29438646      69.21833625
2018    16      0.16452798      43.54280875
2018    17      0.20497759      52.09910125
2018    18      0.29478878      69.35416125
2018    19      0.19355285      50.01294125
2018    20      0.0550871       18.616255
2018    21      0.07615148      23.7641
2018    22      0.1132003       32.88023875
2018    23      0.08262147      25.4355825
2018    24      0.11191382      32.56641625
2018    25      0.10355705      30.32028625
2018    26      0.05029027      17.29524375
2018    27      0.05265529      17.5675675
2018    28      0.20367869      50.72785625
2018    29      0.27914739      65.4362925
2018    30      0.16263606      42.5087
2018    31      0.22006637      54.6632675
