####################################################################################################
# Month: 07Jul                                                                                     #
# Station: PER                                                                                     #
# Frequency: 345 GHz                                                                               #
# Columns are: year    day     segment         tau     Tb (K)                                      #
####################################################################################################
2009    1       0       1.480114        206.4537
2009    1       1       1.727491        219.4633
2009    1       2       1.58368         212.3549
2009    1       3       1.730959        219.776
2009    1       4       1.578678        212.1083
2009    1       5       1.401572        201.4439
2009    1       6       1.461166        204.8581
2009    1       7       1.713551        218.4114
2009    2       0       1.56745         210.8263
2009    2       1       1.378011        199.3235
2009    2       2       1.635051        212.7682
2009    2       3       1.633203        211.5953
2009    2       4       1.745936        218.1899
2009    2       5       1.400023        199.422
2009    2       6       1.19282         184.3178
2009    2       7       1.142176        180.7294
2009    3       0       1.415332        199.6305
2009    3       1       1.514422        205.7854
2009    3       2       1.327804        195.7018
2009    3       3       0.8598103       155.1543
2009    3       4       0.2544962       63.59934
2009    3       5       0.3007714       72.83577
2009    3       6       0.4667806       101.672
2009    3       7       0.6880003       135.8684
2009    4       0       0.7764798       149.3538
2009    4       1       0.597251        123.5464
2009    4       2       1.126652        182.7469
2009    4       3       1.00568         171.3267
2009    4       4       0.2348188       59.97455
2009    4       5       0.2286321       58.78157
2009    4       6       0.244147        61.9286
2009    4       7       0.2459073       62.13666
2009    5       0       0.259091        64.42448
2009    5       1       0.3292264       77.83821
2009    5       2       0.3325532       78.3529
2009    5       3       0.3025864       72.91628
2009    5       4       0.2987454       72.33431
2009    5       5       0.3582842       83.45275
2009    5       6       0.3883189       88.08814
2009    5       7       0.409934        91.68733
2009    6       0       0.5119275       109.0428
2009    6       1       0.7772516       146.1483
2009    6       2       0.5657057       118.2806
2009    6       3       0.3722949       86.68842
2009    6       4       0.2740717       67.99266
2009    6       5       0.1823878       49.34862
2009    6       6       0.1942149       51.86609
2009    6       7       0.2637998       66.03461
2009    7       0       0.3077511       74.76337
2009    7       1       0.3109696       75.53534
2009    7       2       0.3537402       83.63732
2009    7       3       0.3354114       80.24886
2009    7       4       0.2787813       69.31931
2009    7       5       0.2259569       58.58433
2009    7       6       0.1955709       52.18943
2009    7       7       0.1800291       48.81596
2009    8       0       0.1760659       48.01756
2009    8       1       0.1857241       50.28976
2009    8       2       0.3773581       88.40548
2009    8       3       0.4511582       101.3462
2009    8       4       0.2763719       69.38771
2009    8       5       0.340716        81.54595
2009    8       6       0.4238457       96.28024
2009    8       7       0.4150959       94.79359
2009    9       0       0.349215        82.97741
2009    9       1       0.3256396       78.4623
2009    9       2       0.547586        116.3523
2009    9       3       0.4394942       99.28035
2009    9       4       0.2494188       63.77504
2009    9       5       0.2316608       60.01519
2009    9       6       0.2841958       70.26697
2009    9       7       0.2974173       72.44458
2009    10      0       0.3046943       73.65699
2009    10      1       0.4050387       91.93165
2009    10      2       0.4385125       97.37643
2009    10      3       0.55049         114.0621
2009    10      4       0.7107223       136.1971
2009    10      5       1.008208        168.4127
2009    10      6       1.771121        220.9214
2009    10      7       1.643316        216.6475
2009    11      0       1.633205        215.369
2009    11      1       1.49359         208.5232
2009    11      2       1.280756        192.8958
2009    11      3       1.197474        186.4169
2009    11      4       1.934583        227.6021
2009    11      5       1.531117        210.9899
2009    11      6       1.56756         214.5547
2009    11      7       1.095109        181.6734
2009    12      0       1.075706        179.7991
2009    12      1       1.097343        181.0878
2009    12      2       1.478441        209.0602
2009    12      3       0.74573         143.8875
2009    12      4       0.8123316       151.5021
2009    12      5       0.9435087       165.1731
2009    12      6       1.071742        176.8562
2009    12      7       0.8156342       150.7884
2009    13      0       0.9183196       161.4466
2009    13      1       1.458591        204.4653
2009    13      2       1.945276        228.136
2009    13      3       1.587316        211.4937
2009    13      4       1.765917        219.9843
2009    13      5       1.600241        211.2762
2009    13      6       1.567262        209.623
2009    13      7       1.051953        173.4707
2009    14      0       1.072332        175.0841
2009    14      1       1.205381        186.1507
2009    14      2       1.20558         186.1635
2009    14      3       1.27378         191.4055
2009    14      4       1.088183        176.5244
2009    14      5       0.9586431       163.8771
2009    14      6       0.8830518       155.4224
2009    14      7       0.8535599       151.9354
2009    15      0       0.8567943       152.4011
2009    15      1       0.9983767       167.4631
2009    15      2       1.051194        172.5586
2009    15      3       1.071877        174.1484
2009    15      4       1.019796        169.533
2009    15      5       0.9214204       160.028
2009    15      6       0.883682        156.0032
2009    15      7       0.9007058       157.8263
2009    16      0       0.964001        164.5897
2009    16      1       1.19957         185.3042
2009    16      2       1.471398        204.6563
2009    16      3       1.053375        173.4968
2009    16      4       0.8196983       149.7518
2009    16      5       0.7304342       139.8782
2009    16      6       0.5038404       108.5457
2009    16      7       0.372004        86.81701
2009    17      0       0.3350807       80.23453
2009    17      1       0.2784996       69.42329
2009    17      2       0.2854386       70.73626
2009    17      3       0.3103662       75.05004
2009    17      4       0.2616589       65.32344
2009    17      5       0.2598474       64.72657
2009    17      6       0.2638798       65.87567
2009    17      7       0.2520364       63.7518
2009    18      0       0.2816499       69.11263
2009    18      1       0.3960982       89.52334
2009    18      2       0.5819579       118.3783
2009    18      3       0.7808088       145.3259
2009    18      4       1.158605        183.069
2009    18      5       1.317317        194.9134
2009    18      6       1.152776        182.1764
2009    18      7       1.279046        192.0706
2009    19      0       1.11981         180.3722
2009    19      1       0.9179827       161.7671
2009    19      2       0.6361043       129.0532
2009    19      3       0.4435313       99.55122
2009    19      4       0.5122191       110.1355
2009    19      5       0.6128376       125.0602
2009    19      6       0.4214283       96.65914
2009    19      7       0.4072359       94.9383
2009    20      0       0.3602304       86.20001
2009    20      1       0.3693958       87.65064
2009    20      2       0.4052483       93.48578
2009    20      3       0.4185084       95.60649
2009    20      4       0.6726727       134.551
2009    20      5       0.791649        149.8149
2009    20      6       0.7796279       148.3128
2009    20      7       0.7260922       141.8015
2009    21      0       0.6619517       133.4352
2009    21      1       0.6478338       131.2291
2009    21      2       0.7914199       149.4092
2009    21      3       1.304469        197.9512
2009    21      4       1.411716        205.3177
2009    21      5       1.562912        214.3131
2009    21      6       0.9868692       170.8218
2009    21      7       1.205831        189.5745
2009    22      0       1.67753         218.2936
2009    22      1       2.100218        234.1804
2009    22      2       1.83233         223.4899
2009    22      3       1.416085        200.7121
2009    22      4       1.692465        215.7487
2009    22      5       1.429948        201.8739
2009    22      6       1.486861        205.0293
2009    22      7       1.061939        172.8556
2009    23      0       0.5455384       113.9061
2009    23      1       1.190847        184.8971
2009    23      2       1.168409        182.7966
2009    23      3       0.488258        105.8866
2009    23      4       0.245537        62.9762
2009    23      5       0.1747195       48.15755
2009    23      6       0.1523678       43.19389
2009    23      7       0.1224761       36.21935
2009    24      0       0.101526        31.05794
2009    24      1       0.1391842       39.31209
2009    24      2       0.2079329       53.72664
2009    24      3       0.2911843       70.14787
2009    24      4       0.3382419       78.94826
2009    24      5       0.4432797       96.89251
2009    24      6       0.621877        125.0372
2009    24      7       0.7172115       138.4603
2009    25      0       0.7358607       140.5593
2009    25      1       0.4815046       104.8083
2009    25      2       0.2786145       67.73087
2009    25      3       0.335942        78.19711
2009    25      4       0.4072005       90.23184
2009    25      5       0.8531204       154.2357
2009    25      6       0.934628        163.179
2009    25      7       0.8856628       157.3366
2009    26      0       1.123537        180.2387
2009    26      1       1.267219        192.0878
2009    26      2       2.03048         231.875
2009    26      3       1.543368        208.4857
2009    26      4       1.254993        189.3512
2009    26      5       1.084329        176.4899
2009    26      6       0.8690022       156.8696
2009    26      7       0.8052625       149.4024
2009    27      0       0.564133        117.0557
2009    27      1       0.6615502       131.443
2009    27      2       0.7379809       141.212
2009    27      3       1.300602        195.1404
2009    27      4       1.451162        204.8156
2009    27      5       1.699256        218.5682
2009    27      6       0.8025749       148.6744
2009    27      7       0.6821038       134.0774
2009    28      0       0.7344387       141.5553
2009    28      1       0.9040341       161.1887
2009    28      2       1.015397        172.1724
2009    28      3       0.9785373       168.7665
2009    28      4       0.8786533       158.5447
2009    28      5       0.7278013       140.9581
2009    28      6       0.646811        130.341
2009    28      7       0.6416015       128.8979
2009    29      0       0.8493317       153.3837
2009    29      1       0.8392011       152.9875
2009    29      2       0.7628697       145.1191
2009    29      3       0.7062325       138.552
2009    29      4       0.6495135       131.1916
2009    29      5       0.5884719       122.718
2009    29      6       0.5483989       116.8532
2009    29      7       0.5230456       113.2296
2009    30      0       0.5768698       121.9648
2009    30      1       0.5775044       122.4226
2009    30      2       0.5384303       116.1701
2009    30      3       0.9029458       161.7346
2009    30      4       1.835814        224.1574
2009    30      5       1.959648        228.6727
2009    30      6       1.667204        216.4398
2009    30      7       1.081764        178.1522
2009    31      0       0.7782786       146.6565
2009    31      1       0.5179837       110.6934
2009    31      2       0.465732        102.4605
2009    31      3       0.5449558       115.3605
2009    31      4       0.4921348       106.8955
2009    31      5       0.457964        101.4875
2009    31      6       0.395073        91.27134
2009    31      7       0.3875319       90.55344
2010    1       0       0.5400688       112.86
2010    1       1       0.5759072       117.827
2010    1       2       0.576669        118.1881
2010    1       3       0.5065213       107.5737
2010    1       4       0.4877208       104.7254
2010    1       5       0.4754793       102.9163
2010    1       6       0.5179487       109.248
2010    1       7       0.5217396       109.9138
2010    2       0       0.5318333       111.2134
2010    2       1       0.7514701       139.6846
2010    2       2       0.9544906       161.5443
2010    2       3       0.8930869       155.7898
2010    2       4       0.9150393       157.6407
2010    2       5       0.6305838       124.5506
2010    2       6       0.522548        109.3841
2010    2       7       0.589392        119.2751
2010    3       0       0.6178824       124.1061
2010    3       1       0.4394732       97.94393
2010    3       2       0.3678669       85.04124
2010    3       3       0.4915812       105.4527
2010    3       4       0.6712282       132.1367
2010    3       5       0.7059576       137.0178
2010    3       6       0.679255        133.4925
2010    3       7       0.5237555       111.3629
2010    4       0       0.4343666       96.93752
2010    4       1       0.4465396       98.89362
2010    4       2       0.4727664       103.163
2010    4       3       0.4822965       104.7039
2010    4       4       0.4475224       99.43338
2010    4       5       0.4411824       98.65427
2010    4       6       0.4627728       102.2587
2010    4       7       0.4299796       96.86624
2010    5       0       0.3809725       88.36248
2010    5       1       0.4059761       92.32023
2010    5       2       0.6908303       135.3705
2010    5       3       0.9972838       169.22
2010    5       4       1.40629         200.996
2010    5       5       1.685437        216.3093
2010    5       6       1.593104        210.5154
2010    5       7       0.8621699       153.9248
2010    6       0       0.6880137       134.2762
2010    6       1       0.921416        162.4062
2010    6       2       0.6966414       137.0381
2010    6       3       0.5211204       111.5411
2010    6       4       0.4189011       94.28146
2010    6       5       0.4266129       95.41333
2010    6       6       0.2609345       65.55543
2010    6       7       0.1997122       53.285
2010    7       0       0.1974631       52.72787
2010    7       1       0.2137227       56.20582
2010    7       2       0.2721817       68.16566
2010    7       3       0.2932283       72.29568
2010    7       4       0.2861202       70.85837
2010    7       5       0.2881958       71.17397
2010    7       6       0.2961881       72.60038
2010    7       7       0.3019774       73.78336
2010    8       0       0.3151218       76.42286
2010    8       1       0.352433        83.32238
2010    8       2       0.3881132       89.69923
2010    8       3       0.4704637       103.6401
2010    8       4       0.4149953       94.23242
2010    8       5       0.4083981       92.86856
2010    8       6       0.4127603       93.39107
2010    8       7       0.4013934       91.35704
2010    9       0       0.3914251       89.53959
2010    9       1       0.3776184       87.62784
2010    9       2       0.5080659       109.6735
2010    9       3       0.3464185       82.02536
2010    9       4       0.2958397       71.91709
2010    9       5       0.3408517       79.82736
2010    9       6       0.4911544       104.0576
2010    9       7       0.5940708       118.9028
2010    10      0       0.8625087       152.7539
2010    10      1       0.6411682       129.618
2010    10      2       2.155256        237.9057
2010    10      3       1.935917        230.6199
2010    10      4       1.590785        218.0011
2010    10      5       2.301452        243.791
2010    10      6       2.077576        236.8473
2010    10      7       1.39607         204.5801
2010    11      0       0.6411251       130.627
2010    11      1       0.3925469       91.07131
2010    11      2       0.5091896       111.1579
2010    11      3       0.4860587       106.377
2010    11      4       0.4732095       104.2743
2010    11      5       0.4164893       95.09464
2010    11      6       0.2794362       69.82001
2010    11      7       0.1940994       52.19659
2010    12      0       0.1820041       49.57591
2010    12      1       0.1804041       49.15338
2010    12      2       0.2114732       56.00489
2010    12      3       0.223391        58.04202
2010    12      4       0.5231661       109.8075
2010    12      5       0.7469002       139.1551
2010    12      6       1.108332        179.6462
2010    12      7       1.160181        187.1761
2010    13      0       2.637868        253.6729
2010    13      1       2.85368         257.4556
2010    13      2       2.32579         243.8677
2010    13      3       2.84291         254.4374
2010    13      4       2.937095        257.3134
2010    13      5       2.301459        239.2202
2010    13      6       1.708027        216.6096
2010    13      7       1.539771        208.0794
2010    14      0       1.160072        182.4625
2010    14      1       0.9861038       165.3497
2010    14      2       1.448828        202.0653
2010    14      3       1.505361        204.8872
2010    14      4       1.268318        189.4402
2010    14      5       1.386116        195.5238
2010    14      6       0.6712627       131.0459
2010    14      7       0.371106        86.14389
2010    15      0       0.3405895       80.05507
2010    15      1       0.3658833       85.33614
2010    15      2       0.4252983       96.34674
2010    15      3       0.4685262       103.5563
2010    15      4       0.4716728       103.7303
2010    15      5       0.5260716       112.3221
2010    15      6       0.2573402       64.71374
2010    15      7       0.2900834       71.20563
2010    16      0       0.2864518       70.40177
2010    16      1       0.2549891       64.226
2010    16      2       0.2383526       60.93519
2010    16      3       0.2341188       60.09734
2010    16      4       0.2337029       60.08471
2010    16      5       0.2265536       58.77431
2010    16      6       0.2127378       55.95152
2010    16      7       0.2182769       57.03809
2010    17      0       0.2173004       57.03551
2010    17      1       0.2236949       58.4244
2010    17      2       0.2279775       59.31724
2010    17      3       0.2555382       65.02845
2010    17      4       0.3217178       78.13502
2010    17      5       0.3539774       83.99002
2010    17      6       0.3973816       91.97363
2010    17      7       0.333133        79.93476
2010    18      0       0.3505488       82.4577
2010    18      1       0.3934763       89.64241
2010    18      2       0.4865383       104.6055
2010    18      3       0.6772571       132.2586
2010    18      4       0.9010846       157.6394
2010    18      5       1.0267          170.1878
2010    18      6       1.340419        193.8747
2010    18      7       1.369886        196.0161
2010    19      0       1.249294        187.7374
2010    19      1       1.000488        167.7736
2010    19      2       0.9095884       159.0019
2010    19      3       0.6638856       129.8932
2010    19      4       0.4239292       94.47706
2010    19      5       0.2084994       54.6604
2010    19      6       0.1539327       42.71215
2010    19      7       0.1478573       40.84507
2010    20      0       0.1865443       48.63221
2010    20      1       0.2130371       53.88741
2010    20      2       0.2238766       56.25235
2010    20      3       0.2211327       55.84264
2010    20      4       0.2747352       66.54961
2010    20      5       0.3117389       73.55621
2010    20      6       0.3014644       71.62003
2010    20      7       0.2877754       69.02276
2010    21      0       0.2862256       68.61409
2010    21      1       0.3017094       71.38479
2010    21      2       0.3544079       81.25297
2010    21      3       0.4377391       96.42659
2010    21      4       0.4733392       102.8211
2010    21      5       0.4426877       98.17978
2010    21      6       0.2820678       69.72023
2010    21      7       0.2943781       72.10576
2010    22      0       0.4271516       96.09936
2010    22      1       0.3768458       87.59875
2010    22      2       0.4030639       92.26676
2010    22      3       0.5017331       108.9759
2010    22      4       0.5172302       111.4547
2010    22      5       0.3819582       88.79944
2010    22      6       0.376395        87.62968
2010    22      7       0.4851487       106.0504
2010    23      0       0.6007051       123.7167
2010    23      1       0.7848842       147.8256
2010    23      2       0.9359597       164.5318
2010    23      3       0.7764802       146.8514
2010    23      4       0.612377        125.2025
2010    23      5       0.5693651       118.7413
2010    23      6       0.5894904       121.6392
2010    23      7       0.6291253       126.982
2010    24      0       0.7175322       138.2164
2010    24      1       0.8775879       155.9951
2010    24      2       0.7897007       145.9328
2010    24      3       0.7448948       140.3987
2010    24      4       0.5867006       119.7309
2010    24      5       0.5139708       108.9359
2010    24      6       0.5365174       112.345
2010    24      7       0.6263753       124.8657
2010    25      0       0.6550785       129.2535
2010    25      1       0.7210978       138.025
2010    25      2       0.793499        146.7097
2010    25      3       0.7267093       138.7807
2010    25      4       0.5561773       116.0172
2010    25      5       0.4113518       93.5095
2010    25      6       0.3202489       77.27582
2010    25      7       0.2649497       66.23202
2010    26      0       0.2081227       54.05364
2010    26      1       0.2042414       53.21404
2010    26      2       0.1729296       46.80123
2010    26      3       0.167051        45.58283
2010    26      4       0.1819335       48.84057
2010    26      5       0.1886388       50.2801
2010    26      6       0.1879291       50.10997
2010    26      7       0.1962192       51.87784
2010    27      0       0.2161375       55.98108
2010    27      1       0.2417228       60.97431
2010    27      2       0.2465955       61.7669
2010    27      3       0.2362442       59.40713
2010    27      4       0.2372468       59.38746
2010    27      5       0.2682544       65.76583
2010    27      6       0.2845566       69.59925
2010    27      7       0.3701622       85.49669
2010    28      0       0.6767192       132.8159
2010    28      1       1.144192        182.4072
2010    28      2       1.870629        225.9577
2010    28      3       2.24881         238.9538
2010    28      4       2.080786        234.3321
2010    28      5       1.335865        199.3132
2010    28      6       1.02665         173.1224
2010    28      7       1.223482        187.8315
2010    29      0       1.042712        173.0842
2010    29      1       1.860796        226.6025
2010    29      2       2.173409        237.6364
2010    29      3       1.548582        211.8474
2010    29      4       1.033848        174.5919
2010    29      5       0.9749571       169.0697
2010    29      6       1.242428        192.186
2010    29      7       0.9132157       162.921
2010    30      0       0.7727759       147.711
2010    30      1       1.042087        177.4254
2010    30      2       1.943937        231.4989
2010    30      3       1.517502        210.166
2010    30      4       1.559576        211.3993
2010    30      5       1.896846        227.0751
2010    30      6       1.676493        217.3504
2010    30      7       1.654127        217.1844
2010    31      0       0.9573011       166.6724
2010    31      1       1.300685        195.4138
2010    31      2       0.343335        82.11449
2010    31      3       0.4825628       105.0447
2010    31      4       1.003749        170.6519
2010    31      5       1.250293        191.1746
2010    31      6       1.104588        180.2097
2010    31      7       1.137125        182.2797
2011    1       0       0.2208255       57.10061
2011    1       1       0.2477384       62.73973
2011    1       2       0.2500779       63.13253
2011    1       3       0.2834641       69.47775
2011    1       4       0.3206679       76.79226
2011    1       5       0.2748891       67.87694
2011    1       6       0.2997092       72.26701
2011    1       7       0.3463844       80.89777
2011    2       0       0.3578768       83.40562
2011    2       1       0.3380891       79.9655
2011    2       2       0.3004387       72.92644
2011    2       3       0.2802269       68.96849
2011    2       4       0.2833022       69.74133
2011    2       5       0.3781169       87.91936
2011    2       6       0.5807303       120.965
2011    2       7       0.816902        151.3761
2011    3       0       1.061444        176.3935
2011    3       1       1.303903        195.9025
2011    3       2       1.773504        222.7918
2011    3       3       2.288932        241.1175
2011    3       4       2.222924        239.942
2011    3       5       2.156096        236.6395
2011    3       6       0.7198246       140.2405
2011    3       7       0.1554474       43.90047
2011    4       0       0.4507942       100.8683
2011    4       1       0.9318086       162.4513
2011    4       2       1.278449        190.6267
2011    4       3       1.067662        173.7619
2011    4       4       1.356326        196.4771
2011    4       5       1.619925        211.899
2011    4       6       1.341081        194.9212
2011    4       7       1.308041        192.5429
2011    5       0       0.6874318       133.7497
2011    5       1       0.9893633       167.9733
2011    5       2       0.9461445       164.4365
2011    5       3       1.221744        192.0851
2011    5       4       0.923267        164.7927
2011    5       5       0.6995763       137.1592
2011    5       6       0.8812852       158.0282
2011    5       7       0.9479751       164.5579
2011    6       0       1.083466        176.6305
2011    6       1       1.222211        187.3602
2011    6       2       1.393824        199.9266
2011    6       3       1.327727        195.1512
2011    6       4       1.354158        196.9255
2011    6       5       1.487842        204.3024
2011    6       6       1.244852        187.6884
2011    6       7       0.8607709       154.3904
2011    7       0       0.3410872       80.35762
2011    7       1       0.4723535       102.5273
2011    7       2       0.7527953       143.5512
2011    7       3       0.4303861       97.00419
2011    7       4       0.222661        57.7978
2011    7       5       0.1553353       43.51695
2011    7       6       0.1458092       41.4511
2011    7       7       0.1549101       43.54732
2011    8       0       0.1571754       44.04036
2011    8       1       0.1736561       47.70267
2011    8       2       0.1964559       52.69844
2011    8       3       0.27124         68.16664
2011    8       4       0.3866614       89.67363
2011    8       5       0.3292151       79.3634
2011    8       6       0.3006324       73.82224
2011    8       7       0.2077811       54.70918
2011    9       0       0.1324601       38.2875
2011    9       1       0.1126311       34.0415
2011    9       2       0.1642506       45.77031
2011    9       3       0.2021327       53.86691
2011    9       4       0.2002363       53.15001
2011    9       5       0.2564054       64.3733
2011    9       6       0.2858302       69.7762
2011    9       7       0.312029        74.76091
2011    10      0       0.247991        63.17321
2011    10      1       0.5995234       123.865
2011    10      2       1.244415        191.5962
2011    10      3       1.214868        189.2231
2011    10      4       1.264228        196.1818
2011    10      5       0.1764465       48.4898
2011    10      6       0.186915        50.55988
2011    10      7       0.3306909       79.26426
2011    11      0       0.4087486       93.33516
2011    11      1       0.5282051       112.66
2011    11      2       0.6734034       133.2808
2011    11      3       0.7110427       137.7398
2011    11      4       0.6193298       125.9483
2011    11      5       0.4265857       96.47972
2011    11      6       0.3802273       88.22307
2011    11      7       0.3784023       87.9551
2011    12      0       0.3781363       87.93835
2011    12      1       0.3393877       81.34758
2011    12      2       0.3529959       83.8171
2011    12      3       0.3880173       89.30155
2011    12      4       0.4303036       95.67242
2011    12      5       0.4801655       102.8598
2011    12      6       0.6297859       123.9846
2011    12      7       0.7104126       134.6652
2011    13      0       0.8464095       150.814
2011    13      1       1.0421          172.0428
2011    13      2       1.13416         180.7341
2011    13      3       0.8119843       149.0299
2011    13      4       0.8066408       149.134
2011    13      5       0.3263082       78.57882
2011    13      6       0.2042818       54.44131
2011    13      7       0.2038658       54.3289
2011    14      0       0.216119        56.75471
2011    14      1       0.2688697       67.47495
2011    14      2       0.2932188       72.30372
2011    14      3       0.2143163       56.50376
2011    14      4       0.1682295       46.74116
2011    14      5       0.1438063       41.25919
2011    14      6       0.1321064       38.4665
2011    14      7       0.118508        35.2917
2011    15      0       0.1156475       34.527
2011    15      1       0.1307975       37.93099
2011    15      2       0.1460722       41.3891
2011    15      3       0.1797902       49.02008
2011    15      4       0.2569543       65.30561
2011    15      5       0.1864933       50.42397
2011    15      6       0.180643        48.91855
2011    15      7       0.2986803       73.03677
2011    16      0       0.3803572       87.90393
2011    16      1       0.3360956       79.58302
2011    16      2       0.4724787       103.1036
2011    16      3       0.5464131       114.1728
2011    16      4       0.6764335       132.2122
2011    16      5       1.136016        180.8919
2011    16      6       1.467596        204.2642
2011    16      7       1.38992         199.7822
2011    17      0       1.358602        198.4129
2011    17      1       1.628008        215.048
2011    17      2       1.60198         213.4508
2011    17      3       1.676174        217.1219
2011    17      4       1.888047        226.5392
2011    17      5       2.33315         240.633
2011    17      6       1.826742        223.6496
2011    17      7       1.500006        207.643
2011    18      0       1.304303        194.0334
2011    18      1       1.123712        178.8159
2011    18      2       1.055166        170.8851
2011    18      3       0.9593591       162.466
2011    18      4       0.7410463       138.9681
2011    18      5       1.099116        176.4517
2011    18      6       1.53234         208.5522
2011    18      7       1.067177        176.4682
2011    19      0       1.141504        182.4221
2011    19      1       1.54466         211.1734
2011    19      2       1.570976        213.1901
2011    19      3       1.650476        217.7897
2011    19      4       1.573853        213.7259
2011    19      5       1.488785        208.8643
2011    19      6       1.384301        201.9967
2011    19      7       1.304343        196.2646
2011    20      0       1.286938        194.9694
2011    20      1       1.601797        214.1402
2011    20      2       1.66642         216.5339
2011    20      3       1.597636        212.7553
2011    20      4       1.443155        203.5551
2011    20      5       1.217837        188.0246
2011    20      6       1.082726        176.8452
2011    20      7       1.088027        177.1386
2011    21      0       1.118112        180.2819
2011    21      1       1.291502        194.4779
2011    21      2       1.529431        209.7761
2011    21      3       1.728029        219.9912
2011    21      4       1.567604        211.274
2011    21      5       1.359984        198.2599
2011    21      6       1.201937        186.6421
2011    21      7       1.268383        191.8811
2011    22      0       1.15637         182.8153
2011    22      1       1.018257        170.056
2011    22      2       0.7693292       143.1729
2011    22      3       0.4754541       101.7302
2011    22      4       0.3398555       78.94311
2011    22      5       0.2853044       68.99411
2011    22      6       0.2145546       55.37336
2011    22      7       0.1759416       47.50048
2011    23      0       0.1629625       44.61341
2011    23      1       0.2322443       58.57582
2011    23      2       0.3082405       72.62299
2011    23      3       0.3651146       82.99204
2011    23      4       0.4901161       103.8892
2011    23      5       0.7672557       141.7621
2011    23      6       1.354846        195.732
2011    23      7       1.601775        211.3417
2011    24      0       1.705996        216.4948
2011    24      1       1.67345         214.7541
2011    24      2       1.539024        208.5062
2011    24      3       1.234124        189.2563
2011    24      4       1.384531        199.3857
2011    24      5       1.96865         229.3182
2011    24      6       1.792921        222.6113
2011    24      7       1.581001        212.522
2011    25      0       1.58804         212.914
2011    25      1       1.432909        203.8913
2011    25      2       1.635895        215.0899
2011    25      3       1.678861        217.0589
2011    25      4       1.633044        215.3278
2011    25      5       1.616746        214.4786
2011    25      6       1.680499        217.5475
2011    25      7       0.8321627       152.4116
2011    26      0       0.5419707       114.3395
2011    26      1       0.7346696       140.6928
2011    26      2       1.274471        191.8375
2011    26      3       0.9648434       164.9101
2011    26      4       0.5800088       119.2806
2011    26      5       0.5420485       114.4669
2011    26      6       0.5061747       109.6488
2011    26      7       0.4714232       103.937
2011    27      0       0.4395258       98.59831
2011    27      1       0.4034364       92.48626
2011    27      2       0.2970673       73.01137
2011    27      3       0.2179367       56.97378
2011    27      4       0.2080664       54.82266
2011    27      5       0.1998088       53.0014
2011    27      6       0.1724228       47.07154
2011    27      7       0.1470321       41.39722
2011    28      0       0.1322806       38.25021
2011    28      1       0.1301147       37.82737
2011    28      2       0.137523        39.53722
2011    28      3       0.1487          42.06919
2011    28      4       0.1657072       45.88238
2011    28      5       0.1544043       43.38762
2011    28      6       0.1462127       41.49753
2011    28      7       0.1459345       41.36716
2011    29      0       0.1506955       42.40659
2011    29      1       0.1544377       43.26876
2011    29      2       0.1766044       48.39916
2011    29      3       0.2248652       58.84592
2011    29      4       0.2446764       62.80991
2011    29      5       0.2468807       62.99763
2011    29      6       0.2681546       66.79847
2011    29      7       0.2932026       71.14686
2011    30      0       0.3142212       74.85591
2011    30      1       0.4118184       92.22707
2011    30      2       0.7367059       139.7401
2011    30      3       1.442073        203.8438
2011    30      4       2.048736        233.9357
2011    30      5       2.170555        237.6937
2011    30      6       2.382302        242.8382
2011    30      7       2.293767        240.4496
2011    31      0       2.276518        240.1969
2011    31      1       1.230502        191.4111
2011    31      2       1.165797        186.3132
2011    31      3       0.9452199       165.5503
2011    31      4       0.9297877       163.6567
2011    31      5       0.8774352       158.6913
2011    31      6       0.9226398       163.7238
2011    31      7       1.006597        173.0229
2012    1       0       1.099331        176.0869
2012    1       1       1.358548        195.7392
2012    1       2       1.422941        200.2034
2012    1       3       1.460087        201.6784
2012    1       4       1.560957        208.3796
2012    1       5       0.9985274       167.9074
2012    1       6       0.9463313       163.0606
2012    1       7       1.102396        177.8111
2012    2       0       0.8592841       154.4773
2012    2       1       0.7940869       147.6063
2012    2       2       0.8954923       159.3214
2012    2       3       0.7936901       147.7246
2012    2       4       0.7329873       140.4246
2012    2       5       0.5397518       113.6695
2012    2       6       0.7201036       138.2974
2012    2       7       0.7102201       137.5332
2012    3       0       0.4586078       101.3258
2012    3       1       0.3592976       84.31625
2012    3       2       0.5650665       118.1692
2012    3       3       0.6270794       127.0411
2012    3       4       0.3813045       88.69041
2012    3       5       0.2520339       64.14758
2012    3       6       0.2554137       64.47655
2012    3       7       0.2409591       61.39791
2012    4       0       0.2589179       64.71113
2012    4       1       0.2717187       67.31661
2012    4       2       0.3543206       83.20687
2012    4       3       0.3541385       82.96744
2012    4       4       0.3004368       72.80289
2012    4       5       0.2867652       70.20871
2012    4       6       0.2807655       69.11477
2012    4       7       0.3503294       82.21687
2012    5       0       0.3809685       87.73025
2012    5       1       0.3205727       76.89327
2012    5       2       0.3499553       82.62132
2012    5       3       0.2748253       68.41118
2012    5       4       0.2339048       59.83961
2012    5       5       0.228705        58.30284
2012    5       6       0.2173763       55.50671
2012    5       7       0.2353347       58.78507
2012    6       0       0.2984239       70.959
2012    6       1       0.3730806       84.8571
2012    6       2       0.394107        89.11445
2012    6       3       0.3977615       89.93811
2012    6       4       0.4468972       98.15465
2012    6       5       0.4661149       101.5962
2012    6       6       0.4580653       100.5922
2012    6       7       0.4464376       98.71028
2012    7       0       0.4505434       99.45472
2012    7       1       0.4491695       99.45758
2012    7       2       0.4519206       100.3108
2012    7       3       0.454665        101.0074
2012    7       4       0.4284852       96.62663
2012    7       5       0.4127238       93.7499
2012    7       6       0.3980456       91.01787
2012    7       7       0.3578591       84.03378
2012    8       0       0.3270896       78.38003
2012    8       1       0.3197915       76.70551
2012    8       2       0.2910345       71.10619
2012    8       3       0.3026547       72.67067
2012    8       4       0.3464019       80.21426
2012    8       5       0.2982136       71.52098
2012    8       6       0.3010114       72.73167
2012    8       7       0.4440112       98.7137
2012    9       0       0.6390973       128.7329
2012    9       1       0.7916922       150.2997
2012    9       2       0.9288377       165.9271
2012    9       3       1.041249        175.4688
2012    9       4       1.131821        182.9035
2012    9       5       1.17611         186.232
2012    9       6       1.121202        180.4501
2012    9       7       1.897023        226.8041
2012    10      0       2.076255        233.4814
2012    10      1       2.173091        236.4851
2012    10      2       2.28852         241.0566
2012    10      3       1.9678          230.1403
2012    10      4       2.040093        230.5358
2012    10      5       1.461332        204.836
2012    10      6       1.077263        176.3129
2012    10      7       0.9938267       167.8623
2012    11      0       0.846801        153.6689
2012    11      1       0.4819627       105.3631
2012    11      2       0.3890992       88.52852
2012    11      3       0.6231346       123.8842
2012    11      4       0.7457756       138.9411
2012    11      5       1.030732        172.5037
2012    11      6       1.806452        223.1737
2012    11      7       1.855151        225.0883
2012    12      0       2.08632         235.2279
2012    12      1       1.629705        216.327
2012    12      2       1.355331        198.7113
2012    12      3       2.013139        229.6167
2012    12      4       1.945315        228.0493
2012    12      5       1.954212        228.6234
2012    12      6       1.69776         218.2435
2012    12      7       1.021015        173.4004
2012    13      0       0.7747125       147.5196
2012    13      1       1.166488        186.8278
2012    13      2       1.185103        188.5832
2012    13      3       1.161692        186.6343
2012    13      4       0.9934291       173.3556
2012    13      5       0.9533035       167.291
2012    13      6       0.8369533       154.444
2012    13      7       0.477709        105.3299
2012    14      0       0.6065918       124.736
2012    14      1       0.980105        167.9711
2012    14      2       1.242717        189.9934
2012    14      3       0.9735847       165.6325
2012    14      4       1.240722        187.5261
2012    14      5       1.28735         190.6779
2012    14      6       1.103089        178.1771
2012    14      7       0.8779031       157.5169
2012    15      0       0.3200177       76.61389
2012    15      1       0.422058        95.22044
2012    15      2       0.4668277       103.7878
2012    15      3       0.6262381       129.8226
2012    15      4       0.6694866       136.7164
2012    15      5       0.4180798       96.03041
2012    15      6       0.2629421       66.32368
2012    15      7       0.2059258       54.28356
2012    16      0       0.2520495       63.63167
2012    16      1       0.2789758       69.14391
2012    16      2       0.3391604       81.281
2012    16      3       0.41316         94.90484
2012    16      4       0.4363757       98.65771
2012    16      5       0.409217        93.72527
2012    16      6       0.3590432       84.69496
2012    16      7       0.3559211       83.94704
2012    17      0       0.3298166       78.9837
2012    17      1       0.3111082       75.72644
2012    17      2       0.354422        83.71195
2012    17      3       0.3500668       82.62743
2012    17      4       0.4528507       100.6221
2012    17      5       0.3858748       88.24353
2012    17      6       0.3840756       87.84433
2012    17      7       0.3290176       77.50411
2012    18      0       0.401926        89.71899
2012    18      1       0.6015318       121.7282
2012    18      2       0.7743243       144.6492
2012    18      3       0.639377        127.3247
2012    18      4       0.6608625       130.032
2012    18      5       0.5819966       119.0624
2012    18      6       0.4119558       92.50922
2012    18      7       0.3957072       89.56873
2012    19      0       0.4734123       102.0351
2012    19      1       0.6088604       122.4508
2012    19      2       0.8413302       151.965
2012    19      3       1.051797        174.3121
2012    19      4       0.7939052       148.9601
2012    19      5       0.6526808       132.4463
2012    19      6       0.4472811       100.3135
2012    19      7       0.3092215       75.20433
2012    20      0       0.2758324       68.55155
2012    20      1       0.2656902       67.25538
2012    20      2       0.229309        59.9332
2012    20      3       0.2080473       55.12977
2012    20      4       0.210654        54.4373
2012    20      5       0.2204637       56.06547
2012    20      6       0.2533805       62.40252
2012    20      7       0.3284969       77.04285
2012    21      0       0.2559829       64.50543
2012    21      1       0.1850553       50.71744
2012    21      2       0.2877629       71.80595
2012    21      3       0.4418883       100.4922
2012    21      4       0.3901352       91.55367
2012    21      5       0.3611044       85.90124
2012    21      6       0.349562        83.04404
2012    21      7       0.3395116       80.43027
2012    22      0       0.3361709       79.37113
2012    22      1       0.2906832       70.91185
2012    22      2       0.3014454       73.48722
2012    22      3       0.3072293       74.59627
2012    22      4       0.3095603       74.88591
2012    22      5       0.3543825       83.24782
2012    22      6       0.3658899       85.19085
2012    22      7       0.3633843       84.81144
2012    23      0       0.3474906       82.18296
2012    23      1       0.3472927       82.15768
2012    23      2       0.3297451       79.06333
2012    23      3       0.3155445       76.51128
2012    23      4       0.3267534       78.3809
2012    23      5       0.3465799       82.1026
2012    23      6       0.3473036       82.17097
2012    23      7       0.3175593       76.49606
2012    24      0       0.3227266       77.45425
2012    24      1       0.3634469       84.68854
2012    24      2       0.3976546       90.46278
2012    24      3       0.4324638       95.75459
2012    24      4       0.4030083       90.84979
2012    24      5       0.507634        106.7914
2012    24      6       0.4864175       103.8647
2012    24      7       0.4135872       92.92287
2012    25      0       0.4277509       95.06224
2012    25      1       0.5865958       120.6975
2012    25      2       1.013492        170.625
2012    25      3       1.482006        207.2243
2012    25      4       1.564228        211.3172
2012    25      5       1.958653        228.7319
2012    25      6       1.84802         225.1174
2012    25      7       1.366799        199.5332
2012    26      0       1.179319        185.6675
2012    26      1       1.184874        186.5558
2012    26      2       1.103089        179.8573
2012    26      3       1.055389        175.0777
2012    26      4       0.973477        166.7275
2012    26      5       0.990479        168.3252
2012    26      6       1.109814        178.8949
2012    26      7       1.279551        191.5235
2012    27      0       1.280418        191.2879
2012    27      1       1.215034        186.884
2012    27      2       1.279991        192.2058
2012    27      3       1.207581        186.8025
2012    27      4       1.159946        183.4147
2012    27      5       0.9815381       167.5765
2012    27      6       0.71308         137.9068
2012    27      7       0.6782784       133.2591
2012    28      0       0.5558481       116.1365
2012    28      1       1.001741        170.1313
2012    28      2       0.7856431       147.2643
2012    28      3       0.960003        166.4394
2012    28      4       1.305031        195.5411
2012    28      5       0.5921347       121.9414
2012    28      6       0.3505088       82.73423
2012    28      7       0.4094775       93.29095
2012    29      0       0.5134066       109.8065
2012    29      1       0.6505176       129.1541
2012    29      2       0.6864249       133.7183
2012    29      3       0.6758853       132.3325
2012    29      4       0.5258077       111.312
2012    29      5       0.2745668       68.38744
2012    29      6       0.2337345       60.1366
2012    29      7       0.2266244       58.81186
2012    30      0       0.2275483       58.99183
2012    30      1       0.2898648       71.36002
2012    30      2       0.2934198       71.74331
2012    30      3       0.3129299       75.43957
2012    30      4       0.3479437       81.87024
2012    30      5       0.3827559       87.91422
2012    30      6       0.3794077       87.08645
2012    30      7       0.3832299       87.67309
2012    31      0       0.4535604       99.13026
2012    31      1       0.7812717       144.3605
2012    31      2       1.116811        177.3672
2012    31      3       0.963776        163.321
2012    31      4       0.7738425       142.8617
2012    31      5       0.7667126       141.7643
2012    31      6       0.7448854       139.181
2012    31      7       0.7456364       139.5301
2013    1       0       0.3609966       84.47044
2013    1       1       0.3144467       76.03203
2013    1       2       0.2679361       67.26444
2013    1       3       0.2145071       56.21976
2013    1       4       0.2203701       57.51503
2013    1       5       0.2421296       62.23891
2013    1       6       0.2330551       60.67529
2013    1       7       0.2341787       60.99581
2013    2       0       0.2400693       62.1627
2013    2       1       0.2256417       58.99726
2013    2       2       0.2250266       58.83309
2013    2       3       0.2320043       60.25321
2013    2       4       0.2113          55.73705
2013    2       5       0.1843069       49.78923
2013    2       6       0.1696679       46.78855
2013    2       7       0.1657729       45.93605
2013    3       0       0.1738526       47.86935
2013    3       1       0.1873915       50.8097
2013    3       2       0.1632799       45.40906
2013    3       3       0.1319087       38.37957
2013    3       4       0.150863        42.93114
2013    3       5       0.1873067       51.06082
2013    3       6       0.1930806       52.43496
2013    3       7       0.2164511       57.64008
2013    4       0       0.2537401       65.35262
2013    4       1       0.3060657       75.77887
2013    4       2       0.6629138       134.1935
2013    4       3       0.8839892       160.809
2013    4       4       1.195209        188.7591
2013    4       5       1.718268        219.9784
2013    4       6       1.950816        229.872
2013    4       7       1.117635        179.2874
2013    5       0       0.5505954       115.728
2013    5       1       0.8213021       151.202
2013    5       2       0.9900075       168.8882
2013    5       3       0.4804286       105.1831
2013    5       4       0.5571627       117.1054
2013    5       5       0.3649451       85.81167
2013    5       6       0.3291625       79.34464
2013    5       7       0.2676499       67.66696
2013    6       0       0.2453161       63.09637
2013    6       1       0.500536        108.8185
2013    6       2       0.6913521       135.9964
2013    6       3       0.9286954       163.1425
2013    6       4       1.118343        180.3619
2013    6       5       1.210902        187.7684
2013    6       6       1.130279        181.658
2013    6       7       0.8422963       153.6182
2013    7       0       0.6319106       127.3018
2013    7       1       0.7875908       146.9211
2013    7       2       1.126138        180.7089
2013    7       3       1.158548        183.2118
2013    7       4       1.380454        199.239
2013    7       5       1.349906        197.1811
2013    7       6       1.302152        193.8185
2013    7       7       1.072483        175.8073
2013    8       0       0.7299621       139.6547
2013    8       1       0.7421129       141.0818
2013    8       2       0.5090148       108.6466
2013    8       3       0.4437925       97.93794
2013    8       4       0.3663966       84.89943
2013    8       5       0.3333741       79.0101
2013    8       6       0.3032599       73.42302
2013    8       7       0.2969573       72.05701
2013    9       0       0.287913        70.38501
2013    9       1       0.2921668       71.41524
2013    9       2       0.3353443       79.62716
2013    9       3       0.4839008       104.5146
2013    9       4       0.6088696       122.1934
2013    9       5       0.5879927       119.1731
2013    9       6       0.6853954       132.4369
2013    9       7       0.8067915       146.9106
2013    10      0       0.8560049       153.0324
2013    10      1       1.17315         184.3516
2013    10      2       0.9042968       160.1489
2013    10      3       0.541544        114.4961
2013    10      4       0.3693182       86.07519
2013    10      5       0.2833659       69.65669
2013    10      6       0.2855938       69.4348
2013    10      7       0.3179418       74.91638
2013    11      0       0.3743987       84.60728
2013    11      1       0.397665        88.61133
2013    11      2       0.3650508       83.52463
2013    11      3       0.3586094       82.66914
2013    11      4       0.3450205       80.41596
2013    11      5       0.3485737       81.43183
2013    11      6       0.5736023       118.3321
2013    11      7       0.7138444       138.1903
2013    12      0       0.7114986       138.2052
2013    12      1       0.6987101       136.8892
2013    12      2       0.7352652       141.8257
2013    12      3       0.7559585       143.6566
2013    12      4       0.7901872       147.7415
2013    12      5       0.9666804       166.8321
2013    12      6       1.178027        185.6514
2013    12      7       1.321731        196.4851
2013    13      0       1.229064        189.5982
2013    13      1       1.175901        184.9374
2013    13      2       1.312212        196.122
2013    13      3       1.772396        223.1322
2013    13      4       2.152394        238.2068
2013    13      5       2.152668        238.813
2013    13      6       2.394162        245.6865
2013    13      7       2.278596        243.3605
2013    14      0       2.464549        247.7498
2013    14      1       2.389239        244.9668
2013    14      2       2.323724        242.8412
2013    14      3       2.515627        247.1252
2013    14      4       2.069052        237.218
2013    14      5       1.284694        196.4888
2013    14      6       1.383602        203.2196
2013    14      7       1.333927        199.6513
2013    15      0       1.274808        195.038
2013    15      1       1.136266        183.6968
2013    15      2       0.9562177       166.2796
2013    15      3       1.660558        218.0712
2013    15      4       1.672539        218.4503
2013    15      5       1.700964        220.0565
2013    15      6       1.775538        223.5696
2013    15      7       1.669203        218.5788
2013    16      0       1.606613        215.512
2013    16      1       1.555722        213.4039
2013    16      2       1.864983        227.7436
2013    16      3       1.488805        208.967
2013    16      4       1.228919        191.9983
2013    16      5       1.38717         203.7571
2013    16      6       1.399267        204.789
2013    16      7       1.016526        175.9437
2013    17      0       1.08977         181.3711
2013    17      1       1.845261        227.7817
2013    17      2       1.378434        201.1163
2013    17      3       1.605958        214.6223
2013    17      4       1.248638        192.0893
2013    17      5       0.9840257       168.5142
2013    17      6       1.333621        196.0952
2013    17      7       0.951684        165.5825
2013    18      0       0.9615411       165.5109
2013    18      1       1.151134        185.2531
2013    18      2       1.489769        210.0472
2013    18      3       1.874296        229.7064
2013    18      4       2.150699        240.5382
2013    18      5       2.360403        247.1323
2013    18      6       2.906527        257.4007
2013    18      7       2.388909        243.4088
2013    19      0       1.203085        189.7565
2013    19      1       0.999872        171.7305
2013    19      2       1.233111        191.0714
2013    19      3       1.159521        184.7135
2013    19      4       1.785578        223.5843
2013    19      5       1.063941        176.1352
2013    19      6       1.019629        171.5083
2013    19      7       1.199656        185.9794
2013    20      0       1.4648          203.7653
2013    20      1       1.238783        185.5114
2013    20      2       1.109226        175.5574
2013    20      3       1.194249        182.9194
2013    20      4       1.011132        166.873
2013    20      5       0.8654365       152.6133
2013    20      6       0.5183715       108.5974
2013    20      7       0.5604244       114.9026
2013    21      0       0.5697012       116.7415
2013    21      1       0.5530998       114.1754
2013    21      2       0.6202989       123.7963
2013    21      3       0.5712606       117.2088
2013    21      4       0.5369935       112.4418
2013    21      5       0.5207477       110.1704
2013    21      6       0.4858562       104.7176
2013    21      7       0.4598754       100.2893
2013    22      0       0.5521631       114.253
2013    22      1       0.6222512       124.2762
2013    22      2       0.8325771       150.6429
2013    22      3       0.9932306       166.9913
2013    22      4       0.9369977       161.5775
2013    22      5       1.022589        170.497
2013    22      6       0.9237874       160.3793
2013    22      7       1.088651        175.6224
2013    23      0       1.109064        178.989
2013    23      1       0.8297192       152.3104
2013    23      2       0.669129        133.2524
2013    23      3       0.5255413       112.7675
2013    23      4       0.3332611       80.02277
2013    23      5       0.2790415       69.61093
2013    23      6       0.2318751       59.85479
2013    23      7       0.2432594       61.75806
2013    24      0       0.1953101       52.01112
2013    24      1       0.1698876       46.65146
2013    24      2       0.1891654       50.86178
2013    24      3       0.1687893       46.60138
2013    24      4       0.1652911       45.8568
2013    24      5       0.1687317       46.69711
2013    24      6       0.161495        45.14118
2013    24      7       0.1603419       45.07613
2013    25      0       0.190332        51.75661
2013    25      1       0.2533472       64.79457
2013    25      2       0.3259919       77.87545
2013    25      3       0.3899287       88.43395
2013    25      4       0.4347359       95.98997
2013    25      5       0.5031809       106.9046
2013    25      6       0.4516545       98.43618
2013    25      7       0.3589733       83.40597
2013    26      0       0.4414811       98.06738
2013    26      1       0.4364943       97.36949
2013    26      2       0.4793464       105.5009
2013    26      3       0.8682243       158.3148
2013    26      4       0.4845552       106.7085
2013    26      5       0.2989352       73.52421
2013    26      6       0.2491128       63.09163
2013    26      7       0.2599461       64.63102
2013    27      0       0.2765189       67.29941
2013    27      1       0.3070253       73.25972
2013    27      2       0.2589047       64.58962
2013    27      3       0.336273        78.6792
2013    27      4       0.438909        96.30032
2013    27      5       0.5896124       118.1341
2013    27      6       0.4931436       104.6778
2013    27      7       0.450542        98.07406
2013    28      0       0.3893731       88.36817
2013    28      1       0.2884331       70.97778
2013    28      2       0.4095647       93.92352
2013    28      3       0.833819        153.9837
2013    28      4       1.564024        213.1673
2013    28      5       1.779392        224.9877
2013    28      6       1.751872        224.3668
2013    28      7       2.195414        240.9425
2013    29      0       1.357065        201.6279
2013    29      1       1.243425        192.5934
2013    29      2       1.052834        176.6203
2013    29      3       1.283051        195.19
2013    29      4       1.33608         198.1886
2013    29      5       1.266571        193.8767
2013    29      6       1.1612          185.9369
2013    29      7       1.163204        185.8313
2013    30      0       0.9760094       169.0431
2013    30      1       0.7038177       138.074
2013    30      2       0.7588968       144.8922
2013    30      3       0.9629379       167.4905
2013    30      4       0.5126226       110.0961
2013    30      5       0.3759505       86.6431
2013    30      6       0.2630619       65.6239
2013    30      7       0.2224765       57.78944
2013    31      0       0.2165492       56.65507
2013    31      1       0.2418306       61.91932
2013    31      2       0.2702225       67.72788
2013    31      3       0.2583546       65.15756
2013    31      4       0.2208097       57.30371
2013    31      5       0.2316948       59.41598
2013    31      6       0.222718        57.68778
2013    31      7       0.2012905       53.24439
2014    1       0       0.6326596       126.0612
2014    1       1       0.9253978       161.5579
2014    1       2       0.9650651       165.8273
2014    1       3       1.32369         197.0015
2014    1       4       1.100752        179.1662
2014    1       5       0.9009476       160.5879
2014    1       6       0.7785022       146.8872
2014    1       7       0.7657296       145.0382
2014    2       0       0.810261        150.7359
2014    2       1       0.7915588       149.6163
2014    2       2       0.7127512       140.4103
2014    2       3       0.578436        122.6957
2014    2       4       0.5743823       122.6256
2014    2       5       0.5981652       126.3931
2014    2       6       0.5652694       121.5898
2014    2       7       0.4902088       109.8271
2014    3       0       0.38015         90.8746
2014    3       1       0.3307711       81.33839
2014    3       2       0.3406985       83.3964
2014    3       3       0.3357199       82.38731
2014    3       4       0.2861232       72.04702
2014    3       5       0.2414233       62.47803
2014    3       6       0.1485977       42.28821
2014    3       7       0.1938303       51.02542
2014    4       0       0.1960627       51.93604
2014    4       1       0.5110228       107.8131
2014    4       2       0.7403035       140.2737
2014    4       3       0.7389255       142.4585
2014    4       4       0.8582621       155.99
2014    4       5       0.8128558       150.2225
2014    4       6       1.018846        170.7382
2014    4       7       1.042666        172.8292
2014    5       0       0.8199881       150.6789
2014    5       1       0.8277632       151.9235
2014    5       2       0.8634561       155.7688
2014    5       3       1.126704        180.8574
2014    5       4       1.183892        185.8313
2014    5       5       1.169449        184.2918
2014    5       6       1.079296        176.1538
2014    5       7       1.084228        176.4462
2014    6       0       1.21057         186.3575
2014    6       1       1.33348         195.044
2014    6       2       1.114985        179.1918
2014    6       3       1.070616        175.8924
2014    6       4       0.7687936       145.5341
2014    6       5       0.4589995       102.2307
2014    6       6       0.484407        106.2666
2014    6       7       0.4481492       100.5786
2014    7       0       0.5166411       111.4611
2014    7       1       0.5324242       113.352
2014    7       2       0.371342        86.60891
2014    7       3       0.2710221       67.04391
2014    7       4       0.306692        73.59355
2014    7       5       0.3877546       87.78559
2014    7       6       0.3408881       79.69235
2014    7       7       0.30519         73.39249
2014    8       0       0.2810471       69.01368
2014    8       1       0.2690461       66.68975
2014    8       2       0.2090513       54.63773
2014    8       3       0.2299662       58.53364
2014    8       4       0.2016136       53.46721
2014    8       5       0.3144184       75.99037
2014    8       6       0.7090943       137.2062
2014    8       7       1.025675        170.649
2014    9       0       1.524214        206.2194
2014    9       1       0.6018897       120.9151
2014    9       2       1.295075        190.6061
2014    9       3       1.100113        175.0819
2014    9       4       1.283885        190.3206
2014    9       5       1.219643        186.0795
2014    9       6       1.087157        175.2583
2014    9       7       0.8749314       153.9477
2014    10      0       0.4920528       105.7393
2014    10      1       0.3655043       84.33362
2014    10      2       0.9180586       160.8485
2014    10      3       0.9853893       170.5814
2014    10      4       0.9062796       163.8879
2014    10      5       0.5931273       122.7673
2014    10      6       0.4173182       94.89233
2014    10      7       0.3235061       78.49877
2014    11      0       0.2494207       63.68703
2014    11      1       0.240496        61.87168
2014    11      2       0.2606192       65.88527
2014    11      3       0.2718103       68.20151
2014    11      4       0.3719166       86.98067
2014    11      5       0.5950226       123.9173
2014    11      6       0.8233845       153.5411
2014    11      7       1.096045        178.4297
2014    12      0       1.385606        199.5901
2014    12      1       0.8012045       147.9314
2014    12      2       0.5769109       118.88
2014    12      3       0.3863092       88.64438
2014    12      4       0.2007027       52.71702
2014    12      5       0.2423647       60.96375
2014    12      6       0.3605931       83.70787
2014    12      7       0.3774032       87.12482
2014    13      0       0.3701668       85.95449
2014    13      1       0.554477        115.5676
2014    13      2       0.6665751       131.6338
2014    13      3       0.6090851       124.8303
2014    13      4       0.5406192       115.4736
2014    13      5       0.5540842       117.3505
2014    13      6       0.5840476       121.7288
2014    13      7       0.5979641       123.9152
2014    14      0       0.6634758       133.0761
2014    14      1       0.7443432       142.6151
2014    14      2       0.7994876       148.8601
2014    14      3       0.8551684       154.555
2014    14      4       0.9280915       161.0392
2014    14      5       0.9838572       166.1012
2014    14      6       1.206782        185.8672
2014    14      7       1.270773        190.2283
2014    15      0       1.440853        202.5627
2014    15      1       1.946802        227.7782
2014    15      2       1.895263        226.7149
2014    15      3       1.97649         228.7918
2014    15      4       1.735549        219.7644
2014    15      5       1.974701        229.428
2014    15      6       1.772542        220.8387
2014    15      7       1.51044         208.1134
2014    16      0       1.24035         189.5468
2014    16      1       1.26431         191.6195
2014    16      2       1.047468        174.3826
2014    16      3       0.7614638       145.1178
2014    16      4       0.7747679       146.5276
2014    16      5       0.6473401       130.4447
2014    16      6       1.181738        186.6124
2014    16      7       1.453988        204.4222
2014    17      0       0.9738585       165.8858
2014    17      1       0.4047321       91.83437
2014    17      2       0.8112006       148.0057
2014    17      3       1.091426        173.9936
2014    17      4       1.019909        167.9781
2014    17      5       0.5287438       109.1729
2014    17      6       0.8796649       154.3529
2014    17      7       1.193789        183.9465
2014    18      0       0.6927329       134.4659
2014    18      1       0.8284455       151.482
2014    18      2       0.5387058       113.9384
2014    18      3       0.2100827       55.2931
2014    18      4       0.1817947       48.90891
2014    18      5       0.2268703       58.36099
2014    18      6       0.2642642       65.71888
2014    18      7       0.2714219       67.4376
2014    19      0       0.3227162       77.18482
2014    19      1       0.4017295       91.57358
2014    19      2       0.4587043       102.0671
2014    19      3       0.5094948       110.6882
2014    19      4       0.4612016       102.8767
2014    19      5       0.4021437       92.89434
2014    19      6       0.3791331       88.14241
2014    19      7       0.3437242       81.21473
2014    20      0       0.3193105       76.23399
2014    20      1       0.3450803       80.77128
2014    20      2       0.4166533       93.77143
2014    20      3       0.4569202       100.3606
2014    20      4       0.5265691       110.7692
2014    20      5       0.6543264       128.3143
2014    20      6       0.7565716       140.969
2014    20      7       0.7577704       141.3487
2014    21      0       0.7870242       144.3447
2014    21      1       0.7923375       144.7998
2014    21      2       0.7793509       143.1604
2014    21      3       0.7586434       140.8104
2014    21      4       0.7909432       144.5998
2014    21      5       0.8391825       149.8378
2014    21      6       0.7821811       143.6663
2014    21      7       0.7088318       135.1509
2014    22      0       0.6799207       132.1047
2014    22      1       0.7223788       137.648
2014    22      2       0.7560302       142.183
2014    22      3       0.7659137       143.9614
2014    22      4       0.7526887       142.896
2014    22      5       0.7885807       146.7495
2014    22      6       0.6978559       135.3898
2014    22      7       0.5499575       115.2013
2014    23      0       0.5387203       113.2379
2014    23      1       0.5615956       116.2796
2014    23      2       0.5936901       120.6476
2014    23      3       0.654532        128.8599
2014    23      4       0.6854055       133.0133
2014    23      5       0.6975671       134.8655
2014    23      6       0.7557131       141.7051
2014    23      7       0.9199735       159.3421
2014    24      0       1.012761        168.222
2014    24      1       1.461839        203.5589
2014    24      2       1.452025        203.9367
2014    24      3       1.283141        194.547
2014    24      4       1.181416        186.703
2014    24      5       0.9972495       170.9261
2014    24      6       0.8967951       160.887
2014    24      7       0.6330679       128.3997
2014    25      0       0.5660282       118.4296
2014    25      1       0.679188        134.3307
2014    25      2       0.9317853       164.0801
2014    25      3       0.8822522       158.7897
2014    25      4       1.024606        172.977
2014    25      5       1.018516        172.2666
2014    25      6       1.018081        172.008
2014    25      7       0.9874742       168.7449
2014    26      0       1.306812        194.8351
2014    26      1       1.693385        217.6407
2014    26      2       1.737653        220.3053
2014    26      3       1.323953        196.7363
2014    26      4       1.019982        172.6228
2014    26      5       0.7006797       138.0453
2014    26      6       0.5427985       115.9605
2014    26      7       0.4394799       98.6853
2014    27      0       0.3487165       81.94997
2014    27      1       0.3114368       75.31337
2014    27      2       0.2928235       71.76976
2014    27      3       0.3207315       76.76105
2014    27      4       0.3456174       81.39639
2014    27      5       0.3424088       81.32816
2014    27      6       0.2686154       67.81119
2014    27      7       0.359544        85.62843
2014    28      0       0.772061        147.9339
2014    28      1       0.9642029       168.0784
2014    28      2       1.253418        192.5131
2014    28      3       1.435732        205.051
2014    28      4       0.7389964       143.2083
2014    28      5       0.926424        164.5872
2014    28      6       0.7778814       147.2194
2014    28      7       0.6720687       132.7846
2014    29      0       0.7506101       142.4055
2014    29      1       0.780811        146.8898
2014    29      2       0.9838926       169.9167
2014    29      3       1.489839        211.3018
2014    29      4       1.450568        209.7629
2014    29      5       1.339668        202.8368
2014    29      6       1.311629        198.7159
2014    29      7       1.156576        185.9449
2014    30      0       1.047504        176.055
2014    30      1       1.145813        185.2786
2014    30      2       1.355433        202.5256
2014    30      3       0.6909141       139.972
2014    30      4       0.5041237       112.4778
2014    30      5       0.5882961       125.2964
2014    30      6       0.601077        126.0135
2014    30      7       0.4502614       102.3564
2014    31      0       0.6437557       131.7296
2014    31      1       0.5877729       123.3591
2014    31      2       0.7247845       142.2283
2014    31      3       0.9445838       167.1585
2014    31      4       1.350003        200.2281
2014    31      5       1.20113         187.4916
2014    31      6       0.5004285       107.1642
2014    31      7       0.7812148       143.4937
2015    1       0       0.2786802       69.67412
2015    1       1       0.2266904       59.08313
2015    1       2       0.2636959       66.05168
2015    1       3       0.3120514       74.78943
2015    1       4       0.490748        103.9869
2015    1       5       0.7110723       134.2445
2015    1       6       0.5109601       109.1097
2015    1       7       0.861557        158.8388
2015    2       0       1.14827         184.3736
2015    2       1       0.6682266       131.3746
2015    2       2       0.2290253       59.15719
2015    2       3       0.1507443       42.45285
2015    2       4       0.1868154       50.25807
2015    2       5       0.2323931       58.97613
2015    2       6       0.2796249       68.40332
2015    2       7       0.3073993       73.89642
2015    3       0       0.3140788       75.47002
2015    3       1       0.3334266       79.39809
2015    3       2       0.3366662       80.1882
2015    3       3       0.3144949       76.1316
2015    3       4       0.3751904       85.44141
2015    3       5       0.5421477       111.1506
2015    3       6       0.9939951       167.2135
2015    3       7       1.339546        195.7245
2015    4       0       1.291864        192.6384
2015    4       1       1.492602        206.2498
2015    4       2       1.492064        206.6833
2015    4       3       1.449277        204.2643
2015    4       4       1.435323        203.1343
2015    4       5       1.428179        202.4456
2015    4       6       1.167923        184.2522
2015    4       7       0.9338032       163.1594
2015    5       0       0.8849495       157.4711
2015    5       1       0.8585805       154.5538
2015    5       2       0.7270707       139.0256
2015    5       3       0.6308006       126.2779
2015    5       4       0.553535        115.6561
2015    5       5       0.5576355       116.4123
2015    5       6       0.528258        112.1368
2015    5       7       0.5231684       111.3752
2015    6       0       0.5976664       121.9841
2015    6       1       0.732089        139.2556
2015    6       2       0.9229227       160.2601
2015    6       3       1.037124        171.1948
2015    6       4       1.040107        171.5329
2015    6       5       0.9867463       166.7531
2015    6       6       0.9213172       160.1945
2015    6       7       0.9409517       162.3442
2015    7       0       0.8857071       157.1786
2015    7       1       0.7551679       143.2397
2015    7       2       0.5825465       120.8451
2015    7       3       0.4104164       93.86579
2015    7       4       0.2826924       70.4568
2015    7       5       0.1979632       53.07746
2015    7       6       0.1631955       45.49067
2015    7       7       0.1374669       39.50548
2015    8       0       0.125521        36.73563
2015    8       1       0.1222391       35.92512
2015    8       2       0.1261988       36.7272
2015    8       3       0.1360611       38.74415
2015    8       4       0.1568459       43.37912
2015    8       5       0.2248142       57.99885
2015    8       6       0.2900078       71.29075
2015    8       7       0.2939197       71.92544
2015    9       0       0.2809955       69.38398
2015    9       1       0.3210809       77.26048
2015    9       2       0.3367818       80.33116
2015    9       3       0.4609392       102.2414
2015    9       4       0.8185541       153.3205
2015    9       5       0.9163746       161.6504
2015    9       6       1.376085        199.3849
2015    9       7       1.913938        226.562
2015    10      0       1.516655        207.5332
2015    10      1       0.7312872       139.338
2015    10      2       0.8678322       156.2329
2015    10      3       1.085435        177.279
2015    10      4       1.119452        179.9705
2015    10      5       1.080556        176.8962
2015    10      6       1.188433        185.8029
2015    10      7       1.028336        172.5068
2015    11      0       1.132399        181.3519
2015    11      1       1.246518        189.5938
2015    11      2       1.467662        202.6161
2015    11      3       1.44136         201.9348
2015    11      4       1.646626        214.5499
2015    11      5       0.97771         166.6511
2015    11      6       1.104171        176.0432
2015    11      7       0.8504442       151.3084
2015    12      0       0.8249871       147.8279
2015    12      1       0.9114757       157.2982
2015    12      2       1.249968        187.5853
2015    12      3       1.394757        198.6693
2015    12      4       1.69971         216.9032
2015    12      5       1.852892        224.5278
2015    12      6       1.518859        209.1017
2015    12      7       1.040662        174.7858
2015    13      0       0.7338946       142.0802
2015    13      1       0.5530129       117.0001
2015    13      2       0.3499248       82.34136
2015    13      3       1.372795        197.7318
2015    13      4       1.386762        198.5931
2015    13      5       0.9658533       166.041
2015    13      6       0.3193335       77.14531
2015    13      7       0.1246118       36.1099
2015    14      0       0.2141725       54.84024
2015    14      1       0.2796672       67.17544
2015    14      2       0.2957591       69.07598
2015    14      3       0.6018975       120.3244
2015    14      4       0.9333429       162.0107
2015    14      5       0.8426376       152.5022
2015    14      6       0.9939323       167.7922
2015    14      7       1.117457        178.4602
2015    15      0       1.329365        193.9531
2015    15      1       1.313818        192.4521
2015    15      2       1.083591        174.7421
2015    15      3       0.877887        155.2318
2015    15      4       0.9171596       159.8504
2015    15      5       1.08512         175.7381
2015    15      6       1.339817        195.2137
2015    15      7       1.219549        187.199
2015    16      0       1.251265        189.3412
2015    16      1       1.755298        218.5488
2015    16      2       1.510253        205.6863
2015    16      3       1.169316        183.5753
2015    16      4       0.5930963       120.8851
2015    16      5       0.4100516       92.20337
2015    16      6       0.2798963       69.10326
2015    16      7       0.2788229       69.36628
2015    17      0       0.4866653       105.9504
2015    17      1       0.538325        111.8884
2015    17      2       0.7084401       135.8488
2015    17      3       0.3995556       91.68639
2015    17      4       0.4423058       100.3395
2015    17      5       0.3910384       92.14195
2015    17      6       0.1517321       42.90146
2015    17      7       0.1536158       43.23269
2015    18      0       0.241807        61.89859
2015    18      1       0.3376919       80.33925
2015    18      2       0.3616849       84.75624
2015    18      3       0.2688492       67.26562
2015    18      4       0.2205011       57.53682
2015    18      5       0.2461463       62.63819
2015    18      6       0.2392243       61.29834
2015    18      7       0.2141525       56.10386
2015    19      0       0.210856        55.2994
2015    19      1       0.2236385       57.90341
2015    19      2       0.2445197       62.26986
2015    19      3       0.2268606       58.58059
2015    19      4       0.211563        55.30655
2015    19      5       0.2277899       58.70274
2015    19      6       0.2166566       56.48012
2015    19      7       0.2052917       54.14409
2015    20      0       0.2165472       56.4579
2015    20      1       0.2240684       58.04605
2015    20      2       0.2080015       54.79933
2015    20      3       0.1935516       51.83886
2015    20      4       0.1966484       52.62629
2015    20      5       0.2034021       54.18643
2015    20      6       0.2107769       55.9449
2015    20      7       0.2249216       59.04095
2015    21      0       0.1951428       52.75008
2015    21      1       0.2548053       65.10991
2015    21      2       0.5520317       117.0518
2015    21      3       0.634238        129.1812
2015    21      4       1.078053        177.7691
2015    21      5       1.310171        194.3269
2015    21      6       1.572834        209.7706
2015    21      7       1.244985        188.4769
2015    22      0       1.737931        218.9815
2015    22      1       1.713535        218.0564
2015    22      2       1.39762         200.1754
2015    22      3       1.419488        201.9727
2015    22      4       1.30214         194.5841
2015    22      5       1.25194         191.2669
2015    22      6       1.101914        179.6793
2015    22      7       1.006755        171.3429
2015    23      0       1.028085        174.0245
2015    23      1       1.121147        182.7283
2015    23      2       0.9623359       168.496
2015    23      3       0.6751084       135.5465
2015    23      4       0.5618439       119.2774
2015    23      5       0.3974771       91.8224
2015    23      6       0.5632098       117.3107
2015    23      7       1.005383        170.6508
2015    24      0       1.540013        210.0938
2015    24      1       1.888509        226.7574
2015    24      2       1.370995        200.2728
2015    24      3       1.359579        198.9246
2015    24      4       0.9955569       169.1805
2015    24      5       1.039152        173.4029
2015    24      6       0.9662188       165.7102
2015    24      7       0.931367        162.4557
2015    25      0       0.3284549       76.88314
2015    25      1       0.4315017       95.23096
2015    25      2       0.4309294       96.23341
2015    25      3       0.4796139       104.8562
2015    25      4       0.613513        124.7149
2015    25      5       0.9131822       161.7226
2015    25      6       1.008874        171.6431
2015    25      7       1.065938        176.7269
2015    26      0       1.131005        181.5854
2015    26      1       0.8979165       159.5809
2015    26      2       0.7568409       142.4911
2015    26      3       0.5734195       117.1001
2015    26      4       0.683847        132.443
2015    26      5       0.3457747       80.95186
2015    26      6       0.2321343       59.27122
2015    26      7       0.4042112       90.9915
2015    27      0       0.7915354       145.6032
2015    27      1       0.6407026       127.4377
2015    27      2       0.491799        106.2273
2015    27      3       0.4624532       101.3872
2015    27      4       0.3458108       81.53808
2015    27      5       0.4113738       92.97817
2015    27      6       0.6143479       124.9258
2015    27      7       0.4847316       105.1952
2015    28      0       0.4648668       101.6898
2015    28      1       0.3673088       85.31668
2015    28      2       0.3757101       86.93008
2015    28      3       0.5311912       113.6985
2015    28      4       0.5746212       120.3091
2015    28      5       0.5212595       112.0472
2015    28      6       0.3973275       90.7785
2015    28      7       0.3700501       84.95006
2015    29      0       0.362292        83.16782
2015    29      1       0.392494        87.96052
2015    29      2       0.4270249       93.59548
2015    29      3       0.4683599       100.3201
2015    29      4       0.3165957       74.20612
2015    29      5       0.4643821       99.02898
2015    29      6       0.5598922       114.9173
2015    29      7       0.636096        127.597
2015    30      0       0.5797373       120.1785
2015    30      1       0.7527712       143.3559
2015    30      2       1.04837         173.9905
2015    30      3       1.514795        209.8803
2015    30      4       1.52977         210.6102
2015    30      5       1.079778        178.6087
2015    30      6       0.8147769       151.5017
2015    30      7       0.1245036       36.46552
2015    31      0       0.1198798       35.49092
2015    31      1       0.1434927       41.01107
2015    31      2       0.2093737       54.66002
2015    31      3       0.3191116       75.9315
2015    31      4       0.5540839       114.7029
2015    31      5       0.5799557       117.5831
2015    31      6       1.581409        214.1274
2015    31      7       2.283423        243.4588
2016    1       0       0.777932        146.0287
2016    1       1       0.7163536       138.5913
2016    1       2       0.4914542       104.8882
2016    1       3       0.7263307       139.7962
2016    1       4       0.8480882       154.2322
2016    1       5       0.9132032       161.4195
2016    1       6       0.7499984       142.7418
2016    1       7       0.4569712       100.872
2016    2       0       0.2764183       69.2142
2016    2       1       0.2279839       59.17831
2016    2       2       0.2045844       54.5223
2016    2       3       0.1864918       50.73137
2016    2       4       0.1887207       50.96361
2016    2       5       0.2044225       54.26523
2016    2       6       0.2148598       56.45914
2016    2       7       0.2154681       56.61448
2016    3       0       0.2058367       54.15613
2016    3       1       0.2080606       54.55124
2016    3       2       0.2400393       61.65053
2016    3       3       0.2735311       68.69252
2016    3       4       0.2635611       66.71283
2016    3       5       0.3198333       77.36396
2016    3       6       0.3989392       91.80252
2016    3       7       0.4834684       105.4363
2016    4       0       0.6156203       124.3031
2016    4       1       0.732604        138.4813
2016    4       2       0.9071728       157.3717
2016    4       3       1.067718        173.1124
2016    4       4       1.319452        193.9768
2016    4       5       1.765992        219.6241
2016    4       6       1.812505        221.8054
2016    4       7       1.933555        227.4058
2016    5       0       1.952852        228.0685
2016    5       1       1.709589        217.1829
2016    5       2       1.351351        196.9071
2016    5       3       1.341807        195.9917
2016    5       4       1.588771        210.3466
2016    5       5       1.634019        213.7996
2016    5       6       1.754264        220.5255
2016    5       7       1.569363        212.412
2016    6       0       1.722695        220.5088
2016    6       1       1.840292        226.7277
2016    6       2       2.060366        235.5144
2016    6       3       2.243321        241.7662
2016    6       4       1.435326        205.8793
2016    6       5       1.148958        184.2962
2016    6       6       0.9379841       163.9656
2016    6       7       0.7778479       144.9712
2016    7       0       0.8147307       148.3908
2016    7       1       0.8816873       156.1713
2016    7       2       0.9648056       165.5937
2016    7       3       1.031736        172.157
2016    7       4       1.095534        177.9204
2016    7       5       1.254542        190.2639
2016    7       6       1.468945        203.722
2016    7       7       1.430889        201.519
2016    8       0       1.647262        213.7615
2016    8       1       1.718927        217.7577
2016    8       2       1.787818        221.2975
2016    8       3       1.782872        221.3195
2016    8       4       1.826379        223.4682
2016    8       5       1.667044        216.5338
2016    8       6       1.321351        196.6876
2016    8       7       1.229907        189.9027
2016    9       0       0.9746943       168.3272
2016    9       1       0.8684514       157.7352
2016    9       2       1.018612        173.1642
2016    9       3       0.8637066       157.1285
2016    9       4       0.8878415       158.8714
2016    9       5       0.8065852       149.1036
2016    9       6       0.6905661       134.7797
2016    9       7       0.865731        155.0246
2016    10      0       0.9981709       168.5205
2016    10      1       1.110404        179.217
2016    10      2       1.65891         216.1429
2016    10      3       2.678735        251.636
2016    10      4       2.980029        256.8315
2016    10      5       2.251516        243.5063
2016    10      6       2.266576        242.9489
2016    10      7       2.433525        247.0513
2016    11      0       1.653222        218.6289
2016    11      1       0.8362844       154.3302
2016    11      2       0.9391393       165.5089
2016    11      3       0.9240861       163.5462
2016    11      4       1.104775        180.7455
2016    11      5       0.9842892       169.6618
2016    11      6       0.8483887       155.3539
2016    11      7       0.829772        152.6996
2016    12      0       1.090323        178.144
2016    12      1       1.193752        186.2008
2016    12      2       1.291198        191.3905
2016    12      3       1.108881        175.476
2016    12      4       0.9484378       159.7957
2016    12      5       0.8401752       149.0147
2016    12      6       0.7450888       138.424
2016    12      7       0.7127345       133.9634
2016    13      0       0.4659239       100.5
2016    13      1       0.6249796       124.7245
2016    13      2       0.7373963       140.9915
2016    13      3       0.6358725       128.8571
2016    13      4       0.3398326       80.74125
2016    13      5       0.1691718       46.41817
2016    13      6       0.1695619       46.58369
2016    13      7       0.1520994       42.90705
2016    14      0       0.188251        50.79643
2016    14      1       0.2336429       59.94402
2016    14      2       0.3688472       85.77943
2016    14      3       0.5832732       120.2344
2016    14      4       0.6010403       123.0114
2016    14      5       0.5205509       111.3844
2016    14      6       0.407337        92.87471
2016    14      7       0.4254982       96.01513
2016    15      0       0.5497971       117.0011
2016    15      1       0.732122        142.906
2016    15      2       0.8716517       159.4948
2016    15      3       0.9569795       168.1004
2016    15      4       0.9166449       163.5878
2016    15      5       0.7585089       145.5326
2016    15      6       0.6742698       134.1941
2016    15      7       0.6039117       124.1618
2016    16      0       0.5818162       120.8766
2016    16      1       0.5548698       117.0483
2016    16      2       0.413365        94.84342
2016    16      3       0.3957052       92.13072
2016    16      4       0.4096271       94.82727
2016    16      5       0.4287491       98.22665
2016    16      6       0.4237364       97.42437
2016    16      7       0.3535521       84.81748
2016    17      0       0.3179667       78.17038
2016    17      1       0.3272517       79.8239
2016    17      2       0.368167        87.02925
2016    17      3       0.4911065       107.7709
2016    17      4       0.6403997       129.0697
2016    17      5       0.8655504       155.5279
2016    17      6       0.854751        156.2224
2016    17      7       0.7082558       138.527
2016    18      0       0.6482675       131.1416
2016    18      1       1.140346        188.7753
2016    18      2       1.796653        230.5765
2016    18      3       2.514576        253.1009
2016    18      4       3.016331        261.3464
2016    18      5       2.808829        257.833
2016    18      6       2.156394        242.0871
2016    18      7       2.049616        237.9473
2016    19      0       1.755278        225.6561
2016    19      1       1.092769        182.2681
2016    19      2       1.722409        224.7784
2016    19      3       1.339927        201.3549
2016    19      4       1.313561        198.4882
2016    19      5       1.647778        218.1232
2016    19      6       1.781415        224.4184
2016    19      7       1.665171        218.3085
2016    20      0       1.71129         219.8793
2016    20      1       1.576089        213.6379
2016    20      2       1.986275        232.7181
2016    20      3       1.762505        223.6999
2016    20      4       1.364169        202.5037
2016    20      5       1.106682        183.0616
2016    20      6       1.113252        183.3183
2016    20      7       1.313564        198.3051
2016    21      0       1.483039        209.1838
2016    21      1       2.118128        238.3132
2016    21      2       2.108867        238.187
2016    21      3       0.930641        165.4926
2016    21      4       1.021235        174.0059
2016    21      5       1.37282         202.1615
2016    21      6       1.654596        218.4082
2016    21      7       1.910388        231.7351
2016    22      0       3.439423        264.3774
2016    22      1       3.556505        265.0413
2016    22      2       2.9889          255.7713
2016    22      3       1.869532        227.6133
2016    22      4       1.291633        194.4154
2016    22      5       1.271179        191.3244
2016    22      6       1.207173        185.057
2016    22      7       1.09974         177.3753
2016    23      0       0.6197569       125.3015
2016    23      1       0.5229828       111.3179
2016    23      2       0.4621207       102.251
2016    23      3       0.7446087       142.7502
2016    23      4       0.4047882       92.82234
2016    23      5       0.266786        67.11518
2016    23      6       0.1963799       52.90185
2016    23      7       0.1933245       52.00511
2016    24      0       0.2788735       69.3857
2016    24      1       0.7045906       136.885
2016    24      2       0.8558043       153.0514
2016    24      3       1.332397        193.7668
2016    24      4       1.410908        198.407
2016    24      5       1.43999         200.2382
2016    24      6       1.172565        181.6206
2016    24      7       0.8306112       150.9595
2016    25      0       0.6184113       125.0359
2016    25      1       0.7764479       144.9838
2016    25      2       0.6395552       127.7182
2016    25      3       0.6455204       128.3452
2016    25      4       1.202401        186.8684
2016    25      5       1.362864        197.3655
2016    25      6       0.5667112       117.777
2016    25      7       0.3175075       77.67434
2016    26      0       0.2971055       72.58574
2016    26      1       0.5441567       113.5873
2016    26      2       0.824943        151.492
2016    26      3       0.6867246       133.0381
2016    26      4       0.5668255       116.8949
2016    26      5       0.9721402       165.1975
2016    26      6       1.456002        202.3648
2016    26      7       0.8743922       155.6629
2016    27      0       0.8311118       152.388
2016    27      1       0.5834695       120.6959
2016    27      2       0.6773161       131.9497
2016    27      3       1.022376        171.6569
2016    27      4       0.9620346       167.4097
2016    27      5       0.6591925       132.9852
2016    27      6       0.5815872       122.1255
2016    27      7       0.6959174       137.8333
2016    28      0       0.5077672       111.5477
2016    28      1       0.2751038       69.65871
2016    28      2       0.2209298       57.78755
2016    28      3       0.2365945       60.93448
2016    28      4       0.2609565       64.83987
2016    28      5       0.2887489       70.46041
2016    28      6       0.360602        84.63203
2016    28      7       0.4913307       107.4709
2016    29      0       0.5078482       109.5487
2016    29      1       0.7499945       143.3278
2016    29      2       0.8905159       159.6934
2016    29      3       1.282343        194.8133
2016    29      4       0.8367845       154.4958
2016    29      5       0.5918099       122.9565
2016    29      6       0.384354        88.73194
2016    29      7       0.2589556       65.2986
2016    30      0       0.3001222       73.61125
2016    30      1       0.6014776       123.8298
2016    30      2       1.015656        172.1828
2016    30      3       0.9762202       168.726
2016    30      4       1.040292        175.0494
2016    30      5       1.339828        196.7958
2016    30      6       1.789686        223.8119
2016    30      7       1.256898        194.8759
2016    31      0       0.7443408       144.7428
2016    31      1       0.4541277       102.5434
2016    31      2       0.2872087       72.24817
2016    31      3       0.1897684       51.98482
2016    31      4       0.322237        78.74054
2016    31      5       0.7844435       147.7598
2016    31      6       1.853677        228.461
2016    31      7       1.848943        227.1307
2017    1       0       0.5984625       123.9114
2017    1       1       0.6384897       129.6019
2017    1       2       0.6701864       133.9857
2017    1       3       0.6544077       131.83
2017    1       4       0.5814509       121.8226
2017    1       5       0.5336434       114.6968
2017    1       6       0.5525394       117.1309
2017    1       7       0.533661        113.9752
2017    2       0       0.5018362       108.9951
2017    2       1       0.4763577       104.7527
2017    2       2       0.5143918       110.8532
2017    2       3       0.5129771       111.0256
2017    2       4       0.372488        87.50405
2017    2       5       0.3400045       81.49012
2017    2       6       0.3403584       81.23964
2017    2       7       1.221447        188.6598
2017    3       0       1.798442        224.6358
2017    3       1       1.984126        233.0409
2017    3       2       1.188016        187.8995
2017    3       3       1.445802        206.212
2017    3       4       1.193996        188.1774
2017    3       5       0.9558371       166.2996
2017    3       6       0.8110746       150.4826
2017    3       7       1.238256        191.9895
2017    4       0       0.9357891       164.9436
2017    4       1       0.8686764       157.1257
2017    4       2       1.002254        169.9784
2017    4       3       1.434171        204.0217
2017    4       4       1.578624        212.8943
2017    4       5       1.446786        205.3881
2017    4       6       1.275556        193.8636
2017    4       7       1.202585        187.8766
2017    5       0       1.300974        194.3013
2017    5       1       1.592994        211.5821
2017    5       2       1.737338        218.0347
2017    5       3       1.341188        197.3142
2017    5       4       1.150622        183.7855
2017    5       5       0.6315948       127.7004
2017    5       6       0.2074453       54.79928
2017    5       7       0.2442524       62.32198
2017    6       0       0.288687        70.99387
2017    6       1       0.3049112       74.0814
2017    6       2       0.3203019       77.21486
2017    6       3       0.3688049       86.19411
2017    6       4       0.4036162       92.31606
2017    6       5       0.689484        134.8717
2017    6       6       0.9282757       161.1621
2017    6       7       1.213191        185.2369
2017    7       0       1.401303        198.3356
2017    7       1       1.009107        168.0507
2017    7       2       1.042124        171.8191
2017    7       3       0.7852101       145.5664
2017    7       4       0.6255711       125.3966
2017    7       5       0.4720695       102.7831
2017    7       6       0.5617257       116.6824
2017    7       7       0.8617271       154.601
2017    8       0       1.019944        170.2195
2017    8       1       1.004716        168.7485
2017    8       2       0.8763989       156.2876
2017    8       3       0.6895977       134.4398
2017    8       4       0.4099637       92.61256
2017    8       5       0.4040363       90.92329
2017    8       6       0.4509748       98.14563
2017    8       7       0.6787297       131.8598
2017    9       0       0.9736033       165.9345
2017    9       1       0.7983975       147.633
2017    9       2       0.2895328       70.51511
2017    9       3       0.2243648       57.3415
2017    9       4       0.2812818       69.25733
2017    9       5       0.331655        78.84764
2017    9       6       0.283847        69.7316
2017    9       7       0.2406483       60.89715
2017    10      0       0.3794707       87.6708
2017    10      1       0.4515866       99.90198
2017    10      2       0.491822        106.4119
2017    10      3       0.5844866       120.3415
2017    10      4       0.6393238       127.762
2017    10      5       0.6077635       123.2766
2017    10      6       0.6642419       130.5587
2017    10      7       0.7595011       142.1634
2017    11      0       0.7329803       139.0568
2017    11      1       0.6568785       129.5136
2017    11      2       0.5427397       113.8754
2017    11      3       0.4439742       98.75656
2017    11      4       0.3003849       73.44021
2017    11      5       0.2166938       56.72835
2017    11      6       0.201809        53.38907
2017    11      7       0.1919021       51.08891
2017    12      0       0.2136169       54.89409
2017    12      1       0.2427223       60.61112
2017    12      2       0.2618652       64.27629
2017    12      3       0.3022893       71.4937
2017    12      4       0.3845088       86.15193
2017    12      5       0.4869116       103.3519
2017    12      6       0.5224296       109.1268
2017    12      7       0.4917897       104.415
2017    13      0       0.4682701       100.4683
2017    13      1       0.5928188       119.8069
2017    13      2       0.4604216       100.3268
2017    13      3       0.4912953       105.3188
2017    13      4       1.304305        194.3064
2017    13      5       1.408936        202.2154
2017    13      6       1.241356        190.0855
2017    13      7       1.065912        176.8647
2017    14      0       1.059317        175.9435
2017    14      1       1.236861        190.8986
2017    14      2       1.241866        191.4687
2017    14      3       1.021189        173.2168
2017    14      4       0.5502052       116.584
2017    14      5       0.4824404       106.8599
2017    14      6       0.4703593       105.0439
2017    14      7       0.4333925       98.64833
2017    15      0       0.4069373       94.17005
2017    15      1       0.491969        108.3159
2017    15      2       0.3923738       90.06186
2017    15      3       0.2910938       71.37147
2017    15      4       0.1967506       52.43034
2017    15      5       0.15709         43.74804
2017    15      6       0.1704992       46.38697
2017    15      7       0.2075418       54.34864
2017    16      0       0.2451642       61.7843
2017    16      1       0.3014479       72.11238
2017    16      2       0.3686043       84.03079
2017    16      3       0.6599929       127.7639
2017    16      4       0.6693209       130.0444
2017    16      5       0.9012938       156.7088
2017    16      6       0.8791584       154.9386
2017    16      7       1.100751        176.0851
2017    17      0       1.797451        224.4328
2017    17      1       1.312266        196.5166
2017    17      2       1.304123        196.2418
2017    17      3       1.374347        201.0707
2017    17      4       1.138733        182.9047
2017    17      5       1.470445        205.6201
2017    17      6       1.054983        175.2376
2017    17      7       0.9356083       164.3464
2017    18      0       0.7559142       143.8467
2017    18      1       1.394395        200.267
2017    18      2       1.70265         216.4053
2017    18      3       1.33525         194.5605
2017    18      4       1.3515          195.3902
2017    18      5       1.330024        194.0807
2017    18      6       1.347916        196.1489
2017    18      7       0.9593128       163.9675
2017    19      0       1.387993        198.3732
2017    19      1       1.200458        185.5504
2017    19      2       1.229086        188.4561
2017    19      3       0.7707354       145.7412
2017    19      4       0.214495        55.57217
2017    19      5       0.2919336       70.59351
2017    19      6       0.2877238       70.73323
2017    19      7       0.3730746       86.88647
2017    20      0       0.2011898       53.08218
2017    20      1       0.3471681       81.91308
2017    20      2       0.8632014       155.0813
2017    20      3       0.8310365       151.1357
2017    20      4       0.3342451       79.39127
2017    20      5       0.3615217       84.84069
2017    20      6       0.2514149       63.95303
2017    20      7       0.2035029       54.29469
2017    21      0       0.1642266       45.72321
2017    21      1       0.1619669       45.14417
2017    21      2       0.1658797       46.02675
2017    21      3       0.1693119       46.77913
2017    21      4       0.1739503       47.43655
2017    21      5       0.1771259       47.87877
2017    21      6       0.2299664       59.27279
2017    21      7       0.2472257       63.109
2017    22      0       0.2884721       71.05235
2017    22      1       0.3137875       75.20165
2017    22      2       0.6775567       133.9983
2017    22      3       1.16768         186.0463
2017    22      4       1.746721        222.1778
2017    22      5       1.588692        214.4601
2017    22      6       1.452066        206.2314
2017    22      7       1.522652        210.0349
2017    23      0       1.354874        200.457
2017    23      1       1.547173        212.3683
2017    23      2       1.163545        185.2875
2017    23      3       1.530964        209.894
2017    23      4       1.550904        210.8216
2017    23      5       1.497109        208.1386
2017    23      6       0.8148841       150.6747
2017    23      7       0.5979131       122.7555
2017    24      0       0.4904718       106.9362
2017    24      1       0.4099872       93.54318
2017    24      2       0.3948097       90.76513
2017    24      3       0.430452        96.88036
2017    24      4       0.4810956       105.3922
2017    24      5       0.4748533       104.3013
2017    24      6       0.4664292       102.9435
2017    24      7       0.4917911       107.6026
2017    25      0       0.7678255       146.2375
2017    25      1       1.192627        188.1051
2017    25      2       1.293241        195.5647
2017    25      3       1.478844        207.5789
2017    25      4       2.200923        237.308
2017    25      5       1.286047        194.4932
2017    25      6       1.127252        181.9299
2017    25      7       1.151515        184.0342
2017    26      0       1.286175        194.272
2017    26      1       1.461504        205.6683
2017    26      2       1.482227        207.2107
2017    26      3       1.033262        173.4869
2017    26      4       0.2470702       62.42704
2017    26      5       0.2757615       67.49445
2017    26      6       0.3450195       80.01855
2017    26      7       0.3456111       79.91771
2017    27      0       0.4223524       93.08839
2017    27      1       0.5535807       113.8298
2017    27      2       0.4444057       97.89042
2017    27      3       0.4104886       92.40296
2017    27      4       0.5073426       107.9373
2017    27      5       1.983404        228.7997
2017    27      6       1.577322        211.827
2017    27      7       1.178981        182.7154
2017    28      0       0.5233939       111.0496
2017    28      1       0.1968641       52.36369
2017    28      2       0.133458        38.19373
2017    28      3       0.1455816       40.31394
2017    28      4       0.2543938       61.98366
2017    28      5       0.3762031       85.42742
2017    28      6       0.3324445       79.11572
2017    28      7       0.328705        79.19003
2017    29      0       0.7909314       150.3981
2017    29      1       0.9732447       170.2597
2017    29      2       0.9315008       165.4051
2017    29      3       1.197273        188.6462
2017    29      4       1.627846        215.3692
2017    29      5       1.631983        216.7657
2017    29      6       1.552577        212.4786
2017    29      7       1.670572        218.7186
2017    30      0       1.801924        225.5077
2017    30      1       0.8355755       154.8616
2017    30      2       0.7540545       145.0649
2017    30      3       0.6494433       130.0209
2017    30      4       0.6100529       122.4988
2017    30      5       0.7954239       145.1783
2017    30      6       0.9856902       165.3398
2017    30      7       1.222205        185.945
2017    31      0       1.500668        204.3523
2017    31      1       1.238628        186.795
2017    31      2       1.150255        180.9512
2017    31      3       1.026594        171.2631
2017    31      4       0.6476368       129.7211
2017    31      5       0.51992         111.1015
2017    31      6       0.3842035       88.6589
2017    31      7       0.3880244       89.54426
2018    1       0       0.3058694       73.81452
2018    1       1       0.309995        74.57665
2018    1       2       0.3013398       73.09813
2018    1       3       0.2914804       71.34818
2018    1       4       0.3214757       76.40337
2018    1       5       0.3734861       85.7563
2018    1       6       0.3859062       88.03073
2018    1       7       0.3704675       85.27036
2018    2       0       0.3068167       73.53913
2018    2       1       0.3153274       75.53199
2018    2       2       0.3712494       86.47219
2018    2       3       0.3215507       77.70476
2018    2       4       0.221079        57.57575
2018    2       5       0.2082355       54.44517
2018    2       6       0.2734668       67.27745
2018    2       7       0.7134315       136.4554
2018    3       0       1.13529         182.0146
2018    3       1       1.404742        202.4219
2018    3       2       1.443286        204.8317
2018    3       3       1.465688        207.2177
2018    3       4       1.475683        208.1314
2018    3       5       1.383283        203.4053
2018    3       6       1.022845        175.4815
2018    3       7       0.8934458       162.4381
2018    4       0       0.6980461       139.3184
2018    4       1       0.5829945       123.3013
2018    4       2       0.6891113       137.5522
2018    4       3       0.8434183       155.3114
2018    4       4       0.8757557       158.5422
2018    4       5       0.9720217       167.9997
2018    4       6       0.749319        144.3954
2018    4       7       0.6099117       126.994
2018    5       0       0.8913564       161.4351
2018    5       1       0.5878754       123.4016
2018    5       2       0.5260327       114.8703
2018    5       3       0.7421884       146.2581
2018    5       4       1.203303        194.1403
2018    5       5       1.242757        194.8347
2018    5       6       1.116446        183.3422
2018    5       7       1.413335        204.1214
2018    6       0       1.915368        227.1437
2018    6       1       1.331137        196.4
2018    6       2       0.7024852       137.1357
2018    6       3       0.3246316       79.34373
2018    6       4       0.2034824       54.21892
2018    6       5       0.3753603       87.88753
2018    6       6       0.6437972       129.6242
2018    6       7       1.264574        190.7016
2018    7       0       0.524503        109.5403
2018    7       1       1.240955        186.9148
2018    7       2       1.336965        194.1168
2018    7       3       0.7552106       142.2432
2018    7       4       0.4815809       104.0033
2018    7       5       0.4647349       102.6104
2018    7       6       0.6831548       134.6304
2018    7       7       0.6320663       127.3289
2018    8       0       0.5774439       120.1581
2018    8       1       0.7495992       143.6272
2018    8       2       0.653322        131.2155
2018    8       3       0.3685908       86.72241
2018    8       4       0.2001027       53.29156
2018    8       5       0.1482205       41.82224
2018    8       6       0.1484324       41.85954
2018    8       7       0.1394495       39.88313
2018    9       0       0.1455493       41.38692
2018    9       1       0.17451         47.99549
2018    9       2       0.193824        52.10065
2018    9       3       0.2147547       56.32871
2018    9       4       0.2248395       58.29398
2018    9       5       0.2328694       59.98382
2018    9       6       0.2184085       57.14847
2018    9       7       0.2061868       54.78706
2018    10      0       0.2116235       55.94862
2018    10      1       0.2276966       59.29208
2018    10      2       0.2618165       66.14614
2018    10      3       0.272678        68.22689
2018    10      4       0.2396934       61.53679
2018    10      5       0.2155007       55.98845
2018    10      6       0.1937426       51.30652
2018    10      7       0.1887114       50.16019
2018    11      0       0.2037624       53.22575
2018    11      1       0.2328219       58.92624
2018    11      2       0.2729089       66.60977
2018    11      3       0.3551399       82.24003
2018    11      4       0.3686679       84.92862
2018    11      5       0.5172083       109.7727
2018    11      6       0.5954132       120.8173
2018    11      7       0.6832372       131.8989
2018    12      0       0.7619336       141.2149
2018    12      1       0.9758742       163.5766
2018    12      2       1.051486        170.4868
2018    12      3       0.853164        151.3951
2018    12      4       0.7099978       134.2556
2018    12      5       0.9697622       163.2654
2018    12      6       1.052477        172.6051
2018    12      7       0.4181785       93.60323
2018    13      0       0.262566        65.18586
2018    13      1       0.2707535       67.10367
2018    13      2       0.263201        65.82619
2018    13      3       0.2715957       67.59312
2018    13      4       0.2483843       63.09999
2018    13      5       0.2492733       63.20767
2018    13      6       0.2683281       67.0423
2018    13      7       0.2785196       69.30281
2018    14      0       0.3092344       75.36152
2018    14      1       0.2999529       73.53391
2018    14      2       0.238508        61.41779
2018    14      3       0.2016316       53.62477
2018    14      4       0.2273162       58.77876
2018    14      5       0.1917118       51.3742
2018    14      6       0.1682788       46.2412
2018    14      7       0.1676447       46.01996
2018    15      0       0.229863        59.3884
2018    15      1       0.4082622       93.49062
2018    15      2       0.5882279       122.3434
2018    15      3       0.6118937       126.9995
2018    15      4       0.6821498       135.1709
2018    15      5       0.8153806       150.6199
2018    15      6       0.8165842       150.1122
2018    15      7       1.037152        171.7366
2018    16      0       1.429199        200.3508
2018    16      1       1.295941        192.0076
2018    16      2       1.24485         189.4721
2018    16      3       1.204471        187.9244
2018    16      4       1.046098        174.553
2018    16      5       0.7500737       143.1374
2018    16      6       0.6602694       132.4136
2018    16      7       0.6002947       124.0539
2018    17      0       0.5079982       110.21
2018    17      1       0.6395407       129.905
2018    17      2       0.8931848       160.6299
2018    17      3       1.587588        213.2079
2018    17      4       0.9269558       162.3663
2018    17      5       0.5572757       116.9805
2018    17      6       0.365392        85.20502
2018    17      7       0.3582846       83.77535
2018    18      0       0.3362805       79.83439
2018    18      1       0.3688904       86.59324
2018    18      2       0.3436683       82.44939
2018    18      3       0.3204564       78.20595
2018    18      4       0.2946292       73.16496
2018    18      5       0.2189685       57.59816
2018    18      6       0.2094838       55.63166
2018    18      7       0.2469391       62.95525
2018    19      0       0.3179111       76.29306
2018    19      1       0.585352        120.9433
2018    19      2       0.8830651       158.5483
2018    19      3       1.000269        170.6151
2018    19      4       1.430317        203.4645
2018    19      5       1.640953        213.8652
2018    19      6       1.429044        201.7959
2018    19      7       1.427332        199.5662
2018    20      0       1.021861        168.3313
2018    20      1       0.5242946       110.1301
2018    20      2       0.9220277       159.5339
2018    20      3       1.198716        183.8284
2018    20      4       0.8107883       148.1197
2018    20      5       0.4061167       92.1591
2018    20      6       0.2589763       64.87774
2018    20      7       0.1824126       49.05524
2018    21      0       0.1574615       43.58512
2018    21      1       0.176359        47.57142
2018    21      2       0.1949624       51.14961
2018    21      3       0.1725166       46.03178
2018    21      4       0.2060284       52.43057
2018    21      5       0.2806595       66.67839
2018    21      6       0.4103124       89.75347
2018    21      7       0.5502995       112.2839
2018    22      0       0.5869037       118.6426
2018    22      1       0.567562        116.7818
2018    22      2       0.4631349       101.9772
2018    22      3       0.3481432       82.88713
2018    22      4       0.2941341       72.58163
2018    22      5       0.2625637       66.44317
2018    22      6       0.2630929       66.39901
2018    22      7       0.3642991       85.26249
2018    23      0       0.3957241       90.7897
2018    23      1       0.7214274       138.9747
2018    23      2       1.872103        229.4776
2018    23      3       2.138682        238.7085
2018    23      4       2.440141        244.9083
2018    23      5       1.493182        208.2247
2018    23      6       0.8082595       151.0765
2018    23      7       0.2778455       69.28861
2018    24      0       0.340172        81.09552
2018    24      1       0.4271237       97.06033
2018    24      2       0.4558786       102.1471
2018    24      3       0.7975638       150.6327
2018    24      4       1.36895         202.5527
2018    24      5       1.167971        191.6787
2018    24      6       1.262875        198.3815
2018    24      7       0.732677        142.1947
2018    25      0       0.3712052       86.24455
2018    25      1       0.4079983       92.36893
2018    25      2       0.5446741       114.6685
2018    25      3       0.6700951       132.5521
2018    25      4       0.7383201       140.5055
2018    25      5       0.7077378       137.4663
2018    25      6       0.5451181       115.2387
2018    25      7       0.5012502       107.7774
2018    26      0       0.5187111       109.7434
2018    26      1       0.5337434       112.2957
2018    26      2       0.5696438       118.7637
2018    26      3       0.4646221       102.8836
2018    26      4       0.4111558       94.19882
2018    26      5       0.5501814       116.5569
2018    26      6       0.8215346       151.7319
2018    26      7       0.8982252       160.0585
2018    27      0       0.8792658       158.0796
2018    27      1       1.147591        183.9332
2018    27      2       0.9280738       163.8727
2018    27      3       0.8886187       160.3895
2018    27      4       0.9685224       169.0066
2018    27      5       1.085725        179.9824
2018    27      6       1.075729        179.2394
2018    27      7       1.165127        186.7972
2018    28      0       1.626702        216.4875
2018    28      1       2.071522        235.1868
2018    28      2       1.854587        226.9651
2018    28      3       2.460965        246.2944
2018    28      4       2.469577        247.386
2018    28      5       2.248872        241.8859
2018    28      6       1.533937        212.1444
2018    28      7       1.875636        228.2173
2018    29      0       1.605196        215.41
2018    29      1       1.113355        181.1217
2018    29      2       1.285224        193.0266
2018    29      3       1.436103        201.9654
2018    29      4       1.04003         171.7778
2018    29      5       0.9880405       167.2556
2018    29      6       0.1700742       46.68702
2018    29      7       0.2235136       58.05365
2018    30      0       0.4571727       101.5875
2018    30      1       0.4009467       92.23168
2018    30      2       0.4078471       92.83109
2018    30      3       0.4107469       94.57866
2018    30      4       0.459274        102.9953
2018    30      5       0.6406734       130.0965
2018    30      6       0.9818214       169.7203
2018    30      7       1.108177        181.2429
2018    31      0       1.174288        186.6542
2018    31      1       0.9862142       169.5156
2018    31      2       0.9100158       161.4978
2018    31      3       1.01003         171.1082
2018    31      4       1.007131        170.6445
2018    31      5       1.349977        198.7501
2018    31      6       1.294764        194.8061
2018    31      7       1.07783         177.161
