####################################################################################################
# Month: 02Feb                                                                                     #
# Station: BLDR                                                                                    #
# Frequency: 230 GHz                                                                               #
# Columns are: year    day     tau     Tb (K)                                                      #
####################################################################################################
2009    1       0.15177356      40.132235
2009    2       0.15966975      41.85860125
2009    3       0.25760382      63.2417175
2009    4       0.11034266      31.71471375
2009    5       0.07896491      24.520715
2009    6       0.14839874      40.33768625
2009    7       0.22618791      56.822495
2009    8       0.31284654      74.00695
2009    9       0.30314958      71.4034275
2009    10      0.26280915      62.28798
2009    11      0.21959535      53.734065
2009    12      0.14108374      38.06333
2009    13      0.23687575      56.8816125
2009    14      0.22745396      55.41648375
2009    15      0.12885601      34.89646375
2009    16      0.15226805      40.699095
2009    17      0.19069555      49.25322875
2009    18      0.19764509      49.59168125
2009    19      0.17382131      44.79043375
2009    20      0.10060835      28.83299625
2009    21      0.14908848      39.39854
2009    22      0.13310309      36.18411625
2009    23      0.41892424      93.08137375
2009    24      0.33953408      78.316435
2009    25      0.15911483      43.156635
2009    26      0.24326561      60.44888625
2009    27      0.20863118      52.86044
2009    28      0.06352887      20.2190225
2010    1       0.1799042       46.17419375
2010    2       0.1214917       33.56408375
2010    3       0.17666968      45.98767625
2010    4       0.34769085      78.32613375
2010    5       0.19823118      49.9877075
2010    6       0.3088004       72.46013125
2010    7       0.34459819      78.95189125
2010    8       0.2093698       52.52450875
2010    9       0.10119216      28.87738875
2010    10      0.13581152      37.0461025
2010    11      0.17356855      45.0347025
2010    12      0.23255261      56.86962375
2010    13      0.23158398      56.83415875
2010    14      0.22597738      54.17612625
2010    15      0.07258316      22.12826
2010    16      0.13030409      35.50728375
2010    17      0.22223301      54.47575375
2010    18      0.34660345      78.64901375
2010    19      0.26292416      62.282825
2010    20      0.35504044      79.961505
2010    21      0.28024868      65.56750875
2010    22      0.19275781      48.246975
2010    23      0.11475724      31.91346625
2010    24      0.09768537      28.14096875
2010    25      0.3422576       77.6846575
2010    26      0.23285242      55.82628
2010    27      0.1480282       39.3751775
2010    28      0.35769778      80.96318
2011    1       0.1143766       30.92733125
2011    2       0.06318208      19.439325
2011    3       0.15615069      38.21372625
2011    4       0.26553537      62.105355
2011    5       0.33128344      76.3314575
2011    6       0.22814526      55.0621475
2011    7       0.20980966      52.2319075
2011    8       0.2959249       68.0354825
2011    9       0.09243336      26.2462025
2011    10      0.07788492      23.14112875
2011    11      0.15709398      41.5935775
2011    12      0.17651998      46.06264375
2011    13      0.1071708       31.3595
2011    14      0.11974275      33.99263875
2011    15      0.11038308      31.47710125
2011    16      0.13919669      38.4382625
2011    17      0.25737032      62.62731375
2011    18      0.16990479      43.5876075
2011    19      0.24049559      59.367285
2011    20      0.29826401      70.24505125
2011    21      0.155933        40.876405
2011    22      0.12970438      35.61481875
2011    23      0.11361064      32.45483375
2011    24      0.21704561      53.942045
2011    25      0.26285521      63.0986075
2011    26      0.2322413       57.89676125
2011    27      0.15103976      40.03681375
2011    28      0.15759487      40.1701275
2012    1       0.11166419      31.49326375
2012    2       0.20078094      50.360705
2012    3       0.36868595      82.14870875
2012    4       0.23838682      57.49638375
2012    5       0.12346764      34.13441375
2012    6       0.20969009      52.07269875
2012    7       0.17938736      45.6629
2012    8       0.15094871      39.60737375
2012    9       0.34378345      78.3654625
2012    10      0.20749476      51.65541375
2012    11      0.27423121      65.532675
2012    12      0.32722762      75.61801625
2012    13      0.33407082      76.5099925
2012    14      0.28017412      66.80827
2012    15      0.22132864      55.06145875
2012    16      0.19757588      50.16794
2012    17      0.12025724      33.19613625
2012    18      0.16312302      42.21412375
2012    19      0.18934796      48.15231875
2012    20      0.24851405      59.08140125
2012    21      0.16391577      42.84465125
2012    22      0.27529826      67.13063625
2012    23      0.2824005       66.66364625
2012    24      0.11924144      32.64588875
2012    25      0.14239826      39.3760775
2012    26      0.11016009      31.1094275
2012    27      0.13275235      35.6184275
2012    28      0.30682674      72.4031225
2012    29      0.16028091      42.02634
2013    1       0.19811495      50.595745
2013    2       0.12346183      34.20216625
2013    3       0.11154758      31.7837075
2013    4       0.15452535      41.1736975
2013    5       0.20298881      52.0954025
2013    6       0.29669195      70.24892375
2013    7       0.19476182      46.57355125
2013    8       0.09759576      28.3139225
2013    9       0.24504538      60.035645
2013    10      0.2209037       54.062625
2013    11      0.20354329      50.341895
2013    12      0.11210676      30.95478625
2013    13      0.17028838      44.571275
2013    14      0.1959836       49.41796125
2013    15      0.19641288      49.1564875
2013    16      0.15465521      41.37258
2013    17      0.07822064      23.95797125
2013    18      0.15265055      40.40547
2013    19      0.08496361      25.311885
2013    20      0.16560281      43.53088375
2013    21      0.32149675      73.88255375
2013    22      0.20414509      50.82034875
2013    23      0.18067414      45.67762
2013    24      0.34260964      77.59594125
2013    25      0.14840235      38.6502825
2013    26      0.23573317      56.30139625
2013    27      0.16514208      42.25514
2013    28      0.12537932      34.05330625
2014    1       0.27629984      64.93041
2014    2       0.08057526      24.03668125
2014    3       0.15823202      41.12846125
2014    4       0.26624065      63.1171975
2014    5       0.1256184       33.72207125
2014    6       0.15756566      40.93670375
2014    7       0.20202536      50.9215475
2014    8       0.27324944      65.41643125
2014    9       0.34630034      79.9245025
2014    10      0.35477426      79.9061825
2014    11      0.16952259      43.7357525
2014    12      0.21583894      53.7051825
2014    13      0.29506059      71.16103625
2014    14      0.24029582      58.42190375
2014    15      0.40231606      91.0669925
2014    16      0.28239149      68.618585
2014    17      0.13549099      35.502295
2014    18      0.08898212      26.71327625
2014    19      0.23310644      57.8389225
2014    20      0.18519862      45.88943375
2014    21      0.14853295      39.4061175
2014    22      0.21139846      52.7288625
2014    23      0.21718388      54.14246
2014    24      0.17523262      46.43120375
2014    25      0.29050632      69.79171875
2014    26      0.15224906      38.7719725
2014    27      0.26181989      61.6407775
2014    28      0.31413221      72.93976625
2015    1       0.19385669      49.24406625
2015    2       0.23063056      57.1734125
2015    3       0.22277561      55.96869625
2015    4       0.37159931      84.561935
2015    5       0.25858136      62.748675
2015    6       0.15921566      43.11305875
2015    7       0.1888172       49.55424
2015    8       0.20136412      52.6040675
2015    9       0.1840981       49.11340625
2015    10      0.31528861      75.2581625
2015    11      0.32415509      73.94546125
2015    12      0.1913451       48.64128
2015    13      0.29241812      70.6700075
2015    14      0.16127645      43.6412525
2015    15      0.35080415      80.65932375
2015    16      0.30500902      70.2385075
2015    17      0.14079769      37.29773125
2015    18      0.18238786      47.22910125
2015    19      0.15772814      42.844875
2015    20      0.25345946      61.18801875
2015    21      0.32476452      74.25135
2015    22      0.2511658       59.75983
2015    23      0.25122482      60.1305875
2015    24      0.12709224      34.92234625
2015    25      0.26380109      63.1476475
2015    26      0.2393238       57.0904675
2015    27      0.19841584      49.3908675
2015    28      0.18418755      46.92624
2016    1       0.42066631      91.49925625
2016    2       0.3141976       71.4195975
2016    3       0.12682725      33.9829275
2016    4       0.10312256      29.044615
2016    5       0.19676861      48.896205
2016    6       0.15420674      41.30648125
2016    7       0.18316528      47.70961625
2016    8       0.21006779      53.43326375
2016    9       0.15680525      42.27102125
2016    10      0.11796906      33.70061125
2016    11      0.17170534      45.41868
2016    12      0.33892152      79.7562725
2016    13      0.18651453      48.9050575
2016    14      0.17453946      45.62677625
2016    15      0.27530021      66.4994725
2016    16      0.26358476      64.6007875
2016    17      0.14690441      40.00701875
2016    18      0.20556161      52.9590025
2016    19      0.15894884      42.00188375
2016    20      0.20735628      53.0676525
2016    21      0.19165616      49.74428
2016    22      0.2701166       64.71659625
2016    23      0.28908914      66.22276625
2016    24      0.08750676      25.87996875
2016    25      0.19655532      50.4539475
2016    26      0.17666222      46.62486625
2016    27      0.15636375      42.6932225
2016    28      0.12605626      35.60228375
2016    29      0.20990261      52.699665
2017    1       0.22194919      56.1074475
2017    2       0.19496616      49.8920675
2017    3       0.22829291      57.2528
2017    4       0.25553946      63.49535
2017    5       0.24827892      61.595565
2017    6       0.23754921      59.4290025
2017    7       0.28217764      68.3234875
2017    8       0.37294269      83.81664125
2017    9       0.31492211      75.4101125
2017    10      0.34713402      82.9181675
2017    11      0.41532821      93.25467375
2017    12      0.35930192      80.83242625
2017    13      0.31797078      73.8138075
2017    14      0.17356638      45.55704
2017    15      0.14160907      38.92801875
2017    16      0.08575034      26.2616425
2017    17      0.17186178      45.06139875
2017    18      0.41105354      92.01197375
2017    19      0.3481004       80.97964875
2017    20      0.25199178      60.0016175
2017    21      0.17099829      45.76229125
2017    22      0.29004554      69.99453
2017    23      0.37767771      84.85432
2017    24      0.19704822      49.23913625
2017    25      0.11661942      31.81874375
2017    26      0.09700833      27.669545
2017    27      0.17572905      45.11821125
2017    28      0.32825332      75.62745
2018    1       0.27929375      66.94431625
2018    2       0.31709509      74.5728225
2018    3       0.25732741      63.2310575
2018    4       0.30595025      72.50679625
2018    5       0.30023795      71.92840375
2018    6       0.25438311      61.45760875
2018    7       0.21383202      53.3902725
2018    8       0.24782148      61.29497625
2018    9       0.24287524      60.23878125
2018    10      0.32060496      74.33891875
2018    11      0.12311538      32.9606625
2018    12      0.17978933      45.7417075
2018    13      0.25379206      62.4119925
2018    14      0.12222017      34.421735
2018    15      0.24797465      61.2675925
2018    16      0.15397589      39.642995
2018    17      0.11183715      31.776145
2018    18      0.14791021      40.74759375
2018    19      0.21302526      54.107945
2018    20      0.19888538      48.11649375
2018    21      0.0803958       23.9457425
2018    22      0.22201348      54.5202475
2018    23      0.1678775       43.28320375
2018    24      0.13458515      35.6664975
2018    25      0.08642041      25.29405125
2018    26      0.10594878      30.1712875
2018    27      0.10056423      29.3223375
2018    28      0.19634329      49.61875
