####################################################################################################
# Month: 08Aug                                                                                     #
# Station: SGO                                                                                     #
# Frequency: 345 GHz                                                                               #
# Columns are: year    day     segment         tau     Tb (K)                                      #
####################################################################################################
2009    1       0       0.3246306       74.60185
2009    1       1       0.3664933       82.0844
2009    1       2       0.2000653       51.93181
2009    1       3       0.103437        30.86006
2009    1       4       0.1146289       33.2254
2009    1       5       0.128475        36.22407
2009    1       6       0.1615062       43.35108
2009    1       7       0.2148677       54.88965
2009    2       0       0.2595809       64.31866
2009    2       1       0.3320396       77.7564
2009    2       2       0.3700217       84.67095
2009    2       3       0.3149601       75.24447
2009    2       4       0.3084294       74.23358
2009    2       5       0.3401914       80.1312
2009    2       6       0.3463261       81.42306
2009    2       7       0.2846415       69.83006
2009    3       0       0.2132628       55.25978
2009    3       1       0.1701639       46.41749
2009    3       2       0.1361702       38.90073
2009    3       3       0.1227116       35.75553
2009    3       4       0.1240928       36.0634
2009    3       5       0.1430414       40.26702
2009    3       6       0.1543492       42.85494
2009    3       7       0.1672938       45.53434
2009    4       0       0.1682885       45.63553
2009    4       1       0.2038352       53.03601
2009    4       2       0.2446797       61.1772
2009    4       3       0.2813722       67.86751
2009    4       4       0.2359034       58.91081
2009    4       5       0.2443577       60.25896
2009    4       6       0.4199274       92.04554
2009    4       7       0.5387799       110.2538
2009    5       0       0.5743969       115.8852
2009    5       1       0.3455825       79.42163
2009    5       2       0.1326776       37.5911
2009    5       3       0.0817375       26.02338
2009    5       4       0.06055386      21.00354
2009    5       5       0.0640166       21.85949
2009    5       6       0.0693844       23.29897
2009    5       7       0.05684593      19.93617
2009    6       0       0.08090943      25.36978
2009    6       1       0.1364174       37.5758
2009    6       2       0.3060072       71.03544
2009    6       3       0.4314831       92.8922
2009    6       4       0.5181784       106.6244
2009    6       5       0.5743324       114.5673
2009    6       6       0.5848743       115.908
2009    6       7       0.6944088       130.0694
2009    7       0       0.7515732       137.3606
2009    7       1       0.6773472       128.645
2009    7       2       0.5233483       107.2992
2009    7       3       0.2647274       64.13113
2009    7       4       0.1324689       37.2457
2009    7       5       0.09598685      29.1299
2009    7       6       0.1156296       33.43914
2009    7       7       0.1138884       33.05903
2009    8       0       0.0681689       22.70409
2009    8       1       0.07229655      23.72995
2009    8       2       0.1304215       37.0113
2009    8       3       0.1416307       39.58743
2009    8       4       0.09512655      29.25259
2009    8       5       0.1093081       32.61999
2009    8       6       0.1807654       48.265
2009    8       7       0.1771875       47.33441
2009    9       0       0.1464637       40.15667
2009    9       1       0.2787887       65.78917
2009    9       2       0.3018714       70.99582
2009    9       3       0.1558814       42.677
2009    9       4       0.1367574       38.40606
2009    9       5       0.1454514       40.21692
2009    9       6       0.1687955       45.21939
2009    9       7       0.1813392       47.99483
2009    10      0       0.3174471       74.55014
2009    10      1       0.3770922       85.5169
2009    10      2       0.4505423       97.69166
2009    10      3       0.4721553       101.5382
2009    10      4       0.5461474       113.1802
2009    10      5       0.5404313       111.9867
2009    10      6       0.4838731       103.1387
2009    10      7       0.4296304       94.32593
2009    11      0       0.4912936       104.1411
2009    11      1       0.5320699       110.5157
2009    11      2       0.6668913       128.7621
2009    11      3       0.7863491       143.4552
2009    11      4       0.7110536       135.4496
2009    11      5       0.7345128       138.3336
2009    11      6       0.7188993       136.4493
2009    11      7       0.6971549       133.1647
2009    12      0       0.6282433       124.5
2009    12      1       0.57328         116.8654
2009    12      2       0.4688624       101.1953
2009    12      3       0.4672117       100.2382
2009    12      4       0.401294        89.14816
2009    12      5       0.5055611       105.2577
2009    12      6       0.6597123       126.6344
2009    12      7       0.8541559       149.7204
2009    13      0       1.091852        174.1705
2009    13      1       0.7664733       143.7144
2009    13      2       0.6699875       131.7487
2009    13      3       0.9108044       158.8874
2009    13      4       0.909527        159.1855
2009    13      5       0.9216452       159.87
2009    13      6       0.8716561       154.6427
2009    13      7       0.9955204       167.3928
2009    14      0       0.9285113       160.2202
2009    14      1       0.8056103       147.3718
2009    14      2       0.8231734       149.0644
2009    14      3       0.9560527       161.9608
2009    14      4       0.8876727       155.406
2009    14      5       0.8112123       146.5756
2009    14      6       0.9719902       162.9556
2009    14      7       1.113985        175.9211
2009    15      0       1.143168        178.339
2009    15      1       1.154914        179.4869
2009    15      2       1.109301        175.4991
2009    15      3       1.037175        169.2915
2009    15      4       0.9702636       163.0169
2009    15      5       0.8787439       153.3736
2009    15      6       0.8466952       149.3883
2009    15      7       0.7954868       143.0826
2009    16      0       0.6621851       127.071
2009    16      1       0.4481302       96.36997
2009    16      2       0.1400198       39.15026
2009    16      3       0.0684494       22.87447
2009    16      4       0.06020071      20.83469
2009    16      5       0.06805417      22.72861
2009    16      6       0.1571392       42.67727
2009    16      7       0.1142075       32.62439
2009    17      0       0.1554266       41.88519
2009    17      1       0.2054887       51.79258
2009    17      2       0.3699395       81.61977
2009    17      3       0.5030287       102.9796
2009    17      4       0.6430522       123.6692
2009    17      5       0.5429366       110.764
2009    17      6       0.4169612       91.23753
2009    17      7       0.5132854       105.9733
2009    18      0       0.7030659       132.6833
2009    18      1       0.6974323       131.4524
2009    18      2       0.8700078       151.3743
2009    18      3       0.8105903       145.1394
2009    18      4       0.6560386       127.1071
2009    18      5       0.5608153       114.346
2009    18      6       0.4797478       101.7282
2009    18      7       0.4342811       94.42775
2009    19      0       0.4580232       97.8046
2009    19      1       0.3715043       83.39228
2009    19      2       0.3056878       71.20184
2009    19      3       0.4018217       87.79684
2009    19      4       0.4673045       98.7373
2009    19      5       0.3132173       73.37876
2009    19      6       0.403668        89.14327
2009    19      7       0.2652516       64.42898
2009    20      0       0.1976687       51.06582
2009    20      1       0.1611721       42.91966
2009    20      2       0.147247        39.99781
2009    20      3       0.09796889      29.53287
2009    20      4       0.1067928       31.40631
2009    20      5       0.1879524       48.42466
2009    20      6       0.283048        67.08406
2009    20      7       0.3999845       87.78782
2009    21      0       0.3816033       84.69082
2009    21      1       0.3428246       77.67162
2009    21      2       0.5569225       111.9308
2009    21      3       0.8000236       144.5685
2009    21      4       0.9466737       160.7501
2009    21      5       1.067945        171.6371
2009    21      6       1.029164        167.4064
2009    21      7       0.8964372       153.8038
2009    22      0       0.6371419       123.9037
2009    22      1       0.4820205       102.1447
2009    22      2       0.5325151       109.2698
2009    22      3       0.5425677       110.1886
2009    22      4       0.442412        94.93865
2009    22      5       0.3601979       81.49247
2009    22      6       0.3415812       78.74128
2009    22      7       0.2421339       60.39762
2009    23      0       0.2269979       57.72216
2009    23      1       0.2258013       57.16681
2009    23      2       0.3020397       71.36288
2009    23      3       0.4066526       89.61513
2009    23      4       0.4841396       102.5033
2009    23      5       0.505969        105.4955
2009    23      6       0.6218534       122.0789
2009    23      7       0.7336587       136.0481
2009    24      0       0.6044639       119.9419
2009    24      1       0.6307848       123.3641
2009    24      2       0.6153101       121.6657
2009    24      3       0.4912468       103.9458
2009    24      4       0.5671419       115.1708
2009    24      5       0.6647836       128.989
2009    24      6       0.8261855       148.2873
2009    24      7       0.6311261       124.5216
2009    25      0       0.4801856       103.0204
2009    25      1       0.3614671       83.41059
2009    25      2       0.4023932       89.52778
2009    25      3       0.2407394       59.81099
2009    25      4       0.237316        58.92025
2009    25      5       0.4965547       104.2316
2009    25      6       0.3163656       73.83322
2009    25      7       0.2076592       52.52761
2009    26      0       0.2332015       57.6991
2009    26      1       0.2403044       59.35804
2009    26      2       0.1984708       51.2557
2009    26      3       0.2036205       52.3138
2009    26      4       0.1840753       47.93055
2009    26      5       0.2328006       57.76535
2009    26      6       0.1951461       50.88078
2009    26      7       0.2421851       60.12574
2009    27      0       0.3796935       85.63479
2009    27      1       0.3633776       84.6505
2009    27      2       0.4310491       95.89296
2009    27      3       0.5064769       106.7449
2009    27      4       0.413995        93.11577
2009    27      5       0.3622323       83.73322
2009    27      6       0.318265        75.71487
2009    27      7       0.319912        75.82038
2009    28      0       0.2574812       64.51594
2009    28      1       0.2538184       63.56999
2009    28      2       0.2264671       58.26474
2009    28      3       0.2007196       52.95485
2009    28      4       0.1510356       42.04771
2009    28      5       0.1177569       34.3638
2009    28      6       0.1167601       33.95762
2009    28      7       0.1021299       30.66461
2009    29      0       0.09382278      28.80637
2009    29      1       0.09315047      28.79041
2009    29      2       0.1041033       31.38826
2009    29      3       0.1179071       34.71119
2009    29      4       0.1448316       40.81189
2009    29      5       0.1641107       45.04396
2009    29      6       0.1628174       44.51477
2009    29      7       0.1940536       50.82634
2009    30      0       0.2068515       53.67796
2009    30      1       0.2045462       53.22591
2009    30      2       0.2092061       53.93663
2009    30      3       0.2216423       56.01633
2009    30      4       0.2468438       61.17132
2009    30      5       0.2753058       67.06108
2009    30      6       0.2994869       71.27918
2009    30      7       0.3288531       76.18905
2009    31      0       0.3366883       77.50164
2009    31      1       0.3153265       73.97947
2009    31      2       0.3023658       71.5022
2009    31      3       0.3800121       84.98459
2009    31      4       0.5826964       116.5867
2009    31      5       0.67411         129.0675
2009    31      6       0.7842171       142.4868
2009    31      7       0.8219775       146.5587
2010    1       0       0.3912166       86.2491
2010    1       1       0.4762221       100.0524
2010    1       2       0.576191        114.7529
2010    1       3       0.6213659       121.1351
2010    1       4       0.5988394       118.2466
2010    1       5       0.4471029       96.02621
2010    1       6       0.467725        99.38001
2010    1       7       0.3677227       83.09915
2010    2       0       0.1704176       45.79458
2010    2       1       0.07528852      24.48162
2010    2       2       0.06226627      21.31759
2010    2       3       0.04824832      17.87468
2010    2       4       0.04441359      16.95359
2010    2       5       0.05093852      18.54814
2010    2       6       0.06513287      21.96264
2010    2       7       0.07014053      23.04666
2010    3       0       0.05495361      19.50489
2010    3       1       0.04236735      16.47185
2010    3       2       0.04334041      16.75138
2010    3       3       0.04790296      17.9141
2010    3       4       0.04844702      18.0509
2010    3       5       0.05568129      19.88873
2010    3       6       0.06236554      21.58706
2010    3       7       0.07230564      24.04181
2010    4       0       0.07324026      24.28187
2010    4       1       0.06613374      22.57203
2010    4       2       0.0525028       19.16213
2010    4       3       0.04559503      17.38068
2010    4       4       0.04848817      17.92066
2010    4       5       0.07014412      22.74757
2010    4       6       0.09676781      28.81355
2010    4       7       0.2292544       55.84112
2010    5       0       0.337613        76.11119
2010    5       1       0.4338939       92.78523
2010    5       2       0.350908        79.46762
2010    5       3       0.476446        99.94467
2010    5       4       0.5127664       105.7856
2010    5       5       0.4256636       92.91028
2010    5       6       0.4167528       91.65747
2010    5       7       0.3953816       88.41526
2010    6       0       0.3540993       81.72709
2010    6       1       0.2924255       70.76157
2010    6       2       0.236317        59.80885
2010    6       3       0.1868531       49.58403
2010    6       4       0.1884797       49.86242
2010    6       5       0.2250191       57.07365
2010    6       6       0.2630671       64.39163
2010    6       7       0.2728084       66.34376
2010    7       0       0.2947865       70.28974
2010    7       1       0.2607323       63.90566
2010    7       2       0.2218205       56.05334
2010    7       3       0.2083937       53.15293
2010    7       4       0.2334698       58.3146
2010    7       5       0.2302796       57.7623
2010    7       6       0.3336203       77.42032
2010    7       7       0.4625263       98.59468
2010    8       0       0.434174        93.8011
2010    8       1       0.08935118      27.81357
2010    8       2       0.05455777      19.31496
2010    8       3       0.08239553      25.62011
2010    8       4       0.1486155       40.29299
2010    8       5       0.2572521       62.20242
2010    8       6       0.3510529       79.22979
2010    8       7       0.428193        92.05068
2010    9       0       0.2901474       68.67709
2010    9       1       0.2654702       63.58849
2010    9       2       0.248787        61.22676
2010    9       3       0.2861911       68.65332
2010    9       4       0.2921614       69.96717
2010    9       5       0.2307852       58.26944
2010    9       6       0.2389446       60.10402
2010    9       7       0.2551574       63.31933
2010    10      0       0.2957761       70.74973
2010    10      1       0.3048985       72.14706
2010    10      2       0.2673044       64.93678
2010    10      3       0.2649236       64.41763
2010    10      4       0.2441249       60.42936
2010    10      5       0.1877031       48.96777
2010    10      6       0.1872328       48.66458
2010    10      7       0.2733864       65.76628
2010    11      0       0.4106314       90.47957
2010    11      1       0.7381976       136.6802
2010    11      2       0.7326049       136.2646
2010    11      3       0.7042378       133.5169
2010    11      4       0.5426592       112.3519
2010    11      5       0.806215        145.0349
2010    11      6       0.8427685       148.3627
2010    11      7       0.7352873       135.232
2010    12      0       0.6010324       117.6616
2010    12      1       0.5626327       112.3619
2010    12      2       0.4847297       101.4183
2010    12      3       0.3181462       74.65327
2010    12      4       0.2376533       59.52403
2010    12      5       0.2686275       65.1202
2010    12      6       0.318051        73.85086
2010    12      7       0.3035606       71.37375
2010    13      0       0.2832339       67.71489
2010    13      1       0.2998899       70.75104
2010    13      2       0.2707624       65.77681
2010    13      3       0.1838827       48.77041
2010    13      4       0.1098424       32.48219
2010    13      5       0.1085395       32.03378
2010    13      6       0.1194147       34.52418
2010    13      7       0.1232571       35.43079
2010    14      0       0.1303751       37.06936
2010    14      1       0.1538821       42.39511
2010    14      2       0.1777871       47.61118
2010    14      3       0.183002        48.79937
2010    14      4       0.1739856       46.96733
2010    14      5       0.1713093       46.43167
2010    14      6       0.1868363       49.7471
2010    14      7       0.1862554       49.69127
2010    15      0       0.1679392       46.00573
2010    15      1       0.1682528       46.11649
2010    15      2       0.1622938       44.78817
2010    15      3       0.1759028       47.80493
2010    15      4       0.2085805       54.64251
2010    15      5       0.241464        61.14542
2010    15      6       0.2256373       57.66185
2010    15      7       0.1943899       51.03951
2010    16      0       0.2021218       52.52389
2010    16      1       0.2374949       59.59958
2010    16      2       0.3674611       82.86165
2010    16      3       0.3596169       80.9814
2010    16      4       0.376367        84.23749
2010    16      5       0.514213        106.1386
2010    16      6       0.6560741       125.6525
2010    16      7       0.7025463       131.9026
2010    17      0       0.6724865       128.2464
2010    17      1       0.6333032       123.562
2010    17      2       0.7209619       134.9899
2010    17      3       0.6364912       124.7949
2010    17      4       0.4924915       104.4542
2010    17      5       0.4403442       96.05435
2010    17      6       0.2870694       69.04415
2010    17      7       0.2526077       61.87375
2010    18      0       0.2702023       64.81326
2010    18      1       0.3093562       71.7563
2010    18      2       0.2667028       64.43929
2010    18      3       0.2628675       64.09528
2010    18      4       0.2882515       69.5592
2010    18      5       0.2893261       69.87406
2010    18      6       0.282808        68.59835
2010    18      7       0.287896        69.44996
2010    19      0       0.2572046       63.7707
2010    19      1       0.2432499       60.77526
2010    19      2       0.2011292       52.23614
2010    19      3       0.1748889       47.19124
2010    19      4       0.1705828       46.45512
2010    19      5       0.1443672       40.87037
2010    19      6       0.1592306       43.97875
2010    19      7       0.1967424       51.77977
2010    20      0       0.1941856       51.40896
2010    20      1       0.2004235       52.22568
2010    20      2       0.1971507       51.50892
2010    20      3       0.195279        50.98484
2010    20      4       0.1836795       48.59131
2010    20      5       0.1691561       45.62368
2010    20      6       0.1673275       45.28584
2010    20      7       0.1683712       45.62517
2010    21      0       0.1524924       42.24636
2010    21      1       0.1414735       39.79614
2010    21      2       0.1413251       39.77404
2010    21      3       0.141071        39.85111
2010    21      4       0.1450421       40.84885
2010    21      5       0.1428966       40.48556
2010    21      6       0.1473425       41.48702
2010    21      7       0.1521897       42.45051
2010    22      0       0.155193        43.09419
2010    22      1       0.1544271       42.84949
2010    22      2       0.1678516       45.54145
2010    22      3       0.1975423       51.6982
2010    22      4       0.2273008       57.77738
2010    22      5       0.2658985       65.13716
2010    22      6       0.2998351       71.13159
2010    22      7       0.3050132       71.99848
2010    23      0       0.3257536       75.51132
2010    23      1       0.3464948       79.02136
2010    23      2       0.3350774       77.26893
2010    23      3       0.3073568       72.52823
2010    23      4       0.3051634       72.25527
2010    23      5       0.3610702       82.23978
2010    23      6       0.3526757       80.85853
2010    23      7       0.2583894       63.92055
2010    24      0       0.05929667      20.79327
2010    24      1       0.05312244      19.14366
2010    24      2       0.06761648      22.60725
2010    24      3       0.07721975      24.90342
2010    24      4       0.08212776      26.0986
2010    24      5       0.0804656       25.79394
2010    24      6       0.08085337      25.93741
2010    24      7       0.08146453      25.98455
2010    25      0       0.09310559      28.64708
2010    25      1       0.1224313       35.23372
2010    25      2       0.1624795       43.93664
2010    25      3       0.2209892       55.92054
2010    25      4       0.1734447       46.51328
2010    25      5       0.1541272       42.25334
2010    25      6       0.2075722       53.64481
2010    25      7       0.2555257       63.2541
2010    26      0       0.2523326       62.85068
2010    26      1       0.2230309       57.1616
2010    26      2       0.202528        53.16078
2010    26      3       0.2024059       53.1884
2010    26      4       0.1591356       44.02263
2010    26      5       0.1409537       39.26485
2010    26      6       0.3122805       73.17254
2010    26      7       0.5571617       113.271
2010    27      0       0.5550239       113.9175
2010    27      1       0.5535994       113.7953
2010    27      2       0.5492404       112.571
2010    27      3       0.608448        120.4186
2010    27      4       0.428921        94.42113
2010    27      5       0.4425736       96.24277
2010    27      6       0.5048592       106.0847
2010    27      7       0.5000951       105.7097
2010    28      0       0.4364749       95.61147
2010    28      1       0.4153513       91.63224
2010    28      2       0.6047592       120.1985
2010    28      3       0.6396719       124.7381
2010    28      4       0.5046234       105.7238
2010    28      5       0.5923152       118.8411
2010    28      6       0.5306206       109.9875
2010    28      7       0.3617067       82.34059
2010    29      0       0.2993906       71.08926
2010    29      1       0.3725529       84.21601
2010    29      2       0.4150197       91.63068
2010    29      3       0.4244299       93.31786
2010    29      4       0.4691876       101.0064
2010    29      5       0.4344373       95.56293
2010    29      6       0.4866822       103.6798
2010    29      7       0.540579        111.7252
2010    30      0       0.4742465       101.6695
2010    30      1       0.3694985       84.69828
2010    30      2       0.3318603       78.02593
2010    30      3       0.2825145       68.47117
2010    30      4       0.276456        67.01213
2010    30      5       0.3102471       73.08635
2010    30      6       0.2882578       68.74318
2010    30      7       0.2060774       52.37152
2010    31      0       0.1956245       50.34556
2010    31      1       0.2139027       54.05729
2010    31      2       0.2504826       61.11554
2010    31      3       0.3718725       82.49363
2010    31      4       0.3101959       71.72171
2010    31      5       0.2956688       69.34848
2010    31      6       0.3221109       74.1223
2010    31      7       0.3643908       81.50759
2011    1       0       0.2635091       63.45981
2011    1       1       0.2373286       59.05847
2011    1       2       0.2408203       59.77251
2011    1       3       0.2011564       52.20111
2011    1       4       0.1269659       36.47132
2011    1       5       0.1194241       34.75781
2011    1       6       0.203002        51.71851
2011    1       7       0.4479912       95.19277
2011    2       0       0.7280973       134.7664
2011    2       1       0.6917267       130.0821
2011    2       2       0.6078016       119.0735
2011    2       3       0.5841404       115.6224
2011    2       4       0.4639064       97.75135
2011    2       5       0.3814339       84.09915
2011    2       6       0.4681131       98.58059
2011    2       7       0.301804        71.29322
2011    3       0       0.07814894      25.11276
2011    3       1       0.07760719      24.94086
2011    3       2       0.09602065      29.17443
2011    3       3       0.1152604       33.70839
2011    3       4       0.1406303       39.47733
2011    3       5       0.1393102       38.98557
2011    3       6       0.2152858       54.47096
2011    3       7       0.3011699       70.88597
2011    4       0       0.2618353       64.22392
2011    4       1       0.3068208       71.82851
2011    4       2       0.2899022       69.20614
2011    4       3       0.2934737       69.56591
2011    4       4       0.3140223       72.93397
2011    4       5       0.3567193       79.99835
2011    4       6       0.5057008       104.0408
2011    4       7       0.6085362       118.7622
2011    5       0       0.7508908       136.8369
2011    5       1       0.4935342       103.6522
2011    5       2       0.2963462       69.84678
2011    5       3       0.3261225       74.32361
2011    5       4       0.511332        105.3058
2011    5       5       0.6733709       127.79
2011    5       6       0.7531056       139.1643
2011    5       7       0.7104946       134.4216
2011    6       0       0.5388483       110.2679
2011    6       1       0.6116036       120.7268
2011    6       2       0.6649636       127.7967
2011    6       3       0.976186        163.5727
2011    6       4       0.9188509       156.4202
2011    6       5       0.9827491       162.9238
2011    6       6       0.9594642       161.379
2011    6       7       0.7420429       138.7839
2011    7       0       0.5394471       112.0918
2011    7       1       0.4668862       100.9461
2011    7       2       0.5496692       112.7038
2011    7       3       0.5285221       109.0576
2011    7       4       0.4391051       95.26033
2011    7       5       0.6997736       131.9939
2011    7       6       0.8620231       151.5498
2011    7       7       0.9568022       160.876
2011    8       0       0.9801788       163.3777
2011    8       1       0.8935628       153.8437
2011    8       2       0.8982539       154.7755
2011    8       3       0.7603719       139.3228
2011    8       4       0.6547879       127.4691
2011    8       5       0.364431        83.35541
2011    8       6       0.6033109       120.2731
2011    8       7       0.8789906       153.9994
2011    9       0       1.118554        178.3165
2011    9       1       0.5425263       113.2437
2011    9       2       0.5332321       112.4378
2011    9       3       0.5988996       122.0646
2011    9       4       0.6385617       127.9025
2011    9       5       0.5537356       116.1208
2011    9       6       0.4131494       93.15498
2011    9       7       0.3710828       85.26535
2011    10      0       0.4855434       104.2434
2011    10      1       0.6535393       129.2686
2011    10      2       0.6276743       125.9426
2011    10      3       0.5125284       109.1944
2011    10      4       0.4495435       99.03654
2011    10      5       0.4362298       96.87108
2011    10      6       0.3890241       88.47998
2011    10      7       0.4442856       98.42881
2011    11      0       0.3284646       78.37908
2011    11      1       0.3393686       80.38533
2011    11      2       0.3265854       78.0455
2011    11      3       0.3232818       77.37323
2011    11      4       0.2477905       62.83249
2011    11      5       0.2445088       62.23345
2011    11      6       0.2119709       55.4758
2011    11      7       0.2107584       55.16114
2011    12      0       0.2041482       53.85166
2011    12      1       0.1745395       47.60787
2011    12      2       0.1878568       50.49038
2011    12      3       0.2584696       64.98107
2011    12      4       0.197012        52.4406
2011    12      5       0.1687526       46.28863
2011    12      6       0.2170636       56.38471
2011    12      7       0.1961234       51.70497
2011    13      0       0.1269307       36.26916
2011    13      1       0.114442        33.43802
2011    13      2       0.1010616       30.34796
2011    13      3       0.08973422      27.78865
2011    13      4       0.1066825       31.59123
2011    13      5       0.1198573       34.47065
2011    13      6       0.1128079       32.94219
2011    13      7       0.1105434       32.42042
2011    14      0       0.1267279       35.9661
2011    14      1       0.1266204       36.14316
2011    14      2       0.1101018       32.68353
2011    14      3       0.1153434       33.89973
2011    14      4       0.1155009       33.89908
2011    14      5       0.1375108       38.81114
2011    14      6       0.1529017       42.11259
2011    14      7       0.1695008       45.65953
2011    15      0       0.1927238       50.55064
2011    15      1       0.2405461       60.18423
2011    15      2       0.2943999       70.45166
2011    15      3       0.2969079       71.03721
2011    15      4       0.3580567       81.67509
2011    15      5       0.4431123       95.33487
2011    15      6       0.5046588       104.4432
2011    15      7       0.5723693       114.421
2011    16      0       0.5899485       116.7282
2011    16      1       0.6611618       125.9534
2011    16      2       0.5860641       115.2956
2011    16      3       0.5030836       102.9586
2011    16      4       0.3217925       73.97716
2011    16      5       0.4796442       100.2779
2011    16      6       0.3347976       76.69699
2011    16      7       0.312166        72.41505
2011    17      0       0.2946621       68.84298
2011    17      1       0.2860203       67.60206
2011    17      2       0.4451776       95.16961
2011    17      3       0.4226256       91.9319
2011    17      4       0.4433867       94.82455
2011    17      5       0.4931555       102.5292
2011    17      6       0.5904099       116.381
2011    17      7       0.6344618       121.9091
2011    18      0       0.7201878       133.4029
2011    18      1       0.7454254       136.417
2011    18      2       0.6869293       129.3555
2011    18      3       0.400007        87.98826
2011    18      4       0.2847861       67.68543
2011    18      5       0.3787402       84.09565
2011    18      6       0.3269776       74.82431
2011    18      7       0.3168308       72.81115
2011    19      0       0.3043465       70.38761
2011    19      1       0.239359        58.34782
2011    19      2       0.208562        52.33874
2011    19      3       0.1893179       48.55208
2011    19      4       0.1278302       36.13557
2011    19      5       0.08902111      27.63392
2011    19      6       0.08889446      27.72079
2011    19      7       0.08251582      26.27644
2011    20      0       0.07203854      23.82326
2011    20      1       0.07508292      24.60632
2011    20      2       0.0738652       24.33092
2011    20      3       0.05267992      19.14993
2011    20      4       0.04879774      18.17043
2011    20      5       0.05713915      20.26499
2011    20      6       0.08186982      26.26258
2011    20      7       0.11203         33.24048
2011    21      0       0.1169758       34.36814
2011    21      1       0.1034127       31.27609
2011    21      2       0.0554015       19.83306
2011    21      3       0.05102621      18.74963
2011    21      4       0.04534463      17.2879
2011    21      5       0.04931254      18.31659
2011    21      6       0.05741339      20.36082
2011    21      7       0.05781737      20.48341
2011    22      0       0.04226531      16.54623
2011    22      1       0.03921451      15.72864
2011    22      2       0.04203331      16.41264
2011    22      3       0.05376323      19.4018
2011    22      4       0.0861084       26.83818
2011    22      5       0.14648         39.84626
2011    22      6       0.2238404       56.16308
2011    22      7       0.3147655       73.92348
2011    23      0       0.4525831       97.71243
2011    23      1       0.5515234       113.1723
2011    23      2       0.5663751       115.6046
2011    23      3       0.5419219       111.786
2011    23      4       0.5881066       117.9534
2011    23      5       0.5791214       116.4765
2011    23      6       0.5319727       109.5503
2011    23      7       0.6227985       121.8181
2011    24      0       0.6102414       120.1213
2011    24      1       0.4579441       97.48261
2011    24      2       0.3843462       85.22823
2011    24      3       0.4216321       91.177
2011    24      4       0.5404684       110.0914
2011    24      5       0.4878076       102.8801
2011    24      6       0.6323529       123.5497
2011    24      7       0.4692705       100.2389
2011    25      0       0.1883035       49.24255
2011    25      1       0.1312944       37.27676
2011    25      2       0.1994389       51.44634
2011    25      3       0.2921851       69.7054
2011    25      4       0.4029779       89.53283
2011    25      5       0.55341         112.0341
2011    25      6       0.5369954       110.7994
2011    25      7       0.8776308       153.1829
2011    26      0       0.9196431       158.1817
2011    26      1       0.9194036       157.5728
2011    26      2       1.042207        169.3471
2011    26      3       1.190164        182.4403
2011    26      4       0.8692221       152.4423
2011    26      5       0.5237115       107.1743
2011    26      6       0.5766743       115.0392
2011    26      7       0.4937154       102.299
2011    27      0       0.5099506       104.4121
2011    27      1       0.6147418       119.8397
2011    27      2       0.611897        119.7546
2011    27      3       0.4144748       90.70493
2011    27      4       0.1604788       43.49986
2011    27      5       0.1994914       51.82771
2011    27      6       0.1605984       43.39182
2011    27      7       0.2022977       51.45136
2011    28      0       0.4627096       97.77048
2011    28      1       0.5737929       115.27
2011    28      2       0.5527549       112.9782
2011    28      3       0.7511413       138.1642
2011    28      4       0.6627927       126.5809
2011    28      5       0.5019316       104.4752
2011    28      6       0.5735111       115.544
2011    28      7       0.5480699       111.9437
2011    29      0       0.4694766       99.86013
2011    29      1       0.2999202       70.96813
2011    29      2       0.2370899       58.81294
2011    29      3       0.3572288       80.86595
2011    29      4       0.1562209       42.21358
2011    29      5       0.1693474       45.21101
2011    29      6       0.2086276       53.18244
2011    29      7       0.2057114       52.57462
2011    30      0       0.05695048      19.9898
2011    30      1       0.05402982      19.27043
2011    30      2       0.05641454      19.73393
2011    30      3       0.06924353      22.71964
2011    30      4       0.1066715       31.46541
2011    30      5       0.1300186       36.7969
2011    30      6       0.1560375       42.66729
2011    30      7       0.2117717       54.87229
2011    31      0       0.1899494       50.42675
2011    31      1       0.2406815       59.47873
2011    31      2       0.475699        102.131
2011    31      3       0.4538023       99.12134
2011    31      4       0.3524428       82.40498
2011    31      5       0.250041        63.15255
2011    31      6       0.19789         52.31281
2011    31      7       0.2009206       52.6909
2012    1       0       0.2059251       53.36297
2012    1       1       0.2060672       53.14655
2012    1       2       0.2894628       69.09519
2012    1       3       0.3941762       87.37892
2012    1       4       0.4545815       97.03518
2012    1       5       0.4554977       97.1793
2012    1       6       0.3448191       79.24953
2012    1       7       0.2709391       66.00712
2012    2       0       0.247999        61.69056
2012    2       1       0.164646        44.72466
2012    2       2       0.1217965       35.29279
2012    2       3       0.141419        39.55577
2012    2       4       0.1171688       34.15792
2012    2       5       0.2366666       58.93723
2012    2       6       0.3476411       78.74545
2012    2       7       0.354437        80.03125
2012    3       0       0.1693863       45.16381
2012    3       1       0.2449895       60.16076
2012    3       2       0.3392533       77.05671
2012    3       3       0.4167764       89.6409
2012    3       4       0.4131842       89.03598
2012    3       5       0.5150947       104.7726
2012    3       6       0.5546914       110.6773
2012    3       7       0.4118597       89.91503
2012    4       0       0.2669406       64.69299
2012    4       1       0.2234612       56.49458
2012    4       2       0.2305293       57.77111
2012    4       3       0.1618561       43.90826
2012    4       4       0.1032572       31.15044
2012    4       5       0.107081        32.0465
2012    4       6       0.1245679       36.10844
2012    4       7       0.1343238       38.3047
2012    5       0       0.134865        38.41278
2012    5       1       0.1536407       42.38705
2012    5       2       0.1817898       48.34691
2012    5       3       0.2075357       53.8095
2012    5       4       0.2023022       52.7907
2012    5       5       0.1810543       48.6087
2012    5       6       0.1959101       51.74673
2012    5       7       0.2168178       55.89496
2012    6       0       0.2272179       58.04465
2012    6       1       0.2371167       59.72934
2012    6       2       0.2610767       64.17362
2012    6       3       0.2780695       67.06086
2012    6       4       0.3175596       73.85563
2012    6       5       0.2823566       67.46269
2012    6       6       0.2460565       60.20668
2012    6       7       0.2622991       63.1167
2012    7       0       0.2429949       59.41907
2012    7       1       0.272773        65.1384
2012    7       2       0.2677828       64.0709
2012    7       3       0.2484712       60.85823
2012    7       4       0.4993982       103.7924
2012    7       5       0.4076995       90.48966
2012    7       6       0.5083891       106.2731
2012    7       7       nan             nan
2012    8       0       0.4960925       106.3841
2012    8       1       0.4027463       91.71657
2012    8       2       0.2547618       64.7078
2012    8       3       0.1324448       38.61333
2012    8       4       0.08842775      27.74381
2012    8       5       0.1372569       39.24423
2012    8       6       0.1973794       52.66731
2012    8       7       0.2724026       68.07218
2012    9       0       0.2942488       72.19863
2012    9       1       0.2931732       71.66888
2012    9       2       0.1939122       51.12364
2012    9       3       0.1809707       48.02243
2012    9       4       0.2097952       54.24922
2012    9       5       0.2231886       57.03431
2012    9       6       0.3084213       73.1353
2012    9       7       0.2870897       69.98718
2012    10      0       0.291198        70.66383
2012    10      1       0.279102        68.4241
2012    10      2       0.3275747       77.71136
2012    10      3       0.4076451       91.48207
2012    10      4       0.4166978       92.78696
2012    10      5       0.5292803       110.6594
2012    10      6       0.5415699       112.8737
2012    10      7       0.5200598       109.681
2012    11      0       0.4123122       92.44328
2012    11      1       0.4071184       91.39421
2012    11      2       0.4422711       96.80445
2012    11      3       0.5434923       112.1203
2012    11      4       0.522427        107.6166
2012    11      5       0.5319095       108.683
2012    11      6       0.42404         92.55771
2012    11      7       0.1958867       51.25559
2012    12      0       0.06734985      22.68111
2012    12      1       0.0492215       18.16415
2012    12      2       0.05313286      19.00555
2012    12      3       0.06280911      21.41556
2012    12      4       0.05281885      18.96443
2012    12      5       0.05512538      19.50986
2012    12      6       0.1008105       29.57691
2012    12      7       0.1379686       38.42298
2012    13      0       0.204934        52.71202
2012    13      1       0.2723293       65.02398
2012    13      2       0.2679097       64.17486
2012    13      3       0.4421577       94.01674
2012    13      4       0.5036791       103.7964
2012    13      5       0.6876312       130.0553
2012    13      6       0.8436771       148.3427
2012    13      7       0.8268431       147.2836
2012    14      0       0.6372307       125.0552
2012    14      1       0.6701496       129.36
2012    14      2       0.748465        139.1251
2012    14      3       0.9105781       156.2291
2012    14      4       0.9345622       158.7248
2012    14      5       0.9141798       156.7366
2012    14      6       0.781149        141.4832
2012    14      7       0.4765315       101.5858
2012    15      0       0.3649423       83.2114
2012    15      1       0.2615208       63.47971
2012    15      2       0.3897027       86.48095
2012    15      3       0.5577729       112.0006
2012    15      4       0.7533401       138.0708
2012    15      5       0.7801871       141.2854
2012    15      6       0.844786        148.6867
2012    15      7       0.8748178       152.0348
2012    16      0       0.8356417       148.2579
2012    16      1       0.7497403       138.5801
2012    16      2       0.4217676       93.106
2012    16      3       0.3596899       82.33084
2012    16      4       0.2602746       63.84705
2012    16      5       0.2683593       64.80255
2012    16      6       0.4373589       94.02037
2012    16      7       0.5841283       116.3919
2012    17      0       0.6375655       123.8825
2012    17      1       0.6375621       124.3535
2012    17      2       0.6461083       125.4695
2012    17      3       0.5785915       116.0898
2012    17      4       0.4341096       94.47719
2012    17      5       0.442926        95.40552
2012    17      6       0.3933206       86.51108
2012    17      7       0.383358        84.6911
2012    18      0       0.3500863       79.25294
2012    18      1       0.3161936       73.5944
2012    18      2       0.2554129       62.41691
2012    18      3       0.125646        35.96019
2012    18      4       0.1188749       34.46406
2012    18      5       0.1923184       50.49466
2012    18      6       0.2611881       63.8708
2012    18      7       0.4792714       101.4778
2012    19      0       0.5715875       115.1492
2012    19      1       0.6110697       121.0616
2012    19      2       0.6277162       123.367
2012    19      3       0.6477441       126.2983
2012    19      4       0.590976        118.6442
2012    19      5       0.6080128       120.6503
2012    19      6       0.7082279       133.3938
2012    19      7       0.2560625       63.29528
2012    20      0       0.1391795       38.93791
2012    20      1       0.07627387      24.81457
2012    20      2       0.07139877      23.63154
2012    20      3       0.07642135      24.70803
2012    20      4       0.1146831       33.14183
2012    20      5       0.1399011       38.64666
2012    20      6       0.2816626       67.24078
2012    20      7       0.3229375       74.63905
2012    21      0       0.3920208       87.72163
2012    21      1       0.4748312       101.8549
2012    21      2       0.4097273       91.17288
2012    21      3       0.3168573       74.56325
2012    21      4       0.3116886       73.41927
2012    21      5       0.3493203       80.02218
2012    21      6       0.3662512       82.75854
2012    21      7       0.2741672       65.89346
2012    22      0       0.3081388       72.04139
2012    22      1       0.2923073       69.64425
2012    22      2       0.3186909       74.62195
2012    22      3       0.3936741       87.9275
2012    22      4       0.4250491       93.2974
2012    22      5       0.3975048       88.83222
2012    22      6       0.4687974       100.0992
2012    22      7       0.4731974       100.8091
2012    23      0       0.4167985       91.70337
2012    23      1       0.4583219       98.30179
2012    23      2       0.4640952       98.72322
2012    23      3       0.3864879       85.59772
2012    23      4       0.3161118       73.01541
2012    23      5       0.3159038       72.50584
2012    23      6       0.4234016       90.96726
2012    23      7       0.1921877       49.38522
2012    24      0       0.1172997       33.72013
2012    24      1       0.08523108      26.61854
2012    24      2       0.06674433      22.34939
2012    24      3       0.04807996      17.85414
2012    24      4       0.04050305      15.90883
2012    24      5       0.05874053      20.46788
2012    24      6       0.0717191       23.70387
2012    24      7       0.09960805      30.13996
2012    25      0       0.160075        43.35887
2012    25      1       0.2430584       60.17832
2012    25      2       0.2564495       62.70764
2012    25      3       0.2709179       65.22868
2012    25      4       0.2189999       55.09421
2012    25      5       0.1739211       46.19482
2012    25      6       0.1018106       30.95947
2012    25      7       0.09273539      28.8558
2012    26      0       0.1023322       31.13159
2012    26      1       0.09603372      29.73447
2012    26      2       0.0829795       26.67041
2012    26      3       0.07187619      23.60974
2012    26      4       0.09600777      28.95622
2012    26      5       0.1510728       40.9375
2012    26      6       0.1931435       50.03259
2012    26      7       0.2328937       58.30049
2012    27      0       0.3661501       82.88418
2012    27      1       0.4882666       103.8174
2012    27      2       0.4260913       94.87534
2012    27      3       0.3689477       84.95155
2012    27      4       0.4439041       97.43729
2012    27      5       0.525157        110.1295
2012    27      6       0.591565        120.3812
2012    27      7       0.6031971       121.6823
2012    28      0       0.4006055       90.67145
2012    28      1       0.4638607       100.5037
2012    28      2       0.6029884       121.5454
2012    28      3       0.6494721       128.0858
2012    28      4       0.4942407       105.391
2012    28      5       0.4717845       100.9218
2012    28      6       0.5794694       116.9404
2012    28      7       0.6581361       127.6217
2012    29      0       0.4913682       102.9964
2012    29      1       0.4268673       93.50656
2012    29      2       0.4018559       89.70594
2012    29      3       0.3401328       79.00813
2012    29      4       0.2791085       67.76019
2012    29      5       0.2675812       65.99711
2012    29      6       0.2868194       69.8019
2012    29      7       0.249292        62.53303
2012    30      0       0.2505569       62.88378
2012    30      1       0.2491854       62.61572
2012    30      2       0.2760344       67.52999
2012    30      3       0.3013701       72.31243
2012    30      4       0.3198109       75.64988
2012    30      5       0.3093401       73.74913
2012    30      6       0.2729626       66.85865
2012    30      7       0.2065251       53.73396
2012    31      0       0.132902        38.00659
2012    31      1       0.1085731       32.49035
2012    31      2       0.1064875       32.03148
2012    31      3       0.1006052       30.65309
2012    31      4       0.1214197       35.44566
2012    31      5       0.1453155       40.85232
2012    31      6       0.1616731       44.53529
2012    31      7       0.1365904       38.90366
2013    1       0       0.1014452       30.66909
2013    1       1       0.09763634      29.77142
2013    1       2       0.1019195       30.73383
2013    1       3       0.1192188       34.55479
2013    1       4       0.1734785       46.01944
2013    1       5       0.2345562       58.13911
2013    1       6       0.3059057       71.37845
2013    1       7       0.2924421       69.06283
2013    2       0       0.2273164       56.8284
2013    2       1       0.185541        48.79934
2013    2       2       0.1439035       40.23131
2013    2       3       0.1834042       48.19839
2013    2       4       0.2347509       58.3635
2013    2       5       0.147414        41.04328
2013    2       6       0.1335991       37.83968
2013    2       7       0.1915016       49.88773
2013    3       0       0.2368054       58.45211
2013    3       1       0.2882023       67.62533
2013    3       2       0.3626991       80.5155
2013    3       3       0.2023041       51.5987
2013    3       4       0.1278558       36.43229
2013    3       5       0.1871319       48.1857
2013    3       6       0.4099237       88.67947
2013    3       7       0.6024379       118.0032
2013    4       0       0.5372377       110.1184
2013    4       1       0.6423015       125.3541
2013    4       2       0.7452451       138.587
2013    4       3       0.8252275       147.9664
2013    4       4       0.7476946       139.6723
2013    4       5       0.6710355       130.3119
2013    4       6       0.509871        106.6393
2013    4       7       0.7716157       140.8891
2013    5       0       0.5023273       104.9204
2013    5       1       0.2923217       69.7883
2013    5       2       0.2083421       53.10924
2013    5       3       0.2002072       51.75151
2013    5       4       0.2610176       63.50142
2013    5       5       0.3774079       84.00664
2013    5       6       0.3208526       75.80935
2013    5       7       0.3160413       74.85729
2013    6       0       0.3299527       77.24937
2013    6       1       0.4540722       98.82025
2013    6       2       0.6241883       123.5212
2013    6       3       0.7014073       133.5276
2013    6       4       0.6789144       129.7605
2013    6       5       0.7509152       139.5386
2013    6       6       0.7856697       143.9196
2013    6       7       0.6920073       132.8284
2013    7       0       1.040425        169.6592
2013    7       1       1.162187        179.6783
2013    7       2       1.2489          187.2049
2013    7       3       1.176578        181.1388
2013    7       4       1.020901        166.443
2013    7       5       0.6443411       124.4292
2013    7       6       0.3427914       78.51685
2013    7       7       0.2239749       56.47971
2013    8       0       0.1435976       39.88149
2013    8       1       0.08080343      25.76139
2013    8       2       0.05407814      19.41419
2013    8       3       0.04994078      18.36996
2013    8       4       0.06660641      22.17605
2013    8       5       0.1008664       29.78874
2013    8       6       0.1145017       32.9538
2013    8       7       0.09973093      29.88915
2013    9       0       0.08567603      26.78436
2013    9       1       0.07440324      24.19777
2013    9       2       0.05993395      20.83007
2013    9       3       0.04939027      18.26263
2013    9       4       0.05149992      18.68282
2013    9       5       0.08310495      26.20959
2013    9       6       0.1473117       40.41248
2013    9       7       0.173156        46.6986
2013    10      0       0.2855353       69.5679
2013    10      1       0.4563235       100.2878
2013    10      2       0.3220489       76.80678
2013    10      3       0.310249        73.34924
2013    10      4       0.2901299       70.14328
2013    10      5       0.3201587       74.58828
2013    10      6       0.2948763       70.52724
2013    10      7       0.4834113       102.8493
2013    11      0       0.4867431       105.1292
2013    11      1       0.5255829       111.9129
2013    11      2       0.4201041       93.28602
2013    11      3       0.6332831       125.0266
2013    11      4       0.899477        156.7163
2013    11      5       1.079894        173.7435
2013    11      6       0.9673497       163.5985
2013    11      7       0.5615531       114.3777
2013    12      0       0.5410371       111.0504
2013    12      1       0.4958859       104.7808
2013    12      2       0.3802788       86.4033
2013    12      3       0.3616821       83.01295
2013    12      4       0.3543958       81.59902
2013    12      5       0.3924865       87.9526
2013    12      6       0.4105881       90.50117
2013    12      7       0.4257769       93.2032
2013    13      0       0.1223188       35.39462
2013    13      1       0.06593884      22.22501
2013    13      2       0.058241        20.34604
2013    13      3       0.06163383      21.09693
2013    13      4       0.07457407      24.27767
2013    13      5       0.1018504       30.82968
2013    13      6       0.1291195       37.23599
2013    13      7       0.1807442       48.59527
2013    14      0       0.2218759       57.60506
2013    14      1       0.2796367       68.86825
2013    14      2       0.2683064       66.75925
2013    14      3       0.2297519       59.2181
2013    14      4       0.1828376       49.68596
2013    14      5       0.1656278       45.65749
2013    14      6       0.1718716       47.18755
2013    14      7       0.1502281       42.44111
2013    15      0       0.1592396       44.37599
2013    15      1       0.1638831       45.29454
2013    15      2       0.1586987       44.14339
2013    15      3       0.1718853       47.09544
2013    15      4       0.2018274       53.44859
2013    15      5       0.2141951       56.06317
2013    15      6       0.2161218       56.33402
2013    15      7       0.2011314       53.10312
2013    16      0       0.171146        46.68467
2013    16      1       0.1907867       50.19501
2013    16      2       0.3388303       79.02354
2013    16      3       0.3634388       83.46195
2013    16      4       0.3114492       74.02165
2013    16      5       0.3083515       73.58396
2013    16      6       0.3211954       76.01686
2013    16      7       0.327606        77.55068
2013    17      0       0.3323937       78.87678
2013    17      1       0.3049316       73.71537
2013    17      2       0.2974517       72.39143
2013    17      3       0.2456731       62.36628
2013    17      4       0.1664482       45.70204
2013    17      5       0.1490375       41.90327
2013    17      6       0.1121502       33.3913
2013    17      7       0.08882531      27.88055
2013    18      0       0.09388186      28.88671
2013    18      1       0.1014192       30.58519
2013    18      2       0.1110202       32.81023
2013    18      3       0.1132745       33.29382
2013    18      4       0.116588        34.03811
2013    18      5       0.1161544       33.95931
2013    18      6       0.1216507       35.21669
2013    18      7       0.119198        34.52703
2013    19      0       0.1295486       36.74789
2013    19      1       0.1497088       41.05943
2013    19      2       0.170821        45.49402
2013    19      3       0.1827807       47.98833
2013    19      4       0.2725842       66.44137
2013    19      5       0.3357191       78.39015
2013    19      6       0.3515654       81.31343
2013    19      7       0.3394097       79.09554
2013    20      0       0.2968663       71.29771
2013    20      1       0.2426782       60.81155
2013    20      2       0.214533        55.35344
2013    20      3       0.2359548       59.75961
2013    20      4       0.2507015       62.64621
2013    20      5       0.2229575       57.03343
2013    20      6       0.2205397       56.17822
2013    20      7       0.2581298       63.25802
2013    21      0       0.3374111       78.45742
2013    21      1       0.3764207       85.36827
2013    21      2       0.4506445       96.99004
2013    21      3       0.4540042       98.41559
2013    21      4       0.4130601       92.40548
2013    21      5       0.4182114       93.39159
2013    21      6       0.3907321       88.52076
2013    21      7       0.340218        79.11802
2013    22      0       0.3650607       82.99359
2013    22      1       0.4495515       97.58565
2013    22      2       0.4941381       104.9778
2013    22      3       0.3582652       82.71934
2013    22      4       0.2122295       54.45082
2013    22      5       0.1695841       45.63481
2013    22      6       0.2391859       59.14901
2013    22      7       0.3143865       72.95029
2013    23      0       0.4031116       88.34921
2013    23      1       0.4648679       98.47383
2013    23      2       0.5097231       105.3474
2013    23      3       0.5353673       108.8231
2013    23      4       0.5553645       111.8919
2013    23      5       0.5985799       117.6936
2013    23      6       0.7226197       133.9907
2013    23      7       0.6754837       128.5077
2013    24      0       0.6855075       129.7031
2013    24      1       0.745031        136.8167
2013    24      2       0.7028361       131.7719
2013    24      3       0.5654321       113.9727
2013    24      4       0.4551962       97.64989
2013    24      5       0.3564989       81.51887
2013    24      6       0.2549358       62.92853
2013    24      7       0.1696883       45.75334
2013    25      0       0.07356567      24.26602
2013    25      1       0.06132784      21.03112
2013    25      2       0.105593        31.13328
2013    25      3       0.1464119       40.28679
2013    25      4       0.2915185       68.41274
2013    25      5       0.5185481       105.7313
2013    25      6       0.6303172       121.6486
2013    25      7       0.311522        73.50852
2013    26      0       0.1458083       40.62083
2013    26      1       0.1040785       30.90796
2013    26      2       0.09781352      29.03797
2013    26      3       0.184322        47.69273
2013    26      4       0.3318065       76.54888
2013    26      5       0.465416        99.36855
2013    26      6       0.6428466       125.4033
2013    26      7       0.6278188       124.3158
2013    27      0       0.5324162       111.2971
2013    27      1       0.3447201       80.82947
2013    27      2       0.3447068       80.89786
2013    27      3       0.4127585       92.55913
2013    27      4       0.3615224       83.84843
2013    27      5       0.3145129       75.02207
2013    27      6       0.3033781       72.83924
2013    27      7       0.3174184       75.68642
2013    28      0       0.3398385       80.01558
2013    28      1       0.2829181       69.60443
2013    28      2       0.2471028       62.29176
2013    28      3       0.2353211       59.64657
2013    28      4       0.2354598       59.65867
2013    28      5       0.2550155       63.56626
2013    28      6       0.2594194       64.47974
2013    28      7       0.296858        72.26501
2013    29      0       0.3113763       75.07448
2013    29      1       0.2459447       62.27469
2013    29      2       0.2178939       56.82571
2013    29      3       0.187076        50.53797
2013    29      4       0.1628978       45.28079
2013    29      5       0.1613136       44.90607
2013    29      6       0.183574        49.72636
2013    29      7       0.183167        49.57771
2013    30      0       0.1079233       32.57047
2013    30      1       0.07785172      25.39757
2013    30      2       0.0809199       26.16977
2013    30      3       0.09853414      30.25986
2013    30      4       0.1193243       34.69411
2013    30      5       0.1454659       40.43549
2013    30      6       0.2077677       54.16408
2013    30      7       0.2790523       68.33632
2013    31      0       0.3019752       71.81462
2013    31      1       0.3045185       72.16967
2013    31      2       0.386455        86.36792
2013    31      3       0.402346        89.12607
2013    31      4       0.3993413       89.07064
2013    31      5       0.3983248       89.2285
2013    31      6       0.4216709       93.34828
2013    31      7       0.4609696       99.55452
2014    1       0       0.6653291       129.8766
2014    1       1       0.4744256       102.2992
2014    1       2       0.31623         74.89177
2014    1       3       0.2467604       61.42058
2014    1       4       0.2307735       58.57056
2014    1       5       0.2091469       54.50142
2014    1       6       0.2118303       54.94742
2014    1       7       0.2583085       64.44721
2014    2       0       0.3110016       74.50598
2014    2       1       0.4342727       95.8529
2014    2       2       0.5460224       112.6487
2014    2       3       0.5554205       113.8946
2014    2       4       0.527082        109.6871
2014    2       5       0.4418206       95.98476
2014    2       6       0.4500413       97.1183
2014    2       7       0.4273079       93.8076
2014    3       0       0.363562        83.29907
2014    3       1       0.2607891       64.30274
2014    3       2       0.1502575       41.49729
2014    3       3       0.1144398       33.41971
2014    3       4       0.108548        32.22924
2014    3       5       0.1112967       32.787
2014    3       6       0.1116368       32.72761
2014    3       7       0.08974785      27.64305
2014    4       0       0.1142244       32.93417
2014    4       1       0.1538698       41.84839
2014    4       2       0.2214803       56.41982
2014    4       3       0.2954481       70.80886
2014    4       4       0.3408247       78.40974
2014    4       5       0.4171419       91.40004
2014    4       6       0.420999        92.71493
2014    4       7       0.3015462       71.54919
2014    5       0       0.2174361       55.5354
2014    5       1       0.1703865       45.96575
2014    5       2       0.1562703       43.08431
2014    5       3       0.154572        42.79574
2014    5       4       0.1706048       46.46912
2014    5       5       0.1588569       43.8011
2014    5       6       0.191484        50.46892
2014    5       7       0.2424243       60.72072
2014    6       0       0.2621236       64.64057
2014    6       1       0.3253734       76.60326
2014    6       2       0.3764452       85.65633
2014    6       3       0.4962924       104.3291
2014    6       4       0.4030016       89.08132
2014    6       5       0.2127146       54.23248
2014    6       6       0.1316509       37.44491
2014    6       7       0.04312959      16.72625
2014    7       0       0.0532256       19.26478
2014    7       1       0.06107557      21.20111
2014    7       2       0.06019555      20.96963
2014    7       3       0.05313314      19.20985
2014    7       4       0.05740593      19.97395
2014    7       5       0.06806909      22.41126
2014    7       6       0.07085156      23.37011
2014    7       7       0.06000411      20.9949
2014    8       0       0.06398254      21.86577
2014    8       1       0.06736964      22.71494
2014    8       2       0.07458256      24.44813
2014    8       3       0.07715014      25.13461
2014    8       4       0.07512238      24.70937
2014    8       5       0.07532038      24.76991
2014    8       6       0.07858576      25.61782
2014    8       7       0.08257947      26.68313
2014    9       0       0.08488902      27.20752
2014    9       1       0.111657        33.34271
2014    9       2       0.1417505       40.38598
2014    9       3       0.1539869       43.05362
2014    9       4       0.1960181       51.36749
2014    9       5       0.1876554       49.03847
2014    9       6       0.2855674       68.92742
2014    9       7       0.4161333       92.86653
2014    10      0       0.3136683       74.17608
2014    10      1       0.3546316       81.16549
2014    10      2       0.3230464       75.68283
2014    10      3       0.3730997       84.6765
2014    10      4       0.5936244       119.515
2014    10      5       0.4753786       101.2403
2014    10      6       0.4078426       89.21759
2014    10      7       0.4106575       89.61307
2014    11      0       0.382903        85.30886
2014    11      1       0.375053        83.95646
2014    11      2       0.183846        48.22744
2014    11      3       0.07569359      24.69644
2014    11      4       0.06241483      21.44408
2014    11      5       0.06196149      21.27987
2014    11      6       0.0760838       24.58244
2014    11      7       0.09864371      29.7045
2014    12      0       0.1127392       32.90382
2014    12      1       0.113357        33.10001
2014    12      2       0.1025178       30.53606
2014    12      3       0.07785185      24.99847
2014    12      4       0.069886        23.09929
2014    12      5       0.0579117       20.21714
2014    12      6       0.04669769      17.5493
2014    12      7       0.05369976      19.3503
2014    13      0       0.05142855      18.74069
2014    13      1       0.05130618      18.68022
2014    13      2       0.05281647      19.02651
2014    13      3       0.06162764      21.18789
2014    13      4       0.07057681      23.30681
2014    13      5       0.08073367      25.6153
2014    13      6       0.1046219       30.99758
2014    13      7       0.1539677       41.48641
2014    14      0       0.1771898       46.75041
2014    14      1       0.2239207       56.18349
2014    14      2       0.2253552       56.33394
2014    14      3       0.1730324       45.78067
2014    14      4       0.1399145       38.94597
2014    14      5       0.1509608       41.21171
2014    14      6       0.1760168       46.24523
2014    14      7       0.1918527       49.45308
2014    15      0       0.183944        48.14916
2014    15      1       0.1714098       45.86888
2014    15      2       0.1929622       50.27355
2014    15      3       0.3302216       75.90038
2014    15      4       0.3571095       81.51772
2014    15      5       0.3889998       87.6168
2014    15      6       0.4524212       97.53689
2014    15      7       0.402417        90.11024
2014    16      0       0.3591681       83.3331
2014    16      1       0.3405597       80.17268
2014    16      2       0.4125708       92.40188
2014    16      3       0.5233275       109.2672
2014    16      4       0.6043787       120.9614
2014    16      5       0.6856548       132.0689
2014    16      6       0.6322913       125.5189
2014    16      7       0.5160419       109.289
2014    17      0       0.3536534       82.56396
2014    17      1       0.2618624       65.33897
2014    17      2       0.2385325       60.72034
2014    17      3       0.2017992       53.588
2014    17      4       0.1468464       41.89829
2014    17      5       0.1205292       35.9286
2014    17      6       0.1152727       34.68015
2014    17      7       0.106262        32.55878
2014    18      0       0.09458436      29.81118
2014    18      1       0.08729412      28.00563
2014    18      2       0.08124886      26.52354
2014    18      3       0.07808685      25.75922
2014    18      4       0.07917737      26.0233
2014    18      5       0.07840683      25.7803
2014    18      6       0.085805        27.59226
2014    18      7       0.08758213      28.05582
2014    19      0       0.06985985      23.7207
2014    19      1       0.06476845      22.42384
2014    19      2       0.06913849      23.54075
2014    19      3       0.06981074      23.74206
2014    19      4       0.0617046       21.7113
2014    19      5       0.05767236      20.68799
2014    19      6       0.07323967      24.60141
2014    19      7       0.09294052      29.42084
2014    20      0       0.09517755      30.0009
2014    20      1       0.09641453      30.3606
2014    20      2       0.103592        32.01819
2014    20      3       0.1308316       38.40494
2014    20      4       0.1680571       46.73712
2014    20      5       0.1865152       50.69405
2014    20      6       0.207066        55.07915
2014    20      7       0.262934        66.47479
2014    21      0       0.2262247       58.95262
2014    21      1       0.1806911       49.22719
2014    21      2       0.1730171       47.54945
2014    21      3       0.132144        38.31869
2014    21      4       0.1395883       39.94066
2014    21      5       0.1711759       47.01864
2014    21      6       0.193467        51.82073
2014    21      7       0.1990037       52.83243
2014    22      0       0.1982846       52.5911
2014    22      1       0.1586615       44.10966
2014    22      2       0.1746996       47.57512
2014    22      3       0.2314004       59.36086
2014    22      4       0.2912652       70.80268
2014    22      5       0.3476793       80.68936
2014    22      6       0.4038844       90.2547
2014    22      7       0.450123        97.88609
2014    23      0       0.4337883       95.44768
2014    23      1       0.360591        83.32334
2014    23      2       0.3416829       79.65462
2014    23      3       0.2856652       68.90935
2014    23      4       0.3771164       84.33659
2014    23      5       0.505769        104.175
2014    23      6       0.6527419       124.3008
2014    23      7       0.518018        106.6071
2014    24      0       0.427598        92.48175
2014    24      1       0.4472519       95.06689
2014    24      2       0.4166697       89.75423
2014    24      3       0.5481516       109.6724
2014    24      4       0.55276         110.307
2014    24      5       0.4871936       101.186
2014    24      6       0.4365647       93.5528
2014    24      7       0.3712661       82.92748
2014    25      0       0.2335827       58.22415
2014    25      1       0.1327537       37.499
2014    25      2       0.1018851       30.66931
2014    25      3       0.07873091      25.39462
2014    25      4       0.06834728      22.87245
2014    25      5       0.07278512      23.95303
2014    25      6       0.08013942      25.74328
2014    25      7       0.08763434      27.42094
2014    26      0       0.09192862      28.43672
2014    26      1       0.11503         33.50535
2014    26      2       0.1471843       40.59592
2014    26      3       0.1765039       46.90821
2014    26      4       0.2176931       55.48862
2014    26      5       0.2307876       58.08073
2014    26      6       0.2914237       69.50335
2014    26      7       0.3507611       79.88717
2014    27      0       0.343432        78.88461
2014    27      1       0.3548853       80.99704
2014    27      2       0.3924577       87.53203
2014    27      3       0.3933901       87.65641
2014    27      4       0.3706749       83.534
2014    27      5       0.3938047       87.57641
2014    27      6       0.4073533       90.08406
2014    27      7       0.3736387       84.85509
2014    28      0       0.3161891       74.91062
2014    28      1       0.3230636       75.51091
2014    28      2       0.5528788       111.9466
2014    28      3       0.7098777       133.2689
2014    28      4       0.6853695       130.308
2014    28      5       0.7650388       139.6677
2014    28      6       0.6118168       121.3495
2014    28      7       0.631192        124.4976
2014    29      0       0.6591947       128.5562
2014    29      1       0.7281226       136.9353
2014    29      2       0.7021682       132.9619
2014    29      3       0.5846329       117.1553
2014    29      4       0.5634306       114.2791
2014    29      5       0.6067372       119.683
2014    29      6       0.5880943       117.1891
2014    29      7       0.5710342       115.4563
2014    30      0       0.6279657       123.46
2014    30      1       0.7589816       140.0919
2014    30      2       0.8562444       150.7608
2014    30      3       0.6892497       131.7192
2014    30      4       0.819946        146.9527
2014    30      5       0.4644454       100.0049
2014    30      6       0.2920603       68.95772
2014    30      7       0.4577732       97.5921
2014    31      0       0.4360779       94.42231
2014    31      1       0.6099998       119.9074
2014    31      2       0.6660162       127.5742
2014    31      3       0.2505117       60.85466
2014    31      4       0.4074083       88.76849
2014    31      5       0.6110399       119.8317
2014    31      6       0.8412817       148.6126
2014    31      7       0.8298756       148.2249
2015    1       0       0.8822784       153.1664
2015    1       1       0.9993374       165.3821
2015    1       2       0.9279452       158.9423
2015    1       3       0.7646973       141.2395
2015    1       4       0.8004302       145.736
2015    1       5       0.7434015       139.0988
2015    1       6       0.7316582       137.0075
2015    1       7       0.8858689       154.5905
2015    2       0       0.8905488       154.6768
2015    2       1       0.897967        155.2095
2015    2       2       0.8887834       153.8606
2015    2       3       0.8763568       152.2861
2015    2       4       0.8902765       153.1724
2015    2       5       0.9942416       164.6093
2015    2       6       1.109295        174.5192
2015    2       7       1.028713        167.4968
2015    3       0       0.6968484       131.7483
2015    3       1       0.4750283       101.7951
2015    3       2       0.4364557       96.0722
2015    3       3       0.4074625       90.69367
2015    3       4       0.6977503       132.2825
2015    3       5       0.991302        164.9316
2015    3       6       1.017262        167.5062
2015    3       7       0.9535236       161.3627
2015    4       0       0.8944895       154.8297
2015    4       1       0.7970381       144.3529
2015    4       2       0.5722592       116.4569
2015    4       3       0.4776781       102.0402
2015    4       4       0.4068357       91.44049
2015    4       5       0.3998561       90.18871
2015    4       6       0.6545648       129.1706
2015    4       7       0.968539        163.0623
2015    5       0       0.7831623       143.0895
2015    5       1       0.8999485       155.3078
2015    5       2       1.059143        171.1653
2015    5       3       1.208298        183.7011
2015    5       4       1.129134        176.836
2015    5       5       1.139261        177.5334
2015    5       6       1.192631        182.2945
2015    5       7       1.184324        181.5826
2015    6       0       1.155357        179.4882
2015    6       1       1.071385        172.9506
2015    6       2       1.028708        168.8271
2015    6       3       1.046977        170.656
2015    6       4       0.9248796       158.5664
2015    6       5       0.931849        159.193
2015    6       6       0.8503354       149.9315
2015    6       7       0.7328134       135.833
2015    7       0       0.5403587       110.5838
2015    7       1       0.3033805       71.74076
2015    7       2       0.3310628       76.77931
2015    7       3       0.5369382       110.4344
2015    7       4       0.4410377       95.66252
2015    7       5       0.4730377       100.6249
2015    7       6       0.3828496       85.88328
2015    7       7       0.5435111       110.6954
2015    8       0       0.5839869       116.3977
2015    8       1       0.6191081       121.5375
2015    8       2       0.709588        133.3716
2015    8       3       0.5963213       118.6493
2015    8       4       0.5326679       109.9621
2015    8       5       0.3873148       87.02658
2015    8       6       0.3245225       75.4612
2015    8       7       0.2768255       66.76591
2015    9       0       0.2753065       66.4265
2015    9       1       0.2585271       63.06357
2015    9       2       0.2750942       65.90238
2015    9       3       0.3423051       78.45156
2015    9       4       0.4041294       89.14844
2015    9       5       0.4302005       93.36878
2015    9       6       0.5071395       104.756
2015    9       7       0.4825855       100.8186
2015    10      0       0.3466096       78.17536
2015    10      1       0.3777084       83.48337
2015    10      2       0.3478265       78.67398
2015    10      3       0.3389135       76.93917
2015    10      4       0.3489241       78.62497
2015    10      5       0.4660843       97.909
2015    10      6       0.4442695       94.92617
2015    10      7       0.2378651       58.32521
2015    11      0       0.1835323       47.62997
2015    11      1       0.1409774       38.86305
2015    11      2       0.143635        39.4612
2015    11      3       0.1357579       37.99448
2015    11      4       0.102131        30.64153
2015    11      5       0.09881436      29.84762
2015    11      6       0.1323068       37.17981
2015    11      7       0.1814518       47.1568
2015    12      0       0.2552906       61.84165
2015    12      1       0.3592407       80.89315
2015    12      2       0.5674154       113.4994
2015    12      3       0.5222146       107.5538
2015    12      4       0.3922655       87.07826
2015    12      5       0.4795678       100.5069
2015    12      6       0.5936654       116.6805
2015    12      7       0.4500876       95.85101
2015    13      0       0.3040721       71.19706
2015    13      1       0.2524466       61.45312
2015    13      2       0.3058259       71.12327
2015    13      3       0.4015198       87.42937
2015    13      4       0.4321196       92.3295
2015    13      5       0.3724367       82.48423
2015    13      6       0.3645883       81.56051
2015    13      7       0.5683783       112.7199
2015    14      0       0.2979651       69.88789
2015    14      1       0.1367447       38.10026
2015    14      2       0.1767863       46.40562
2015    14      3       0.1910573       49.41932
2015    14      4       0.142856        39.55182
2015    14      5       0.1518959       41.61164
2015    14      6       0.1389536       38.61225
2015    14      7       0.2220859       55.01429
2015    15      0       0.4023257       88.05779
2015    15      1       0.539819        109.6301
2015    15      2       0.423602        92.3105
2015    15      3       0.4151121       90.36783
2015    15      4       0.3245294       74.3787
2015    15      5       0.3652989       81.49065
2015    15      6       0.4129983       89.31795
2015    15      7       0.436611        93.32423
2015    16      0       0.3242702       75.16606
2015    16      1       0.2624521       64.0257
2015    16      2       0.2737128       66.26044
2015    16      3       0.2931166       70.08381
2015    16      4       0.2781887       67.40857
2015    16      5       0.2768198       67.12362
2015    16      6       0.3142049       74.06183
2015    16      7       0.3047246       72.46222
2015    17      0       0.1857796       49.31189
2015    17      1       0.2003441       52.52858
2015    17      2       0.2210267       56.77074
2015    17      3       0.2169333       55.7726
2015    17      4       0.1945313       51.09366
2015    17      5       0.1951812       51.63981
2015    17      6       0.2365288       60.43745
2015    17      7       0.1942963       52.10083
2015    18      0       0.1511398       42.16379
2015    18      1       0.1781959       47.28774
2015    18      2       0.1661668       44.64582
2015    18      3       0.1694413       45.45655
2015    18      4       0.1938088       50.56024
2015    18      5       0.1928481       50.30769
2015    18      6       0.1606138       43.57047
2015    18      7       0.1402618       39.15453
2015    19      0       0.14428         39.86487
2015    19      1       0.1315694       37.1991
2015    19      2       0.1154646       33.78128
2015    19      3       0.1326815       37.67413
2015    19      4       0.1952667       51.14092
2015    19      5       0.1822265       48.40858
2015    19      6       0.2139588       55.10066
2015    19      7       0.2695075       66.27189
2015    20      0       0.3745278       84.82035
2015    20      1       0.5448661       111.8342
2015    20      2       0.8482035       149.6365
2015    20      3       0.8467994       150.5548
2015    20      4       0.6287138       123.8283
2015    20      5       0.4236067       93.19261
2015    20      6       0.3364101       78.72607
2015    20      7       0.3057426       72.60365
2015    21      0       0.4915749       102.7076
2015    21      1       0.313311        73.64259
2015    21      2       0.3545313       80.13439
2015    21      3       0.3743262       83.91474
2015    21      4       0.2985214       71.12882
2015    21      5       0.2727606       66.15648
2015    21      6       0.3690356       82.7018
2015    21      7       0.4508197       96.01447
2015    22      0       0.2938767       69.84441
2015    22      1       0.1176077       34.12111
2015    22      2       0.1478208       40.08331
2015    22      3       0.2064148       52.43994
2015    22      4       0.2707758       65.77427
2015    22      5       0.3902309       86.66129
2015    22      6       0.4961659       104.014
2015    22      7       0.523501        108.9996
2015    23      0       0.5470342       112.9954
2015    23      1       0.6253054       123.1981
2015    23      2       0.796383        143.4889
2015    23      3       0.7002523       132.8934
2015    23      4       0.8188281       146.9014
2015    23      5       0.8021764       146.1624
2015    23      6       0.6209863       123.8652
2015    23      7       0.6465588       126.5803
2015    24      0       0.892961        154.5917
2015    24      1       0.631106        123.448
2015    24      2       0.3022227       71.78542
2015    24      3       0.2759389       66.77818
2015    24      4       0.2914447       69.33534
2015    24      5       0.3183783       74.18315
2015    24      6       0.3850364       85.76134
2015    24      7       0.3549869       80.66664
2015    25      0       0.4009338       88.9977
2015    25      1       0.4220947       92.54398
2015    25      2       0.4722534       100.5943
2015    25      3       0.5245649       108.3984
2015    25      4       0.6941152       131.0999
2015    25      5       0.6406372       124.1083
2015    25      6       0.2262638       57.04827
2015    25      7       0.2001279       51.4527
2015    26      0       0.1997356       51.31616
2015    26      1       0.2663273       64.12291
2015    26      2       0.2957167       69.42404
2015    26      3       0.2122975       53.68497
2015    26      4       0.1455083       40.08428
2015    26      5       0.1906488       48.89276
2015    26      6       0.2566432       62.58151
2015    26      7       0.4927121       103.0671
2015    27      0       0.4680129       100.0549
2015    27      1       0.4427182       96.41007
2015    27      2       0.4733289       101.1321
2015    27      3       0.6138275       121.9014
2015    27      4       0.8861212       155.1031
2015    27      5       1.096037        175.3562
2015    27      6       0.8602531       152.4261
2015    27      7       0.9545085       161.8391
2015    28      0       0.9452461       161.5126
2015    28      1       1.039457        169.7039
2015    28      2       0.8141093       146.5938
2015    28      3       0.6892426       131.3264
2015    28      4       0.5910507       117.9434
2015    28      5       0.564279        113.9472
2015    28      6       0.4591581       98.53203
2015    28      7       0.4007492       88.72927
2015    29      0       0.3649906       83.21314
2015    29      1       0.3800097       86.28032
2015    29      2       0.4698774       101.6494
2015    29      3       0.5710348       117.3611
2015    29      4       0.6095943       123.008
2015    29      5       0.6206586       124.6611
2015    29      6       0.6396541       127.4688
2015    29      7       0.6532025       129.1419
2015    30      0       0.5737158       118.4373
2015    30      1       0.4867734       105.8139
2015    30      2       0.471787        103.4723
2015    30      3       0.4351205       97.08737
2015    30      4       0.3735361       86.86557
2015    30      5       0.4020737       91.84888
2015    30      6       0.4025807       91.67237
2015    30      7       0.2982777       72.63485
2015    31      0       0.2304094       59.3323
2015    31      1       0.2107027       55.39861
2015    31      2       0.1999449       52.84574
2015    31      3       0.172096        46.74865
2015    31      4       0.1610428       44.37456
2015    31      5       0.1696415       46.43045
2015    31      6       0.1685764       46.19753
2015    31      7       0.1420371       40.32996
2016    1       0       0.2354701       58.68743
2016    1       1       0.1560512       42.29957
2016    1       2       0.1589424       42.85924
2016    1       3       0.1824138       47.64368
2016    1       4       0.1843481       48.05343
2016    1       5       0.1891766       49.05637
2016    1       6       0.2506661       61.73113
2016    1       7       0.1853934       48.76982
2016    2       0       0.1311264       37.10232
2016    2       1       0.131698        37.13404
2016    2       2       0.1552694       42.0713
2016    2       3       0.1748873       46.17015
2016    2       4       0.1574437       42.60767
2016    2       5       0.1929274       49.96626
2016    2       6       0.2887462       68.96814
2016    2       7       0.2636515       63.86604
2016    3       0       0.3451428       79.04668
2016    3       1       0.4601484       97.98196
2016    3       2       0.3501052       79.92968
2016    3       3       0.2563434       62.98336
2016    3       4       0.254636        62.90962
2016    3       5       0.3761416       84.46352
2016    3       6       0.4017788       89.24514
2016    3       7       0.413381        91.39732
2016    4       0       0.332678        77.38437
2016    4       1       0.3045265       72.20925
2016    4       2       0.3159705       74.25689
2016    4       3       0.315112        74.11033
2016    4       4       0.2601295       64.13947
2016    4       5       0.266615        65.75006
2016    4       6       0.3213292       76.45579
2016    4       7       0.291816        70.68801
2016    5       0       0.2478418       61.82266
2016    5       1       0.261592        64.42551
2016    5       2       0.2736661       66.68461
2016    5       3       0.2566186       63.25666
2016    5       4       0.2276665       57.59517
2016    5       5       0.2279695       57.93919
2016    5       6       0.2956717       71.25818
2016    5       7       0.2935834       70.763
2016    6       0       0.2310316       58.5364
2016    6       1       0.248778        62.17106
2016    6       2       0.2223013       56.81736
2016    6       3       0.2595788       63.78052
2016    6       4       0.3853701       85.95739
2016    6       5       0.4324486       94.52646
2016    6       6       0.5261243       109.5298
2016    6       7       0.4837833       103.5544
2016    7       0       0.4927643       105.2186
2016    7       1       0.5900755       119.3269
2016    7       2       0.7451645       139.1822
2016    7       3       0.820534        147.5111
2016    7       4       0.7676401       141.0818
2016    7       5       0.7834534       142.2201
2016    7       6       0.7742733       141.9117
2016    7       7       0.4393263       97.08657
2016    8       0       0.3289901       77.81891
2016    8       1       0.299472        71.92557
2016    8       2       0.3899388       87.75297
2016    8       3       0.3047632       72.98414
2016    8       4       0.2406164       61.05211
2016    8       5       0.1522141       42.51915
2016    8       6       0.2165528       56.49278
2016    8       7       0.204267        53.94747
2016    9       0       0.0805953       25.91122
2016    9       1       0.08016749      25.59468
2016    9       2       0.08169666      25.93615
2016    9       3       0.07497178      24.48988
2016    9       4       0.09721791      29.77544
2016    9       5       0.1239791       35.63576
2016    9       6       0.2528793       62.85936
2016    9       7       0.3376457       79.21353
2016    10      0       0.2873361       69.38265
2016    10      1       0.2394575       60.37697
2016    10      2       0.2154442       55.44689
2016    10      3       0.1988869       52.38195
2016    10      4       0.2008218       52.80724
2016    10      5       0.258756        63.94678
2016    10      6       0.3411697       80.47195
2016    10      7       0.3513637       82.1281
2016    11      0       0.2832354       69.25227
2016    11      1       0.2271457       57.84533
2016    11      2       0.2670903       65.26619
2016    11      3       0.3484766       79.48491
2016    11      4       0.2040806       52.72916
2016    11      5       0.3043158       71.5795
2016    11      6       0.3373844       78.99165
2016    11      7       0.3868853       88.00174
2016    12      0       0.3984625       90.01573
2016    12      1       0.4752019       102.7757
2016    12      2       0.6147016       123.0814
2016    12      3       0.841484        151.1155
2016    12      4       0.9148214       159.2714
2016    12      5       0.9722824       165.0159
2016    12      6       0.9682237       164.357
2016    12      7       0.7726983       143.2739
2016    13      0       0.5578975       114.4205
2016    13      1       0.6796724       129.9417
2016    13      2       0.8861648       154.5972
2016    13      3       0.8960475       156.9367
2016    13      4       0.5998499       123.0349
2016    13      5       0.5666311       117.839
2016    13      6       0.6786879       132.9182
2016    13      7       0.8435439       152.1461
2016    14      0       0.9077725       159.0879
2016    14      1       0.9739825       165.8554
2016    14      2       1.07009         174.6685
2016    14      3       1.086008        175.4562
2016    14      4       0.9401928       161.728
2016    14      5       0.9941658       165.8325
2016    14      6       1.011534        167.4455
2016    14      7       1.066491        172.9947
2016    15      0       1.05197         172.1373
2016    15      1       0.9355607       160.3783
2016    15      2       0.9470926       160.6892
2016    15      3       0.9043789       156.5691
2016    15      4       0.7821014       143.1098
2016    15      5       0.7190935       136.0301
2016    15      6       0.7061891       134.5274
2016    15      7       0.7495686       140.0989
2016    16      0       0.7786659       142.8117
2016    16      1       0.8074714       146.194
2016    16      2       0.7893629       143.8183
2016    16      3       0.9025881       156.6118
2016    16      4       0.8084969       146.4587
2016    16      5       0.501521        106.1413
2016    16      6       0.5264531       109.7273
2016    16      7       0.4534916       98.26414
2016    17      0       0.3316458       77.36771
2016    17      1       0.2237722       56.55726
2016    17      2       0.2870212       68.20633
2016    17      3       0.3411575       77.81349
2016    17      4       0.2792808       66.76499
2016    17      5       0.3156386       73.42638
2016    17      6       0.326288        75.6052
2016    17      7       0.3287812       75.88324
2016    18      0       0.1555168       42.50956
2016    18      1       0.09937648      29.88842
2016    18      2       0.1145202       33.04259
2016    18      3       0.12621         35.59716
2016    18      4       0.1313247       36.66057
2016    18      5       0.1588108       42.64694
2016    18      6       0.2043814       52.13638
2016    18      7       0.2785611       66.2089
2016    19      0       0.3078297       71.44266
2016    19      1       0.3465669       78.13322
2016    19      2       0.4321638       92.22621
2016    19      3       0.3670119       81.83113
2016    19      4       0.2868115       67.58365
2016    19      5       0.2547083       61.56628
2016    19      6       0.2990933       69.85798
2016    19      7       0.3308399       75.92618
2016    20      0       0.2599139       62.92278
2016    20      1       0.2072834       52.70963
2016    20      2       0.2024936       51.81529
2016    20      3       0.1471938       40.60891
2016    20      4       0.09573576      29.28233
2016    20      5       0.1292997       37.1586
2016    20      6       0.187763        50.31827
2016    20      7       0.2367152       60.87284
2016    21      0       0.2066327       54.65131
2016    21      1       0.2094691       55.31372
2016    21      2       0.3054943       74.48086
2016    21      3       0.3724145       87.10251
2016    21      4       0.2572949       65.45972
2016    21      5       0.300408        72.64609
2016    21      6       0.3691465       85.56543
2016    21      7       0.4001757       91.19085
2016    22      0       0.3208762       76.87505
2016    22      1       0.2944275       71.90736
2016    22      2       0.2308332       58.93403
2016    22      3       0.1901375       50.57394
2016    22      4       0.1988421       52.53532
2016    22      5       0.1946526       52.30365
2016    22      6       0.2537405       65.41775
2016    22      7       0.2917182       72.93071
2016    23      0       0.1169995       35.11569
2016    23      1       0.1370879       39.77741
2016    23      2       0.2116842       56.11101
2016    23      3       0.2711523       68.19314
2016    23      4       0.3276468       78.40545
2016    23      5       0.3624957       84.64198
2016    23      6       0.454234        100.3722
2016    23      7       0.45758         101.043
2016    24      0       0.4107088       92.93508
2016    24      1       0.4579124       100.5944
2016    24      2       0.4804771       104.1309
2016    24      3       0.5162492       109.9731
2016    24      4       0.2911521       71.23573
2016    24      5       0.2358438       60.4069
2016    24      6       0.303881        73.71705
2016    24      7       0.2869161       70.61904
2016    25      0       0.2381529       60.17981
2016    25      1       0.2768903       67.14623
2016    25      2       0.2928047       70.21262
2016    25      3       0.2925442       70.24696
2016    25      4       0.3187618       75.52588
2016    25      5       0.3330671       78.41813
2016    25      6       0.3388489       79.89623
2016    25      7       0.3685571       85.75408
2016    26      0       0.2689683       66.62146
2016    26      1       0.2229183       57.30548
2016    26      2       0.1874083       49.79854
2016    26      3       0.173676        46.55744
2016    26      4       0.1699819       45.46724
2016    26      5       0.1837226       48.62471
2016    26      6       0.233622        58.86127
2016    26      7       0.3370364       78.93921
2016    27      0       0.2812467       67.73121
2016    27      1       0.2946317       70.10783
2016    27      2       0.356291        81.28492
2016    27      3       0.4097155       90.339
2016    27      4       0.6249533       121.7016
2016    27      5       0.5715545       114.8108
2016    27      6       0.5942486       117.9153
2016    27      7       0.7931889       141.8655
2016    28      0       0.7037757       131.3992
2016    28      1       0.7296548       134.289
2016    28      2       0.7393096       135.6153
2016    28      3       0.7220557       133.5047
2016    28      4       0.6603477       125.4561
2016    28      5       0.7050603       130.7141
2016    28      6       0.5681559       113.4593
2016    28      7       0.5028562       104.4075
2016    29      0       0.2493642       62.09019
2016    29      1       0.1887278       49.94645
2016    29      2       0.1664711       44.962
2016    29      3       0.1698739       45.89273
2016    29      4       0.161701        44.32192
2016    29      5       0.1734821       46.95791
2016    29      6       0.2185333       56.72635
2016    29      7       0.2926318       71.18727
2016    30      0       0.387945        88.32484
2016    30      1       0.5310689       111.713
2016    30      2       0.6342402       126.1536
2016    30      3       0.717059        136.9722
2016    30      4       0.7451056       140.6385
2016    30      5       0.8044156       147.407
2016    30      6       0.7524272       141.045
2016    30      7       0.7452462       139.6123
2016    31      0       0.7546262       140.7372
2016    31      1       0.8677319       153.8575
2016    31      2       0.7714501       142.7725
2016    31      3       0.8067269       145.3638
2016    31      4       0.793578        143.8397
2016    31      5       0.8140854       146.3855
2016    31      6       0.7162771       135.0509
2016    31      7       0.6294076       123.4243
2017    1       0       0.259724        64.22313
2017    1       1       0.2328446       58.80117
2017    1       2       0.2717003       65.99917
2017    1       3       0.3103076       72.92944
2017    1       4       0.3805667       85.28158
2017    1       5       0.5357361       108.9815
2017    1       6       0.6638532       126.6839
2017    1       7       0.7385523       135.6487
2017    2       0       0.585843        116.3158
2017    2       1       0.3773476       85.14099
2017    2       2       0.2164245       55.79122
2017    2       3       0.1639759       44.95958
2017    2       4       0.136865        38.97836
2017    2       5       0.1268169       36.46226
2017    2       6       0.1845018       49.19597
2017    2       7       0.1853802       49.2649
2017    3       0       0.1642005       44.74825
2017    3       1       0.1586761       43.74264
2017    3       2       0.1585254       44.08732
2017    3       3       0.1399985       40.09966
2017    3       4       0.1669815       45.81655
2017    3       5       0.1806309       48.70556
2017    3       6       0.2338903       59.76482
2017    3       7       0.2636879       65.64546
2017    4       0       0.1696063       45.48877
2017    4       1       0.1616765       43.84573
2017    4       2       0.183077        48.46586
2017    4       3       0.2054964       53.4386
2017    4       4       0.1483554       41.55689
2017    4       5       0.1152898       33.84929
2017    4       6       0.1526074       42.68181
2017    4       7       0.2051441       54.01238
2017    5       0       0.1850642       49.59894
2017    5       1       0.1788248       48.70012
2017    5       2       0.2757618       67.58801
2017    5       3       0.3831835       86.78697
2017    5       4       0.5165941       107.8023
2017    5       5       0.6218984       123.1764
2017    5       6       0.5875526       118.8044
2017    5       7       0.4775626       102.1038
2017    6       0       0.3642365       83.25287
2017    6       1       0.3056686       72.35603
2017    6       2       0.2189922       55.3935
2017    6       3       0.2330341       57.78996
2017    6       4       0.2589169       62.40692
2017    6       5       0.2485017       60.39646
2017    6       6       0.2413454       59.55205
2017    6       7       0.1802622       47.78772
2017    7       0       0.1770138       46.01353
2017    7       1       0.2602738       62.38473
2017    7       2       0.2067469       52.10958
2017    7       3       0.2439637       59.32027
2017    7       4       0.3757936       83.01676
2017    7       5       0.4699796       98.51772
2017    7       6       0.5154342       106.2325
2017    7       7       0.5880132       116.4869
2017    8       0       0.5268503       107.6508
2017    8       1       0.5649246       113.5055
2017    8       2       0.3416343       78.61963
2017    8       3       0.4030294       88.66677
2017    8       4       0.5142812       106.8945
2017    8       5       0.5087899       107.4233
2017    8       6       0.5711717       117.0524
2017    8       7       0.5121685       108.5392
2017    9       0       0.4934034       105.5462
2017    9       1       0.539962        112.4058
2017    9       2       0.5720219       116.7255
2017    9       3       0.6779265       129.5832
2017    9       4       0.7000298       132.5184
2017    9       5       0.7043786       133.0521
2017    9       6       0.7486613       138.214
2017    9       7       0.7382658       136.7797
2017    10      0       0.6934986       131.3109
2017    10      1       0.5677697       114.4112
2017    10      2       0.5655275       113.9737
2017    10      3       0.5200368       107.5185
2017    10      4       0.4820662       101.5137
2017    10      5       0.3856871       85.80418
2017    10      6       0.5266839       107.8871
2017    10      7       0.5889368       117.0177
2017    11      0       0.659619        126.1023
2017    11      1       0.6460615       124.1924
2017    11      2       0.6064138       118.8666
2017    11      3       0.5656464       113.3394
2017    11      4       0.5209447       106.8199
2017    11      5       0.4351647       93.47744
2017    11      6       0.4397016       93.90413
2017    11      7       0.4622725       97.07194
2017    12      0       0.4022862       87.50833
2017    12      1       0.4492216       94.83583
2017    12      2       0.478051        99.17982
2017    12      3       0.4333421       92.0542
2017    12      4       0.3266873       74.23016
2017    12      5       0.2373368       58.15842
2017    12      6       0.2970812       69.60839
2017    12      7       0.2310303       57.68337
2017    13      0       0.2289222       56.68504
2017    13      1       0.2877923       68.14631
2017    13      2       0.4126046       90.36102
2017    13      3       0.5091835       105.6578
2017    13      4       0.692539        130.9902
2017    13      5       0.6280563       123.1982
2017    13      6       0.5281443       108.3141
2017    13      7       0.4226804       92.64218
2017    14      0       0.3487095       80.21182
2017    14      1       0.3348386       77.76978
2017    14      2       0.2499651       61.95892
2017    14      3       0.1816348       48.17196
2017    14      4       0.1463102       40.6092
2017    14      5       0.1567288       42.82868
2017    14      6       0.2091231       53.76189
2017    14      7       0.1959748       50.73544
2017    15      0       0.1907227       49.19911
2017    15      1       0.2308698       57.5072
2017    15      2       0.2407633       59.44714
2017    15      3       0.3173665       73.84056
2017    15      4       0.4235347       92.30669
2017    15      5       0.5272156       108.6917
2017    15      6       0.5017968       105.3323
2017    15      7       0.5327439       109.8419
2017    16      0       0.482972        102.5224
2017    16      1       0.4417531       96.34722
2017    16      2       0.4367912       96.02682
2017    16      3       0.3593139       83.35814
2017    16      4       0.2825456       69.45417
2017    16      5       0.2522704       63.25997
2017    16      6       0.3360784       78.97134
2017    16      7       0.369528        84.85678
2017    17      0       0.3438833       79.9566
2017    17      1       0.415861        92.28004
2017    17      2       0.3374561       78.41731
2017    17      3       0.2991468       72.13726
2017    17      4       0.1971382       52.43688
2017    17      5       0.2173687       56.27136
2017    17      6       0.2831411       69.59356
2017    17      7       0.2689578       66.37613
2017    18      0       0.2355281       59.39061
2017    18      1       0.2332363       59.05996
2017    18      2       0.2381907       59.87485
2017    18      3       0.224169        57.31106
2017    18      4       0.2694911       65.7612
2017    18      5       0.2998425       71.33203
2017    18      6       0.3436371       79.57225
2017    18      7       0.6113957       120.1681
2017    19      0       0.7088749       132.4995
2017    19      1       0.6700751       127.8134
2017    19      2       0.5230215       108.4524
2017    19      3       0.4524931       96.99787
2017    19      4       0.1025846       30.7865
2017    19      5       0.1138313       33.37034
2017    19      6       0.2271582       57.36611
2017    19      7       0.2158414       55.32386
2017    20      0       0.09054693      28.06739
2017    20      1       0.09691059      29.25497
2017    20      2       0.1048286       30.9151
2017    20      3       0.1486706       40.24554
2017    20      4       0.1283311       36.58333
2017    20      5       0.17571         46.79464
2017    20      6       0.3816715       85.51549
2017    20      7       0.4137848       92.51917
2017    21      0       0.3676909       85.18131
2017    21      1       0.3021256       73.90957
2017    21      2       0.2671992       67.35376
2017    21      3       0.2695601       67.52305
2017    21      4       0.2860615       69.70679
2017    21      5       0.2936243       71.2371
2017    21      6       0.2317054       59.91252
2017    21      7       0.1776519       48.03152
2017    22      0       0.1643111       44.72852
2017    22      1       0.1391125       39.3772
2017    22      2       0.1423312       40.05161
2017    22      3       0.1475392       41.40645
2017    22      4       0.1828007       49.02068
2017    22      5       0.2684131       66.47922
2017    22      6       0.4106222       91.99428
2017    22      7       0.6256767       123.2009
2017    23      0       0.5919655       117.4338
2017    23      1       0.3976194       87.80012
2017    23      2       0.3408371       78.18943
2017    23      3       0.3281799       75.90671
2017    23      4       0.3061321       72.26023
2017    23      5       0.3322871       77.162
2017    23      6       0.2385586       60.04832
2017    23      7       0.1891193       50.18594
2017    24      0       0.1167661       34.3427
2017    24      1       0.1228482       35.75643
2017    24      2       0.1338411       38.13961
2017    24      3       0.1174937       34.29185
2017    24      4       0.1343191       37.71375
2017    24      5       0.1684825       45.22951
2017    24      6       0.2206665       56.35974
2017    24      7       0.181719        48.33357
2017    25      0       0.1135631       33.46945
2017    25      1       0.1004601       30.56905
2017    25      2       0.1274954       36.55508
2017    25      3       0.1744339       45.92549
2017    25      4       0.2231477       55.87915
2017    25      5       0.325888        75.21603
2017    25      6       0.3749124       84.07217
2017    25      7       0.2701736       65.60922
2017    26      0       0.1474174       40.91155
2017    26      1       0.1163774       33.7181
2017    26      2       0.1536033       41.57633
2017    26      3       0.2291388       56.37992
2017    26      4       0.2446711       59.45259
2017    26      5       0.2365522       58.04659
2017    26      6       0.306114        71.44161
2017    26      7       0.248572        61.47177
2017    27      0       0.1757094       46.40079
2017    27      1       0.1971533       50.96962
2017    27      2       0.2149271       54.25704
2017    27      3       0.2635333       63.54414
2017    27      4       0.2816098       67.06292
2017    27      5       0.3054869       71.74963
2017    27      6       0.4139802       90.50264
2017    27      7       0.4467          95.96715
2017    28      0       0.4321532       93.93389
2017    28      1       0.4137323       91.06652
2017    28      2       0.4766919       101.001
2017    28      3       0.5640372       113.6851
2017    28      4       0.5544788       112.4845
2017    28      5       0.5778529       115.9074
2017    28      6       0.5463949       111.6485
2017    28      7       0.4379304       95.28859
2017    29      0       0.3470511       79.93302
2017    29      1       0.3288765       76.78298
2017    29      2       0.2852879       68.72106
2017    29      3       0.2059783       52.98844
2017    29      4       0.1218533       35.31901
2017    29      5       0.06760219      22.86054
2017    29      6       0.07487586      24.61179
2017    29      7       0.07159591      23.78124
2017    30      0       0.07007016      23.0814
2017    30      1       0.09296272      28.28058
2017    30      2       0.1125026       32.84887
2017    30      3       0.1133237       33.13106
2017    30      4       0.09500902      29.19516
2017    30      5       0.09923584      30.32985
2017    30      6       0.1489808       41.60336
2017    30      7       0.1688051       45.81817
2017    31      0       0.1290289       36.97384
2017    31      1       0.116847        34.3817
2017    31      2       0.09732975      30.04512
2017    31      3       0.08200782      26.48322
2017    31      4       0.0785021       25.67892
2017    31      5       0.09505131      29.61277
2017    31      6       0.1368008       39.14047
2017    31      7       0.139517        39.80623
2018    1       0       0.1691108       45.13874
2018    1       1       0.1471993       40.34726
2018    1       2       0.1629464       43.83805
2018    1       3       0.1689448       45.08819
2018    1       4       0.1714364       45.29038
2018    1       5       0.2023759       51.55032
2018    1       6       0.2668692       64.53526
2018    1       7       0.2344213       58.53367
2018    2       0       0.1789886       47.33405
2018    2       1       0.1765121       46.77408
2018    2       2       0.1911479       49.75852
2018    2       3       0.2252796       56.71702
2018    2       4       0.1791016       47.38813
2018    2       5       0.1653269       44.71996
2018    2       6       0.2036213       52.8162
2018    2       7       0.19103         49.59944
2018    3       0       0.2911439       68.27688
2018    3       1       0.2667599       64.40793
2018    3       2       0.1969545       51.11654
2018    3       3       0.1690932       45.20142
2018    3       4       0.1084728       31.53608
2018    3       5       0.07994125      25.39039
2018    3       6       0.1231065       35.66956
2018    3       7       0.1229464       35.63609
2018    4       0       0.1087803       32.09747
2018    4       1       0.142946        40.01462
2018    4       2       0.1521754       41.98435
2018    4       3       0.1718417       45.80534
2018    4       4       0.2286991       56.95552
2018    4       5       0.2512314       61.73632
2018    4       6       0.329733        76.27331
2018    4       7       0.3460308       78.83526
2018    5       0       0.3672394       82.75229
2018    5       1       0.5030892       104.3852
2018    5       2       0.5875857       117.4163
2018    5       3       0.7816934       142.6318
2018    5       4       0.8069703       145.8697
2018    5       5       0.8769043       153.6194
2018    5       6       0.7622349       141.6264
2018    5       7       0.7828969       144.4937
2018    6       0       0.7342928       138.8398
2018    6       1       0.7309111       137.6588
2018    6       2       0.5244732       111.2833
2018    6       3       0.608532        122.659
2018    6       4       0.5711131       117.5696
2018    6       5       0.6369741       126.3395
2018    6       6       0.898045        156.3576
2018    6       7       1.076553        173.1424
2018    7       0       0.9178543       157.5463
2018    7       1       0.8978306       154.7412
2018    7       2       0.7959683       144.4078
2018    7       3       0.6741456       129.1922
2018    7       4       0.6197793       121.3663
2018    7       5       0.4568645       96.93296
2018    7       6       0.2717339       65.26747
2018    7       7       0.1610265       43.65729
2018    8       0       0.06341913      21.65799
2018    8       1       0.09336297      28.42221
2018    8       2       0.1148856       33.58853
2018    8       3       0.1575854       42.88181
2018    8       4       0.1843357       48.6868
2018    8       5       0.1993703       51.9052
2018    8       6       0.2211731       57.22929
2018    8       7       0.2424666       61.37376
2018    9       0       0.2801462       68.40436
2018    9       1       0.3615727       83.22933
2018    9       2       0.4534443       98.57311
2018    9       3       0.4179914       92.63052
2018    9       4       0.3904814       88.91375
2018    9       5       0.4346274       96.34912
2018    9       6       0.4669317       101.7872
2018    9       7       0.4144668       92.77117
2018    10      0       0.3530517       82.1322
2018    10      1       0.3461937       80.3106
2018    10      2       0.2495037       62.98127
2018    10      3       0.2091251       54.97449
2018    10      4       0.2486227       62.66569
2018    10      5       0.2689519       67.01034
2018    10      6       0.363302        84.6546
2018    10      7       0.4054818       91.62024
2018    11      0       0.3501089       82.16433
2018    11      1       0.3738588       86.12953
2018    11      2       0.3566881       82.87432
2018    11      3       0.3521743       81.87031
2018    11      4       0.3788435       86.67317
2018    11      5       0.4267093       95.18057
2018    11      6       0.4377541       97.20087
2018    11      7       0.4399421       97.47895
2018    12      0       0.3584287       83.35114
2018    12      1       0.3053162       73.81924
2018    12      2       0.3097616       74.68999
2018    12      3       0.3358158       79.3714
2018    12      4       0.3655217       84.63561
2018    12      5       0.408288        91.96329
2018    12      6       0.4755632       102.5821
2018    12      7       0.5291493       110.4986
2018    13      0       0.4516614       97.94747
2018    13      1       0.4583833       99.06678
2018    13      2       0.3627718       83.41405
2018    13      3       0.2583661       64.24143
2018    13      4       0.2405399       60.41798
2018    13      5       0.1725804       46.40667
2018    13      6       0.1236933       36.02892
2018    13      7       0.09803093      30.05865
2018    14      0       0.08579368      26.61373
2018    14      1       0.1556241       42.42227
2018    14      2       0.2729641       66.03162
2018    14      3       0.3247443       77.14364
2018    14      4       0.3770747       86.97977
2018    14      5       0.4351112       96.8219
2018    14      6       0.4630836       102.1356
2018    14      7       0.4824409       105.1592
2018    15      0       0.4595891       101.6549
2018    15      1       0.5516763       115.4697
2018    15      2       0.7138542       136.9837
2018    15      3       0.7745811       143.8563
2018    15      4       0.6815224       132.2129
2018    15      5       0.6037514       121.7227
2018    15      6       0.5678778       117.0294
2018    15      7       0.4544547       100.5368
2018    16      0       0.3096457       75.28929
2018    16      1       0.2735082       68.2536
2018    16      2       0.2604272       65.40827
2018    16      3       0.272606        67.57409
2018    16      4       0.3455084       81.57863
2018    16      5       0.370434        86.14743
2018    16      6       0.4220715       94.88493
2018    16      7       0.4415585       97.87586
2018    17      0       0.403399        91.07289
2018    17      1       0.4185399       93.72857
2018    17      2       0.2775719       67.93196
2018    17      3       0.2832232       68.31621
2018    17      4       0.3282015       76.72622
2018    17      5       0.3315234       77.46752
2018    17      6       0.5711039       115.1664
2018    17      7       0.6397999       124.8205
2018    18      0       0.699958        132.4421
2018    18      1       0.9403631       159.7482
2018    18      2       1.107626        175.8968
2018    18      3       0.6801471       130.477
2018    18      4       0.3300232       76.67189
2018    18      5       0.2348833       58.96415
2018    18      6       0.2497642       62.22748
2018    18      7       0.3448705       80.09192
2018    19      0       0.2457078       61.49876
2018    19      1       0.1027776       31.11499
2018    19      2       0.07446426      24.46383
2018    19      3       0.06507173      22.19135
2018    19      4       0.0684797       22.9229
2018    19      5       0.09897743      30.1817
2018    19      6       0.1570354       43.14399
2018    19      7       0.179082        47.87692
2018    20      0       0.1706943       46.33014
2018    20      1       0.1328286       38.00849
2018    20      2       0.1001492       30.61901
2018    20      3       0.09734529      29.95967
2018    20      4       0.08630551      27.45923
2018    20      5       0.07929647      25.75857
2018    20      6       0.1227736       35.85018
2018    20      7       0.1633107       44.84966
2018    21      0       0.1166852       34.53517
2018    21      1       0.1024735       31.26517
2018    21      2       0.09290483      29.03362
2018    21      3       0.07875202      25.5008
2018    21      4       0.08633633      26.87622
2018    21      5       0.1191043       34.15014
2018    21      6       0.1798756       47.28294
2018    21      7       0.2251561       56.33718
2018    22      0       0.1517223       41.49023
2018    22      1       0.1439463       39.88371
2018    22      2       0.1713293       45.66967
2018    22      3       0.209563        53.04464
2018    22      4       0.2485929       60.69603
2018    22      5       0.3079908       72.29404
2018    22      6       0.4463073       96.19436
2018    22      7       0.5399229       111.0832
2018    23      0       0.5896681       117.7653
2018    23      1       0.5358194       110.36
2018    23      2       0.4787057       101.6274
2018    23      3       0.4586992       98.26068
2018    23      4       0.4097293       90.29284
2018    23      5       0.3953555       87.59798
2018    23      6       0.4044818       89.04272
2018    23      7       0.3558151       80.16129
2018    24      0       0.2773437       66.35873
2018    24      1       0.1024571       30.76838
2018    24      2       0.06449601      21.81654
2018    24      3       0.1136439       32.73624
2018    24      4       0.1965422       50.88767
2018    24      5       0.2649617       64.73894
2018    24      6       0.3987571       89.0835
2018    24      7       0.4701381       101.2181
2018    25      0       0.4849676       103.953
2018    25      1       0.4403187       97.16395
2018    25      2       0.4543925       99.95337
2018    25      3       0.4509884       99.47514
2018    25      4       0.4025271       91.61034
2018    25      5       0.3638599       85.09968
2018    25      6       0.4372037       97.51849
2018    25      7       0.4550984       101.0137
2018    26      0       0.3964886       90.50951
2018    26      1       0.3098062       74.59844
2018    26      2       0.3008555       73.02062
2018    26      3       0.2800276       68.83837
2018    26      4       0.2504977       63.05714
2018    26      5       0.2166421       56.24629
2018    26      6       0.2483806       62.80287
2018    26      7       0.2509256       63.46306
2018    27      0       0.1614658       44.41658
2018    27      1       0.1548551       42.93281
2018    27      2       0.1706024       46.5321
2018    27      3       0.1611925       44.56742
2018    27      4       0.1714959       46.82096
2018    27      5       0.2013998       53.1693
2018    27      6       0.24112         61.17888
2018    27      7       0.2468913       62.17888
2018    28      0       0.1953362       51.55089
2018    28      1       0.1719372       46.57707
2018    28      2       0.1834111       48.91437
2018    28      3       0.2124174       54.91826
2018    28      4       0.2156867       55.60196
2018    28      5       0.2563213       63.78389
2018    28      6       0.3198609       75.95457
2018    28      7       0.2898403       70.50262
2018    29      0       0.2053423       53.76486
2018    29      1       0.1740042       47.21199
2018    29      2       0.195609        51.65875
2018    29      3       0.1877104       49.96779
2018    29      4       0.2089268       53.92415
2018    29      5       0.2348664       59.14987
2018    29      6       0.3354337       78.17085
2018    29      7       0.3998779       89.5974
2018    30      0       0.3506983       80.87237
2018    30      1       0.4050873       90.00124
2018    30      2       0.49426         103.9145
2018    30      3       0.6797278       128.7233
2018    30      4       0.6914979       130.1867
2018    30      5       0.6876925       129.6903
2018    30      6       0.6683004       127.5018
2018    30      7       0.6544372       126.0617
2018    31      0       0.6455398       124.7783
2018    31      1       0.5081929       105.4379
2018    31      2       0.5189419       107.138
2018    31      3       0.3474741       79.02227
2018    31      4       0.4241125       91.22436
2018    31      5       0.6372063       121.8381
2018    31      6       0.6362222       121.7507
2018    31      7       0.5412387       109.3889
