####################################################################################################
# Month: 08Aug                                                                                     #
# Station: PER                                                                                     #
# Frequency: 230 GHz                                                                               #
# Columns are: year    day     tau     Tb (K)                                                      #
####################################################################################################
2009    1       0.11248593      32.410525
2009    2       0.21658154      55.07730375
2009    3       0.13501077      36.222035
2009    4       0.28413045      68.91759875
2009    5       0.36756885      84.33784
2009    6       0.34831252      80.886745
2009    7       0.21799573      52.80524625
2009    8       0.16630599      43.64183
2009    9       0.19598422      49.78268875
2009    10      0.49708208      105.91211375
2009    11      0.62421766      124.21470625
2009    12      0.50267693      106.10500375
2009    13      0.37615594      85.8974025
2009    14      0.17046168      45.1949575
2009    15      0.26197552      65.77009
2009    16      0.65809159      121.13268125
2009    17      0.20979593      52.73852625
2009    18      0.20460025      53.8394625
2009    19      0.30309174      71.09268625
2009    20      0.44648408      98.37870375
2009    21      0.41688754      82.8082325
2009    22      0.29272831      69.5243175
2009    23      0.41640884      90.96847625
2009    24      0.44095209      95.407505
2009    25      0.21086269      52.1172925
2009    26      0.168044        44.90859
2009    27      0.11088235      32.10983
2009    28      0.43644391      87.6145125
2009    29      0.66185156      127.04572625
2009    30      0.19793792      51.70295875
2009    31      0.32910702      73.78931375
2010    1       0.48427259      102.36424875
2010    2       0.27795962      65.743385
2010    3       0.09457662      28.1916875
2010    4       0.18173995      47.09205125
2010    5       0.29781741      69.66989875
2010    6       0.1480305       39.56705875
2010    7       0.14406189      38.7297325
2010    8       0.11687585      32.81328875
2010    9       0.26269578      60.058875
2010    10      0.53215396      106.92147
2010    11      0.3989745       87.68434125
2010    12      0.33587818      76.56149
2010    13      0.15304948      42.2323125
2010    14      0.32256119      74.14042875
2010    15      0.43056146      93.06173625
2010    16      0.21843652      53.82696
2010    17      0.10419194      29.61865375
2010    18      0.56480482      115.02942
2010    19      0.23838041      59.1854
2010    20      0.19569749      50.3975775
2010    21      0.2088063       51.85520125
2010    22      0.21512704      51.4968325
2010    23      0.41742132      92.929915
2010    24      0.23742008      57.6374925
2010    25      0.42295635      91.94687125
2010    26      0.49104421      103.86883375
2010    27      0.23800641      59.1502025
2010    28      0.10378393      30.542665
2010    29      0.09396167      28.14221375
2010    30      0.14587571      39.0760225
2010    31      0.39729142      88.96614375
2011    1       0.4154897       93.25339875
2011    2       0.55548288      117.2719375
2011    3       0.4761034       105.18809125
2011    4       0.3748843       87.0133625
2011    5       0.48800452      101.6074525
2011    6       0.56853021      111.92596125
2011    7       0.46369134      98.51804
2011    8       0.41959152      91.0261025
2011    9       0.29678306      70.68042875
2011    10      0.53748235      111.21677125
2011    11      0.25613551      59.63337875
2011    12      0.06571857      21.036855
2011    13      0.28734352      66.54274875
2011    14      0.33950001      79.03714375
2011    15      0.42256065      93.05176
2011    16      0.40168774      89.7902975
2011    17      0.76219518      141.7988275
2011    18      0.36287744      82.1316725
2011    19      0.25778204      58.76951
2011    20      0.09655059      28.54119625
2011    21      0.06392703      20.79112
2011    22      0.11164688      32.6516875
2011    23      0.10391326      30.93215875
2011    24      0.07866085      24.54935875
2011    25      0.1546565       42.14666125
2011    26      0.19559384      51.17052
2011    27      0.19402672      50.455845
2011    28      0.16861572      44.83309375
2011    29      0.3558206       79.85645625
2011    30      0.21076288      54.33365625
2011    31      0.17121159      46.06491125
2012    1       0.23031827      53.78787
2012    2       0.20314232      50.7439275
2012    3       0.1949484       50.07514
2012    4       0.28076315      67.42053
2012    5       0.31353314      72.71101375
2012    6       0.14117408      38.87258625
2012    7       0.14023896      38.27915
2012    8       0.44216475      95.324645
2012    9       0.27568646      63.53692625
2012    10      0.14453838      39.18258125
2012    11      0.12176796      34.58268625
2012    12      0.14489871      39.81304
2012    13      0.08067272      24.87246875
2012    14      0.25910859      61.64798625
2012    15      0.16691935      44.156865
2012    16      0.46066595      98.4028
2012    17      0.44689084      95.869145
2012    18      0.3524383       79.5625025
2012    19      0.06553554      20.89102875
2012    20      0.0827744       24.72245625
2012    21      0.2421584       60.22737125
2012    22      0.55754326      115.9884825
2012    23      0.57915506      115.74609875
2012    24      0.31078333      72.2207725
2012    25      0.11053798      31.636685
2012    26      0.089731        26.7354975
2012    27      0.09236434      27.1297275
2012    28      0.21585678      53.29156375
2012    29      0.36445809      82.8796425
2012    30      0.36503524      81.555165
2012    31      0.23502211      56.73114625
2013    1       0.07976284      24.537445
2013    2       0.24037481      59.52186
2013    3       0.36635855      82.82355125
2013    4       0.2604924       62.906585
2013    5       0.43608187      94.502865
2013    6       0.28948038      64.54371125
2013    7       0.36208668      79.830095
2013    8       0.23082802      56.50909
2013    9       0.6788986       127.5756675
2013    10      0.13280574      37.5070025
2013    11      0.41560007      82.1233125
2013    12      0.49717016      102.2105325
2013    13      0.26718181      64.578175
2013    14      0.4682824       98.66406375
2013    15      0.20348199      52.65659125
2013    16      0.47351809      89.7179
2013    17      0.35459969      80.3075075
2013    18      0.44044078      96.65602875
2013    19      0.43631859      89.99306375
2013    20      0.37490492      84.4770975
2013    21      0.37211335      84.00489
2013    22      0.53362902      110.24384625
2013    23      0.49804494      104.02660375
2013    24      0.08884092      27.0877975
2013    25      0.11097978      32.41961375
2013    26      0.31787231      73.3039475
2013    27      0.35869462      82.77065875
2013    28      0.45982394      100.56365875
2013    29      0.53426039      109.92391375
2013    30      0.20291959      52.56609875
2013    31      0.15287939      41.82417
2014    1       0.34035465      75.75086375
2014    2       0.09219805      27.48082125
2014    3       0.0632082       20.60092
2014    4       0.09752384      28.658955
2014    5       0.10217646      30.0831375
2014    6       0.07967438      24.70731375
2014    7       0.12461371      35.4369775
2014    8       0.09797304      28.6116175
2014    9       0.29721791      68.70861
2014    10      0.12221255      34.165615
2014    11      0.09457088      27.98970625
2014    12      0.11797327      33.319355
2014    13      0.10205968      29.77684125
2014    14      0.15566458      42.41389875
2014    15      0.15065518      41.08472375
2014    16      0.36485511      80.97507125
2014    17      0.55606829      115.007225
2014    18      0.45997474      98.26112875
2014    19      0.08442045      25.1644975
2014    20      0.07794293      23.98298375
2014    21      0.2350464       59.04662
2014    22      0.2540762       63.25106
2014    23      0.23387342      58.75921
2014    24      0.45874258      97.3869975
2014    25      0.45501784      98.60213375
2014    26      0.31984545      73.51895625
2014    27      0.14781501      40.0291225
2014    28      0.1900345       49.75982
2014    29      0.17469205      46.9981075
2014    30      0.16694816      45.37557
2014    31      0.17677316      46.93949875
2015    1       0.90945145      160.967
2015    2       0.33280246      73.2996925
2015    3       0.20140437      50.1046075
2015    4       0.22719371      55.552015
2015    5       0.3229977       74.11331125
2015    6       0.28129559      67.9409725
2015    7       0.12191517      34.519565
2015    8       0.10185145      29.70213125
2015    9       0.24357102      60.62555
2015    10      0.31587575      74.74822
2015    11      0.14961817      40.12675125
2015    12      0.33347518      75.20339375
2015    13      0.16661118      44.4608225
2015    14      0.23147698      58.9341725
2015    15      0.15782438      42.99242625
2015    16      0.12572008      35.16661875
2015    17      0.22095825      54.133095
2015    18      0.10795097      31.40788875
2015    19      0.11173088      32.0613875
2015    20      0.26830681      66.19755
2015    21      0.38067641      86.4314675
2015    22      0.23321436      58.72162625
2015    23      0.34393278      80.04157125
2015    24      0.60681825      122.22170625
2015    25      0.60077172      120.9886875
2015    26      0.54390346      113.85314
2015    27      0.4513395       98.15939625
2015    28      0.1973373       50.9426375
2015    29      0.27352407      64.9329875
2015    30      0.2711688       65.09088875
2015    31      0.10901379      31.22986
2016    1       0.63991859      126.9864
2016    2       0.16098936      42.08086
2016    3       0.09862838      29.09491
2016    4       0.12870925      36.1091675
2016    5       0.0737609       22.962085
2016    6       0.14052647      38.07827875
2016    7       0.25690223      63.53467875
2016    8       0.38142795      85.80853375
2016    9       0.63865935      121.78697875
2016    10      0.26077443      63.63033125
2016    11      0.10108114      29.7349775
2016    12      0.28805753      66.58794375
2016    13      0.21840439      55.62088875
2016    14      0.16393424      43.75104625
2016    15      0.13194907      37.37993
2016    16      0.20039506      51.0079975
2016    17      0.22627064      54.08662375
2016    18      0.19653918      51.22379375
2016    19      0.50050786      104.77509125
2016    20      0.41200746      90.32859125
2016    21      0.37509236      84.92087375
2016    22      0.48931532      104.1503
2016    23      0.37726629      85.95084
2016    24      0.40160094      87.91831875
2016    25      0.20023473      49.6676075
2016    26      0.12969123      35.79686625
2016    27      0.15571578      41.17980375
2016    28      0.1765618       46.0378325
2016    29      0.38163574      86.01549875
2016    30      0.79911125      144.51282375
2016    31      0.41681182      87.66434375
2017    1       0.09623529      28.5208125
2017    2       0.14981764      39.90857125
2017    3       0.5898899       118.60041125
2017    4       0.28261031      68.10166
2017    5       0.23979404      59.85538375
2017    6       0.43333891      94.62773125
2017    7       0.31788916      72.4308225
2017    8       0.16689562      44.2655625
2017    9       0.24815674      60.68676375
2017    10      0.3610437       79.998415
2017    11      0.14606714      39.79667125
2017    12      0.19701049      50.88920875
2017    13      0.24298615      59.533995
2017    14      0.32683113      72.1761725
2017    15      0.98719695      167.731375
2017    16      0.51309534      108.21548625
2017    17      0.56227234      114.78818375
2017    18      0.50880599      103.0572925
2017    19      0.14674734      39.1156525
2017    20      0.22234498      53.08405125
2017    21      0.37579059      84.879025
2017    22      0.18099456      48.47772125
2017    23      0.28518432      69.3765675
2017    24      0.13100653      36.0841675
2017    25      0.1278638       35.2606175
2017    26      0.10745976      30.47826125
2017    27      0.15739007      40.44098
2017    28      0.09711433      28.7927275
2017    29      0.13350698      36.89132
2017    30      0.0767316       23.8583125
2017    31      0.07715247      23.88869625
2018    1       0.11402674      32.56868625
2018    2       0.0799481       24.83999625
2018    3       0.49772043      100.547395
2018    4       0.27726102      67.439935
2018    5       0.32686731      74.53670125
2018    6       0.5128475       106.648875
2018    7       0.35064843      80.68697
2018    8       0.43578007      91.83513125
2018    9       0.11006816      31.73076625
2018    10      0.17953214      46.950325
2018    11      0.44167106      94.88061
2018    12      0.2388883       58.6597175
2018    13      0.164586        44.26270375
2018    14      0.13058466      36.90961625
2018    15      0.49436162      102.76711125
2018    16      0.16308049      43.77807
2018    17      0.28687641      69.36705875
2018    18      0.49313498      102.1645475
2018    19      0.27034808      61.61785375
2018    20      0.2559017       62.63102375
2018    21      0.25567161      63.4896525
2018    22      0.24417076      60.86378625
2018    23      0.24287305      60.65313125
2018    24      0.25465439      63.1900775
2018    25      0.34187834      80.2939575
2018    26      0.22795991      57.3645725
2018    27      0.06420511      20.5892225
2018    28      0.07306922      22.73726125
2018    29      0.09255394      27.30984125
2018    30      0.48665019      102.41086125
2018    31      0.42428334      90.53111
