####################################################################################################
# Month: 07Jul                                                                                     #
# Station: HAN                                                                                     #
# Frequency: 230 GHz                                                                               #
# Columns are: year    day     segment         tau     Tb (K)                                      #
####################################################################################################
2009    1       0       0.2356472       59.8401
2009    1       1       0.1129546       32.86218
2009    1       2       0.08376539      26.01371
2009    1       3       0.1069271       31.60795
2009    1       4       0.1304663       37.06222
2009    1       5       0.1603863       43.59921
2009    1       6       0.2032835       52.90892
2009    1       7       0.2533969       62.74878
2009    2       0       0.3535929       81.45946
2009    2       1       0.3865082       86.70438
2009    2       2       0.2496008       61.73987
2009    2       3       0.1691186       45.16045
2009    2       4       0.2142375       54.57689
2009    2       5       0.2731545       66.59502
2009    2       6       0.2712128       66.51014
2009    2       7       0.2759659       67.15058
2009    3       0       0.203615        52.23586
2009    3       1       0.1350012       37.32836
2009    3       2       0.1370969       37.5674
2009    3       3       0.1730644       45.5874
2009    3       4       0.258436        63.34645
2009    3       5       0.2908419       69.83681
2009    3       6       0.2739231       66.59125
2009    3       7       0.2850712       68.53379
2009    4       0       0.1671537       44.58654
2009    4       1       0.128247        35.96087
2009    4       2       0.1016423       29.90052
2009    4       3       0.1032547       30.35698
2009    4       4       0.1790792       47.25495
2009    4       5       0.2297104       57.79558
2009    4       6       0.1871998       48.98559
2009    4       7       0.1424379       39.07359
2009    5       0       0.1168624       33.25101
2009    5       1       0.1049765       30.53648
2009    5       2       0.0899005       27.06373
2009    5       3       0.09068195      27.37336
2009    5       4       0.1032951       30.42777
2009    5       5       0.1156136       33.35074
2009    5       6       0.1196385       34.28651
2009    5       7       0.1275967       36.0651
2009    6       0       0.1293409       36.45232
2009    6       1       0.1203448       34.35939
2009    6       2       0.1152205       33.2242
2009    6       3       0.1101856       32.20031
2009    6       4       0.1203023       34.61271
2009    6       5       0.1345295       37.84968
2009    6       6       0.1383178       38.63948
2009    6       7       0.1350555       37.85165
2009    7       0       0.1231569       35.15834
2009    7       1       0.1127077       32.77058
2009    7       2       0.1039454       30.82322
2009    7       3       0.1087779       32.06815
2009    7       4       0.1193885       34.60834
2009    7       5       0.1381368       38.85731
2009    7       6       0.1483967       41.039
2009    7       7       0.1507859       41.52446
2009    8       0       0.1466554       40.59746
2009    8       1       0.1474331       40.73035
2009    8       2       0.1258812       35.98562
2009    8       3       0.1286256       36.73777
2009    8       4       0.1492601       41.44978
2009    8       5       0.1634062       44.5269
2009    8       6       0.1645006       44.67771
2009    8       7       0.1706071       45.95025
2009    9       0       0.1627829       44.23475
2009    9       1       0.1558282       42.76332
2009    9       2       0.1344729       38.2125
2009    9       3       0.1291888       37.12524
2009    9       4       0.1316538       37.73955
2009    9       5       0.1603439       44.42316
2009    9       6       0.1948157       52.06045
2009    9       7       0.1631731       44.79087
2009    10      0       0.1605589       44.02453
2009    10      1       0.2108818       54.85981
2009    10      2       0.2610952       65.62916
2009    10      3       0.2822618       70.31659
2009    10      4       0.2749294       68.85694
2009    10      5       0.2968712       73.03635
2009    10      6       0.3145009       76.71912
2009    10      7       0.2552689       64.8492
2009    11      0       0.3403441       81.25149
2009    11      1       0.2941195       72.115
2009    11      2       0.2647536       66.72795
2009    11      3       0.3182765       77.30262
2009    11      4       0.3355242       80.19346
2009    11      5       0.3160331       76.22469
2009    11      6       0.2818349       69.44432
2009    11      7       0.3670473       84.91393
2009    12      0       0.2630001       65.72826
2009    12      1       0.2174473       56.67189
2009    12      2       0.2102033       55.34645
2009    12      3       0.2095104       55.40318
2009    12      4       0.1984855       52.96945
2009    12      5       0.2222426       57.87263
2009    12      6       0.2546944       64.59252
2009    12      7       0.2893751       71.34973
2009    13      0       0.3078478       74.58445
2009    13      1       0.2655724       66.22911
2009    13      2       0.2190437       56.81594
2009    13      3       0.2132538       55.8797
2009    13      4       0.2348522       60.58555
2009    13      5       0.2804714       69.76198
2009    13      6       0.2765202       68.94692
2009    13      7       0.3118579       75.60666
2009    14      0       0.3306862       78.7967
2009    14      1       0.307987        74.14402
2009    14      2       0.3384142       80.00524
2009    14      3       0.4298026       96.54289
2009    14      4       0.4956031       107.3811
2009    14      5       0.4982411       107.6574
2009    14      6       0.437545        97.83928
2009    14      7       0.400931        91.54262
2009    15      0       0.3055305       73.97936
2009    15      1       0.232901        59.49449
2009    15      2       0.203977        53.76476
2009    15      3       0.1841057       49.68613
2009    15      4       0.1548208       43.13678
2009    15      5       0.1362556       38.75122
2009    15      6       0.1183595       34.54874
2009    15      7       0.1040947       31.23966
2009    16      0       0.1004478       30.36334
2009    16      1       0.0959117       29.31633
2009    16      2       0.0967091       29.52933
2009    16      3       0.1142385       33.65625
2009    16      4       0.1415852       39.98273
2009    16      5       0.1505891       42.06954
2009    16      6       0.1388657       39.41687
2009    16      7       0.1385366       39.21128
2009    17      0       0.1288412       36.84582
2009    17      1       0.1291964       36.95544
2009    17      2       0.1192302       34.76338
2009    17      3       0.1146648       33.64159
2009    17      4       0.1225962       35.43876
2009    17      5       0.141469        39.84158
2009    17      6       0.1325658       37.90178
2009    17      7       0.1208139       35.1368
2009    18      0       0.1105496       32.55345
2009    18      1       0.1202438       34.78687
2009    18      2       0.1344027       38.03159
2009    18      3       0.2453555       62.23887
2009    18      4       0.4037175       91.76599
2009    18      5       0.3911969       89.56256
2009    18      6       0.3954373       89.93859
2009    18      7       0.3785423       87.10721
2009    19      0       0.3066529       74.19352
2009    19      1       0.2456932       62.30229
2009    19      2       0.2055903       54.1326
2009    19      3       0.1855895       49.87689
2009    19      4       0.1670395       45.76259
2009    19      5       0.1588111       43.86605
2009    19      6       0.1642101       45.19256
2009    19      7       0.1723279       47.04217
2009    20      0       0.2079623       54.75915
2009    20      1       0.1817954       48.95791
2009    20      2       0.1734049       47.25762
2009    20      3       0.1773336       48.26009
2009    20      4       0.1792249       48.77215
2009    20      5       0.1976309       52.7178
2009    20      6       0.2046662       54.09174
2009    20      7       0.2078478       54.56737
2009    21      0       0.2293751       58.7827
2009    21      1       0.2700139       66.45667
2009    21      2       0.3704879       84.94068
2009    21      3       0.3811631       87.62995
2009    21      4       0.381107        88.03634
2009    21      5       0.3524258       83.10103
2009    21      6       0.3393727       80.51282
2009    21      7       0.3318901       78.7396
2009    22      0       0.3332281       78.71363
2009    22      1       0.3800989       86.8177
2009    22      2       0.4028886       91.53491
2009    22      3       0.4638049       102.0487
2009    22      4       0.581188        119.8399
2009    22      5       0.511592        110.0336
2009    22      6       0.4047245       92.33588
2009    22      7       0.4589826       101.5257
2009    23      0       0.5836279       120.6004
2009    23      1       0.5374523       113.1417
2009    23      2       0.4837073       104.9009
2009    23      3       0.4131069       93.73234
2009    23      4       0.3973527       90.83408
2009    23      5       0.4154529       93.77443
2009    23      6       0.4202768       94.50876
2009    23      7       0.4399798       97.80194
2009    24      0       0.4520437       99.73203
2009    24      1       0.4781671       103.9094
2009    24      2       0.4709595       102.9072
2009    24      3       0.5229704       111.1236
2009    24      4       0.5334511       113.1526
2009    24      5       0.616429        125.3972
2009    24      6       0.5638939       117.7597
2009    24      7       0.5166089       110.5621
2009    25      0       0.477023        104.2241
2009    25      1       0.5502713       115.3343
2009    25      2       0.5269883       111.6146
2009    25      3       0.5917779       121.3768
2009    25      4       0.6259213       126.9905
2009    25      5       0.6084447       124.4237
2009    25      6       0.5357276       113.822
2009    25      7       0.4831244       105.4637
2009    26      0       0.4249681       95.51012
2009    26      1       0.4097484       92.92351
2009    26      2       0.4427403       98.44684
2009    26      3       0.4759778       103.6562
2009    26      4       0.563271        117.16
2009    26      5       0.5926092       121.7023
2009    26      6       0.5785803       119.5189
2009    26      7       0.5180449       110.4367
2009    27      0       0.4935234       106.6071
2009    27      1       0.5096929       108.9752
2009    27      2       0.4712034       102.8781
2009    27      3       0.4846779       104.879
2009    27      4       0.4374988       97.95293
2009    27      5       0.4525275       100.1448
2009    27      6       0.3935227       90.15893
2009    27      7       0.4378569       97.50597
2009    28      0       0.4853503       104.8336
2009    28      1       0.4588969       100.8484
2009    28      2       0.5265813       111.5023
2009    28      3       0.6702504       131.8949
2009    28      4       0.6793517       133.3355
2009    28      5       0.4820975       105.0667
2009    28      6       0.3743388       86.88147
2009    28      7       0.4191166       93.89907
2009    29      0       0.4727975       102.4787
2009    29      1       0.5358152       112.8734
2009    29      2       0.5831167       119.6203
2009    29      3       0.5376087       113.02
2009    29      4       0.5939409       120.9773
2009    29      5       0.4590099       100.8392
2009    29      6       0.4426905       98.24827
2009    29      7       0.4978949       107.157
2009    30      0       0.4023267       91.75123
2009    30      1       0.4038618       91.89204
2009    30      2       0.3434461       81.12938
2009    30      3       0.3432055       80.95355
2009    30      4       0.3450012       81.37402
2009    30      5       0.2646992       66.09127
2009    30      6       0.2316589       59.07782
2009    30      7       0.2765836       67.97778
2009    31      0       0.3241741       77.22321
2009    31      1       0.3475321       81.67731
2009    31      2       0.3573947       83.54675
2009    31      3       0.3976171       90.46297
2009    31      4       0.4305417       95.90889
2009    31      5       0.3835888       88.02888
2009    31      6       0.3297549       78.44279
2009    31      7       0.3361019       79.36411
2010    1       0       0.2460362       61.57855
2010    1       1       0.2663366       65.4267
2010    1       2       0.1973404       51.63546
2010    1       3       0.1764741       47.28554
2010    1       4       0.195727        51.46033
2010    1       5       0.210985        54.61699
2010    1       6       0.1934696       50.7768
2010    1       7       0.187174        49.28752
2010    2       0       0.2138156       54.82567
2010    2       1       0.2607133       64.31306
2010    2       2       0.2319469       58.75689
2010    2       3       0.2283397       58.31623
2010    2       4       0.2037741       53.24952
2010    2       5       0.1761331       47.36549
2010    2       6       0.1780722       47.68186
2010    2       7       0.1903304       50.17114
2010    3       0       0.1860996       49.23217
2010    3       1       0.1708706       46.01061
2010    3       2       0.1312485       37.37436
2010    3       3       0.1196217       34.70431
2010    3       4       0.1274743       36.54908
2010    3       5       0.1630273       44.6593
2010    3       6       0.1788998       48.10832
2010    3       7       0.1555092       42.77088
2010    4       0       0.1393165       38.98619
2010    4       1       0.1435463       39.86292
2010    4       2       0.1501237       41.54201
2010    4       3       0.2101928       54.68923
2010    4       4       0.241962        61.04507
2010    4       5       0.3066815       73.01393
2010    4       6       0.4055438       90.45931
2010    4       7       0.4279778       94.46505
2010    5       0       0.4263018       94.30665
2010    5       1       0.5175117       109.2164
2010    5       2       0.546436        113.8074
2010    5       3       0.5948964       120.8648
2010    5       4       0.5677439       117.1428
2010    5       5       0.5763297       118.6006
2010    5       6       0.5920858       120.6333
2010    5       7       0.5934741       120.9481
2010    6       0       0.5750941       118.2819
2010    6       1       0.5691103       117.2408
2010    6       2       0.4461042       98.48107
2010    6       3       0.5148893       109.6609
2010    6       4       0.566488        117.0398
2010    6       5       0.5367375       112.5257
2010    6       6       0.5176836       109.6664
2010    6       7       0.5778894       119.0652
2010    7       0       0.5653651       117.4532
2010    7       1       0.5597514       116.612
2010    7       2       0.5064053       108.7861
2010    7       3       0.5558426       116.3754
2010    7       4       0.5799711       119.6195
2010    7       5       0.5079625       108.8333
2010    7       6       0.4481248       99.18428
2010    7       7       0.4185024       94.26429
2010    8       0       0.3894673       89.07533
2010    8       1       0.4191158       94.11739
2010    8       2       0.3901263       89.47747
2010    8       3       0.4401968       97.96665
2010    8       4       0.3201499       77.10269
2010    8       5       0.2155262       56.26129
2010    8       6       0.1856022       49.72131
2010    8       7       0.1738509       47.08934
2010    9       0       0.149182        41.52733
2010    9       1       0.1370973       38.69045
2010    9       2       0.118917        34.6104
2010    9       3       0.1118732       33.02577
2010    9       4       0.1334678       38.06401
2010    9       5       0.1829122       49.20933
2010    9       6       0.2187175       56.84896
2010    9       7       0.223426        57.65461
2010    10      0       0.242635        61.42257
2010    10      1       0.2648649       65.83941
2010    10      2       0.2528482       63.75837
2010    10      3       0.3030826       73.69635
2010    10      4       0.2866334       70.73638
2010    10      5       0.2262573       58.54835
2010    10      6       0.2234056       57.91934
2010    10      7       0.1894905       50.49377
2010    11      0       0.1846059       49.30795
2010    11      1       0.1847617       49.22785
2010    11      2       0.1554926       42.85162
2010    11      3       0.1654974       45.12275
2010    11      4       0.1813575       48.58901
2010    11      5       0.1956976       51.5136
2010    11      6       0.2115472       54.80799
2010    11      7       0.2268963       57.97633
2010    12      0       0.2030444       52.98466
2010    12      1       0.189502        50.20601
2010    12      2       0.1669672       45.51457
2010    12      3       0.2001279       52.23767
2010    12      4       0.446301        97.37724
2010    12      5       0.4625153       101.1028
2010    12      6       0.3049257       73.39577
2010    12      7       0.2112881       54.78699
2010    13      0       0.1838522       48.73876
2010    13      1       0.1564139       42.72572
2010    13      2       0.1423165       39.72855
2010    13      3       0.1676825       45.57682
2010    13      4       0.1793819       48.12928
2010    13      5       0.1952025       51.39379
2010    13      6       0.1984247       52.0578
2010    13      7       0.2016144       52.70011
2010    14      0       0.1870215       49.57805
2010    14      1       0.1587914       43.52293
2010    14      2       0.1409647       39.49811
2010    14      3       0.1409326       39.50562
2010    14      4       0.1446531       40.43057
2010    14      5       0.1544512       42.69291
2010    14      6       0.1537          42.47827
2010    14      7       0.1301653       37.083
2010    15      0       0.113961        33.237
2010    15      1       0.1308507       37.16702
2010    15      2       0.1365163       38.50703
2010    15      3       0.1606138       44.03185
2010    15      4       0.1743499       47.09821
2010    15      5       0.1767567       47.54137
2010    15      6       0.2093724       54.4211
2010    15      7       0.2505611       62.87764
2010    16      0       0.2814041       68.94918
2010    16      1       0.3048329       73.51904
2010    16      2       0.3456821       81.3441
2010    16      3       0.4401623       97.56307
2010    16      4       0.5193099       110.5637
2010    16      5       0.4861677       104.9189
2010    16      6       0.2811301       68.65522
2010    16      7       0.2595074       64.78337
2010    17      0       0.2832266       69.71624
2010    17      1       0.2812084       69.33963
2010    17      2       0.2816593       69.66092
2010    17      3       0.3162802       76.3215
2010    17      4       0.3348623       79.47701
2010    17      5       0.3111692       75.02361
2010    17      6       0.2503072       63.24521
2010    17      7       0.2319485       59.52312
2010    18      0       0.2273077       58.4964
2010    18      1       0.2204281       57.11051
2010    18      2       0.2438149       62.10614
2010    18      3       0.2519217       63.98945
2010    18      4       0.2776427       68.79484
2010    18      5       0.2486637       63.14762
2010    18      6       0.2093876       55.0379
2010    18      7       0.2277361       58.65381
2010    19      0       0.2369707       60.68305
2010    19      1       0.2333065       60.08417
2010    19      2       0.2260212       58.81087
2010    19      3       0.2498197       63.99345
2010    19      4       0.2701627       68.10759
2010    19      5       0.2751086       68.72045
2010    19      6       0.3858744       88.62824
2010    19      7       0.5066788       108.1867
2010    20      0       0.4124842       93.20547
2010    20      1       0.3387931       80.38907
2010    20      2       0.3895699       89.65817
2010    20      3       0.4118042       93.94291
2010    20      4       0.4386225       98.29729
2010    20      5       0.4850017       105.6187
2010    20      6       0.5046116       108.8834
2010    20      7       0.5873168       121.2663
2010    21      0       0.4597104       101.4857
2010    21      1       0.5076393       108.9496
2010    21      2       0.3318386       79.15795
2010    21      3       0.2798053       69.33267
2010    21      4       0.2629442       65.77308
2010    21      5       0.2414523       61.20626
2010    21      6       0.2448034       61.42161
2010    21      7       0.394487        89.27693
2010    22      0       0.5117471       108.5479
2010    22      1       0.5042635       107.8006
2010    22      2       0.5441185       114.1334
2010    22      3       0.5337783       112.9655
2010    22      4       0.5614115       117.1771
2010    22      5       0.4803729       104.9473
2010    22      6       0.4550907       100.9008
2010    22      7       0.4303431       96.66088
2010    23      0       0.4224357       95.0225
2010    23      1       0.4616946       101.6527
2010    23      2       0.4699544       102.9049
2010    23      3       0.4914218       106.7109
2010    23      4       0.4858333       106.0804
2010    23      5       0.4543074       100.9372
2010    23      6       0.405565        92.68628
2010    23      7       0.3823366       88.47767
2010    24      0       0.3738523       86.78735
2010    24      1       0.3607296       84.45377
2010    24      2       0.3946525       90.74431
2010    24      3       0.4615195       102.2672
2010    24      4       0.4637865       102.8918
2010    24      5       0.4474441       100.2286
2010    24      6       0.4507115       100.8198
2010    24      7       0.4433806       99.54873
2010    25      0       0.4170678       95.13593
2010    25      1       0.4536566       101.2472
2010    25      2       0.5506031       116.3841
2010    25      3       0.5959595       123.5114
2010    25      4       0.619743        126.9262
2010    25      5       0.5723282       120.0005
2010    25      6       0.5207907       112.3075
2010    25      7       0.4916357       107.6512
2010    26      0       0.4699069       103.9816
2010    26      1       0.5231654       112.6374
2010    26      2       0.5495023       116.4901
2010    26      3       0.5300939       114.042
2010    26      4       0.6145237       126.7438
2010    26      5       0.7041742       138.7649
2010    26      6       0.7684205       146.5093
2010    26      7       0.6474816       130.2397
2010    27      0       0.6171513       125.9535
2010    27      1       0.5437872       115.2952
2010    27      2       0.5280622       113.0491
2010    27      3       0.6189814       125.929
2010    27      4       0.7007807       136.8826
2010    27      5       0.6930126       135.7497
2010    27      6       0.6302607       126.8132
2010    27      7       0.5961034       121.5471
2010    28      0       0.5885019       120.6422
2010    28      1       0.6110891       124.0025
2010    28      2       0.5743104       118.7676
2010    28      3       0.570362        118.743
2010    28      4       0.6475448       129.6994
2010    28      5       0.6226656       126.5097
2010    28      6       0.5714296       119.1569
2010    28      7       0.5229978       111.5483
2010    29      0       0.4281732       96.41395
2010    29      1       0.4433303       98.94222
2010    29      2       0.4281969       96.48176
2010    29      3       0.4652899       102.7744
2010    29      4       0.482248        105.4519
2010    29      5       0.4432118       99.55193
2010    29      6       0.4402639       98.95911
2010    29      7       0.4656591       103.1367
2010    30      0       0.4109543       93.90004
2010    30      1       0.4387613       98.28397
2010    30      2       0.4644478       102.2433
2010    30      3       0.4782067       104.3495
2010    30      4       0.4791721       104.5934
2010    30      5       0.4268602       96.47314
2010    30      6       0.4114466       93.7102
2010    30      7       0.4404192       98.49862
2010    31      0       0.45804         101.1241
2010    31      1       0.5014631       108.0195
2010    31      2       0.5451573       114.7376
2010    31      3       0.5915704       121.6827
2010    31      4       0.5384914       113.968
2010    31      5       0.4227909       95.6456
2010    31      6       0.4289141       96.4495
2010    31      7       0.4031991       91.95127
2011    1       0       0.4210969       94.73866
2011    1       1       0.3477153       81.57326
2011    1       2       0.3233102       77.19612
2011    1       3       0.3062726       74.35573
2011    1       4       0.3599019       84.13118
2011    1       5       0.4024504       91.60768
2011    1       6       0.3835404       88.41895
2011    1       7       0.3659099       85.30145
2011    2       0       0.3362441       79.77295
2011    2       1       0.2914216       71.10933
2011    2       2       0.2381318       60.78777
2011    2       3       0.2278171       58.81621
2011    2       4       0.2392873       60.93962
2011    2       5       0.2673748       66.13722
2011    2       6       0.2590349       64.4892
2011    2       7       0.2480039       62.38065
2011    3       0       0.2470931       62.16729
2011    3       1       0.298723        71.93411
2011    3       2       0.2581743       64.40709
2011    3       3       0.2790895       68.66343
2011    3       4       0.3952633       90.30009
2011    3       5       0.3642981       85.02392
2011    3       6       0.3129328       75.63606
2011    3       7       0.289777        71.07262
2011    4       0       0.2465161       62.40312
2011    4       1       0.2471814       62.67189
2011    4       2       0.1931796       51.37187
2011    4       3       0.195789        52.1249
2011    4       4       0.1942185       51.85862
2011    4       5       0.1946079       51.99311
2011    4       6       0.1694163       46.19334
2011    4       7       0.1587068       43.56908
2011    5       0       0.1459466       40.59116
2011    5       1       0.1410717       39.47945
2011    5       2       0.1193177       34.56144
2011    5       3       0.1195921       34.71314
2011    5       4       0.1352065       38.36726
2011    5       5       0.170616        46.31476
2011    5       6       0.1725121       46.67271
2011    5       7       0.1640227       44.66898
2011    6       0       0.175169        47.06057
2011    6       1       0.1874706       49.69018
2011    6       2       0.1879206       49.98956
2011    6       3       0.1864464       49.95657
2011    6       4       0.1818816       49.02371
2011    6       5       0.1788229       48.25862
2011    6       6       0.1863576       49.8668
2011    6       7       0.2102645       54.84752
2011    7       0       0.2106209       54.85686
2011    7       1       0.2033172       53.42466
2011    7       2       0.2067365       54.26962
2011    7       3       0.2337772       60.20803
2011    7       4       0.2741648       68.42733
2011    7       5       0.2861413       70.92712
2011    7       6       0.3337146       80.04168
2011    7       7       0.3535269       83.24039
2011    8       0       0.360673        84.49507
2011    8       1       0.3373571       80.04331
2011    8       2       0.3207178       77.12066
2011    8       3       0.3306372       79.34333
2011    8       4       0.3703882       86.43093
2011    8       5       0.4569532       101.078
2011    8       6       0.4935441       107.4268
2011    8       7       0.5168539       111.0116
2011    9       0       0.3367215       79.93157
2011    9       1       0.3526903       82.40344
2011    9       2       0.4119315       93.51038
2011    9       3       0.48565         105.5823
2011    9       4       0.5214366       110.9986
2011    9       5       0.4504186       100.0066
2011    9       6       0.4259095       95.50131
2011    9       7       0.4321122       96.32011
2011    10      0       0.4045749       91.60685
2011    10      1       0.4315886       96.28194
2011    10      2       0.4677431       102.6865
2011    10      3       0.5269865       111.9586
2011    10      4       0.5952521       121.4094
2011    10      5       0.5252353       111.431
2011    10      6       0.4601789       101.1813
2011    10      7       0.4627629       101.5265
2011    11      0       0.454503        100.223
2011    11      1       0.4564064       100.5934
2011    11      2       0.4122115       93.4666
2011    11      3       0.3682521       85.96261
2011    11      4       0.282717        69.90558
2011    11      5       0.2078075       54.45486
2011    11      6       0.1667444       45.32237
2011    11      7       0.188034        49.88527
2011    12      0       0.2178765       56.24759
2011    12      1       0.2283125       58.38957
2011    12      2       0.2121549       55.19667
2011    12      3       0.2262239       58.25488
2011    12      4       0.2521788       63.28739
2011    12      5       0.2676083       66.23742
2011    12      6       0.2555459       64.02426
2011    12      7       0.2605602       64.99674
2011    13      0       0.2700522       66.95966
2011    13      1       0.2877543       70.52842
2011    13      2       0.2986248       72.70838
2011    13      3       0.3015027       73.38036
2011    13      4       0.3646311       84.97958
2011    13      5       0.3829024       88.32994
2011    13      6       0.3582706       83.78082
2011    13      7       0.380541        87.51913
2011    14      0       0.3741264       86.33889
2011    14      1       0.3391602       80.03301
2011    14      2       0.3973454       90.34915
2011    14      3       0.4347122       97.12789
2011    14      4       0.5079745       109.134
2011    14      5       0.5187144       110.8649
2011    14      6       0.4311802       96.67966
2011    14      7       0.4239477       95.27597
2011    15      0       0.5503714       114.8021
2011    15      1       0.5687883       117.64
2011    15      2       0.5096413       108.8387
2011    15      3       0.5327587       112.2685
2011    15      4       0.5909192       121.095
2011    15      5       0.6098371       124.2556
2011    15      6       0.6151383       124.7025
2011    15      7       0.6398573       128.2737
2011    16      0       0.5293123       112.3024
2011    16      1       0.467466        102.764
2011    16      2       0.4588307       101.4844
2011    16      3       0.5218371       111.2741
2011    16      4       0.6347851       127.1222
2011    16      5       0.5249069       112.0349
2011    16      6       0.51086         109.6475
2011    16      7       0.5678602       118.1517
2011    17      0       0.5631631       117.7134
2011    17      1       0.5803741       120.297
2011    17      2       0.5643463       117.6877
2011    17      3       0.4981732       107.9318
2011    17      4       0.5111813       109.5981
2011    17      5       0.3941314       90.70119
2011    17      6       0.3221751       77.65366
2011    17      7       0.310628        75.27134
2011    18      0       0.3186227       76.60937
2011    18      1       0.3343787       79.51073
2011    18      2       0.3870035       89.20213
2011    18      3       0.417841        94.81005
2011    18      4       0.4083566       93.35815
2011    18      5       0.3567142       84.32972
2011    18      6       0.3525996       83.47648
2011    18      7       0.3856206       89.27187
2011    19      0       0.3869306       89.5007
2011    19      1       0.3888006       89.96472
2011    19      2       0.4511793       101.0087
2011    19      3       0.5174642       111.5178
2011    19      4       0.4113043       94.42554
2011    19      5       0.3225745       78.23928
2011    19      6       0.3058191       74.90269
2011    19      7       0.3087789       75.33802
2011    20      0       0.3212099       77.62896
2011    20      1       0.3067865       74.93791
2011    20      2       0.2902903       72.16925
2011    20      3       0.2348165       60.87995
2011    20      4       0.1962878       52.68896
2011    20      5       0.201866        53.88944
2011    20      6       0.2187753       57.46748
2011    20      7       0.2736361       68.61912
2011    21      0       0.360859        85.15203
2011    21      1       0.3586004       84.82335
2011    21      2       0.4157525       95.49816
2011    21      3       0.4912552       108.033
2011    21      4       0.4493422       101.4287
2011    21      5       0.4813617       106.2627
2011    21      6       0.4082584       93.57832
2011    21      7       0.3944906       91.00905
2011    22      0       0.3717611       86.88485
2011    22      1       0.3757298       87.78253
2011    22      2       0.38364         89.75378
2011    22      3       0.4011511       93.12746
2011    22      4       0.4564323       102.1622
2011    22      5       0.4185302       95.76567
2011    22      6       0.353985        83.63602
2011    22      7       0.3362998       80.08276
2011    23      0       0.3519847       83.15767
2011    23      1       0.3764444       87.69571
2011    23      2       0.4265334       96.79229
2011    23      3       0.4659514       103.779
2011    23      4       0.5514351       117.3725
2011    23      5       0.5950539       123.8094
2011    23      6       0.6216329       127.245
2011    23      7       0.6719587       133.7623
2011    24      0       0.6320963       128.6362
2011    24      1       0.6388623       129.9043
2011    24      2       0.5754612       121.0056
2011    24      3       0.6216072       127.688
2011    24      4       0.6538282       131.7986
2011    24      5       0.6282363       128.4707
2011    24      6       0.5917378       123.5735
2011    24      7       0.6004405       125.1167
2011    25      0       0.5419668       116.6577
2011    25      1       0.647591        131.4849
2011    25      2       0.6637539       133.5343
2011    25      3       0.6916998       137.7254
2011    25      4       0.7524141       145.607
2011    25      5       0.7741955       147.9846
2011    25      6       0.6655392       133.8803
2011    25      7       0.5698137       120.2503
2011    26      0       0.5482051       117.0364
2011    26      1       0.5645575       119.3049
2011    26      2       0.5944042       123.2901
2011    26      3       0.6530144       131.4136
2011    26      4       0.6943621       137.3928
2011    26      5       0.5917189       123.382
2011    26      6       0.5056027       110.5303
2011    26      7       0.4491437       101.3185
2011    27      0       0.3869076       90.37717
2011    27      1       0.3697744       86.89664
2011    27      2       0.3100361       75.89846
2011    27      3       0.2859289       71.16423
2011    27      4       0.3133285       76.51666
2011    27      5       0.3439533       82.0542
2011    27      6       0.3673519       86.50235
2011    27      7       0.3904963       90.6625
2011    28      0       0.4913508       106.6698
2011    28      1       0.5232585       111.9627
2011    28      2       0.5055444       109.5052
2011    28      3       0.4187818       95.36475
2011    28      4       0.3396853       81.12009
2011    28      5       0.3102053       75.41911
2011    28      6       0.3174195       76.85698
2011    28      7       0.3214613       77.40511
2011    29      0       0.4230808       94.78003
2011    29      1       0.4977411       107.1018
2011    29      2       0.4911828       107.1951
2011    29      3       0.6108001       125.1993
2011    29      4       0.593354        122.6567
2011    29      5       0.4028261       92.66089
2011    29      6       0.3342162       80.21236
2011    29      7       0.3118298       76.01362
2011    30      0       0.3055546       74.67767
2011    30      1       0.3418419       81.42831
2011    30      2       0.4264947       97.20362
2011    30      3       0.4057926       94.06811
2011    30      4       0.2829803       70.83876
2011    30      5       0.257965        65.46482
2011    30      6       0.2757679       68.89736
2011    30      7       0.3165809       76.80582
2011    31      0       0.303909        74.39435
2011    31      1       0.2610516       65.94135
2011    31      2       0.2666469       67.29211
2011    31      3       0.2923654       72.57939
2011    31      4       0.2976281       73.44868
2011    31      5       0.2765014       69.1252
2011    31      6       0.2588902       65.67249
2011    31      7       0.2629421       66.46267
2012    1       0       0.1951482       52.0067
2012    1       1       0.1589804       44.04585
2012    1       2       0.1271627       36.78416
2012    1       3       0.1179771       34.64907
2012    1       4       0.1353654       38.75807
2012    1       5       0.1680167       46.29424
2012    1       6       0.1868538       50.49628
2012    1       7       0.2026825       53.84651
2012    2       0       0.2101991       55.31119
2012    2       1       0.1938055       51.72192
2012    2       2       0.174963        47.6894
2012    2       3       0.1784813       48.4703
2012    2       4       0.2009005       53.42918
2012    2       5       0.2314927       59.96504
2012    2       6       0.2158607       56.57458
2012    2       7       0.2227871       57.99136
2012    3       0       0.2529527       64.20761
2012    3       1       0.271177        67.86227
2012    3       2       0.2471254       63.21801
2012    3       3       0.2402905       61.98336
2012    3       4       0.2397858       61.70002
2012    3       5       0.2156929       56.67416
2012    3       6       0.198048        52.65616
2012    3       7       0.2094392       54.9045
2012    4       0       0.2189937       56.84584
2012    4       1       0.2327377       59.76176
2012    4       2       0.2418494       61.85058
2012    4       3       0.2680526       67.60517
2012    4       4       0.2657169       67.28885
2012    4       5       0.2354031       60.93385
2012    4       6       0.2361244       60.821
2012    4       7       0.2488141       63.22195
2012    5       0       0.2522097       63.78527
2012    5       1       0.2436872       62.02357
2012    5       2       0.1956903       52.22968
2012    5       3       0.1868065       50.2877
2012    5       4       0.2088227       54.95575
2012    5       5       0.2381275       60.98075
2012    5       6       0.2433911       61.98943
2012    5       7       0.2457225       62.42351
2012    6       0       0.2558813       64.33023
2012    6       1       0.2571317       64.55334
2012    6       2       0.2130086       55.77303
2012    6       3       0.1842627       49.66143
2012    6       4       0.2235206       58.02903
2012    6       5       0.2545914       64.22953
2012    6       6       0.2852523       70.31506
2012    6       7       0.3001961       73.04276
2012    7       0       0.3147457       75.92503
2012    7       1       0.3138728       75.61787
2012    7       2       0.3020119       73.31246
2012    7       3       0.2535197       64.13522
2012    7       4       0.1917702       51.13478
2012    7       5       0.1759491       47.52882
2012    7       6       0.1972266       51.96164
2012    7       7       0.2438239       61.20947
2012    8       0       0.216117        55.55484
2012    8       1       0.2160122       55.60614
2012    8       2       0.2251644       57.99635
2012    8       3       0.2495238       63.44415
2012    8       4       0.1895041       50.67684
2012    8       5       0.2090174       54.50562
2012    8       6       0.2496107       62.77067
2012    8       7       0.2732797       67.38666
2012    9       0       0.2781343       68.48862
2012    9       1       0.2801199       68.91663
2012    9       2       0.2397255       61.17727
2012    9       3       0.2328196       59.82005
2012    9       4       0.2071591       54.32485
2012    9       5       0.2254809       58.10998
2012    9       6       0.2560975       64.43189
2012    9       7       0.3230004       77.20114
2012    10      0       0.3577801       83.72906
2012    10      1       0.3973392       90.84139
2012    10      2       0.3692019       86.17432
2012    10      3       0.3435445       81.61967
2012    10      4       0.2768878       68.59883
2012    10      5       0.2492108       62.80599
2012    10      6       0.259385        64.76173
2012    10      7       0.2858811       69.8272
2012    11      0       0.3476902       81.06258
2012    11      1       0.412662        92.46133
2012    11      2       0.3875666       88.73064
2012    11      3       0.4162988       93.92764
2012    11      4       0.4962934       106.4887
2012    11      5       0.4216172       94.75185
2012    11      6       0.4632065       101.2586
2012    11      7       0.4904463       105.5294
2012    12      0       0.4366736       97.0524
2012    12      1       0.4088417       92.59668
2012    12      2       0.4708598       102.5727
2012    12      3       0.5276631       111.1563
2012    12      4       0.5772613       119.0565
2012    12      5       0.5005977       107.3561
2012    12      6       0.4244666       95.2138
2012    12      7       0.5294502       111.7583
2012    13      0       0.4261871       95.76541
2012    13      1       0.3620896       84.32116
2012    13      2       0.2668477       66.44935
2012    13      3       0.3354926       79.30254
2012    13      4       0.444604        97.82367
2012    13      5       0.4467892       98.52318
2012    13      6       0.4412349       98.19267
2012    13      7       0.4058831       91.76168
2012    14      0       0.3545675       82.38582
2012    14      1       0.3927368       88.85421
2012    14      2       0.3691949       84.69408
2012    14      3       0.4164639       93.02807
2012    14      4       0.4709738       102.2614
2012    14      5       0.5308787       112.1216
2012    14      6       0.5041014       108.0426
2012    14      7       0.3843086       87.96224
2012    15      0       0.3372698       79.53568
2012    15      1       0.3923899       88.90825
2012    15      2       0.3450636       80.70027
2012    15      3       0.4797592       103.6831
2012    15      4       0.4813237       103.7263
2012    15      5       0.4251083       94.67008
2012    15      6       0.4239621       94.89889
2012    15      7       0.4531405       99.91327
2012    16      0       0.4274159       95.4261
2012    16      1       0.4209664       94.21766
2012    16      2       0.3837743       87.82487
2012    16      3       0.3995536       90.8827
2012    16      4       0.4528563       99.574
2012    16      5       0.3586722       83.68165
2012    16      6       0.2752573       67.93914
2012    16      7       0.2595379       64.5829
2012    17      0       0.2314838       58.91903
2012    17      1       0.2233011       57.24765
2012    17      2       0.1928588       51.02001
2012    17      3       0.171567        46.59447
2012    17      4       0.171539        46.56044
2012    17      5       0.1765098       47.57867
2012    17      6       0.1670629       45.4688
2012    17      7       0.1696079       45.95535
2012    18      0       0.1675241       45.5756
2012    18      1       0.1572755       43.40596
2012    18      2       0.1593293       43.75615
2012    18      3       0.1753921       47.38684
2012    18      4       0.2069179       54.06714
2012    18      5       0.2033456       53.57198
2012    18      6       0.192784        51.45596
2012    18      7       0.1956502       51.96977
2012    19      0       0.2268144       58.34444
2012    19      1       0.1940593       51.41226
2012    19      2       0.1269992       36.44289
2012    19      3       0.135756        38.48649
2012    19      4       0.2280054       58.51057
2012    19      5       0.2623477       65.32163
2012    19      6       0.4061803       91.35919
2012    19      7       0.4689152       102.2601
2012    20      0       0.292382        71.26868
2012    20      1       0.2593002       64.66625
2012    20      2       0.1655208       45.14909
2012    20      3       0.1530066       42.43336
2012    20      4       0.1979523       52.25652
2012    20      5       0.2506788       63.22494
2012    20      6       0.3161234       75.98807
2012    20      7       0.4076337       92.44004
2012    21      0       0.4316717       96.66466
2012    21      1       0.4799232       104.6817
2012    21      2       0.4625611       101.7217
2012    21      3       0.4658658       102.2365
2012    21      4       0.4866377       105.5359
2012    21      5       0.5181971       110.8182
2012    21      6       0.515649        110.3033
2012    21      7       0.4383689       98.12934
2012    22      0       0.5063071       109.5313
2012    22      1       0.4992436       108.3545
2012    22      2       0.4448431       99.6769
2012    22      3       0.4623699       102.5003
2012    22      4       0.5340231       113.5487
2012    22      5       0.4523396       100.9027
2012    22      6       0.3989556       91.77326
2012    22      7       0.3797219       88.53097
2012    23      0       0.374297        87.71478
2012    23      1       0.4453334       99.937
2012    23      2       0.4264938       97.00448
2012    23      3       0.4581581       102.4386
2012    23      4       0.4864707       107.2131
2012    23      5       0.3750015       88.39004
2012    23      6       0.3186005       77.8781
2012    23      7       0.3300829       79.91822
2012    24      0       0.3516766       83.88139
2012    24      1       0.3547894       84.4108
2012    24      2       0.3200174       78.12078
2012    24      3       0.3165695       77.62648
2012    24      4       0.3240507       79.2203
2012    24      5       0.3453033       83.27391
2012    24      6       0.3540859       84.61348
2012    24      7       0.4640997       103.4291
2012    25      0       0.5109894       110.5558
2012    25      1       0.4645107       103.3617
2012    25      2       0.4821563       106.4542
2012    25      3       0.5241708       112.8296
2012    25      4       0.5267095       112.9059
2012    25      5       0.4185379       95.66604
2012    25      6       0.4279777       97.07829
2012    25      7       0.4110565       93.81549
2012    26      0       0.338804        80.84986
2012    26      1       0.3720221       86.71201
2012    26      2       0.5227118       111.5104
2012    26      3       0.420337        95.57282
2012    26      4       0.3461061       82.34342
2012    26      5       0.3728219       87.02051
2012    26      6       0.4299725       96.883
2012    26      7       0.4695363       103.7791
2012    27      0       0.4328663       97.90229
2012    27      1       0.4610011       102.5371
2012    27      2       0.5415174       114.8808
2012    27      3       0.5549963       117.0723
2012    27      4       0.5253017       112.5962
2012    27      5       0.4765417       105.0782
2012    27      6       0.473172        104.551
2012    27      7       0.5092152       109.9665
2012    28      0       0.4593069       102.1806
2012    28      1       0.4897034       107.1881
2012    28      2       0.5084665       109.9602
2012    28      3       0.4951715       108.1445
2012    28      4       0.4942034       107.7218
2012    28      5       0.4354517       98.3138
2012    28      6       0.3962227       91.54303
2012    28      7       0.3938708       91.00055
2012    29      0       0.3799068       88.50475
2012    29      1       0.3804906       88.53621
2012    29      2       0.433722        97.75824
2012    29      3       0.4446797       99.70477
2012    29      4       0.5289939       113.3661
2012    29      5       0.4671074       103.6942
2012    29      6       0.4502544       100.4728
2012    29      7       0.4276139       96.62821
2012    30      0       0.4415168       99.18619
2012    30      1       0.463635        102.9816
2012    30      2       0.4468682       100.4618
2012    30      3       0.4565055       102.0744
2012    30      4       0.492229        107.9284
2012    30      5       0.4690066       104.0417
2012    30      6       0.4983868       108.8247
2012    30      7       0.526693        113.4443
2012    31      0       0.527464        113.4844
2012    31      1       0.4479154       100.606
2012    31      2       0.4303312       97.939
2012    31      3       0.4341331       98.5862
2012    31      4       0.4643791       103.5017
2012    31      5       0.4792045       106.1688
2012    31      6       0.4729853       105.0681
2012    31      7       0.5027924       109.7355
2013    1       0       0.2013459       53.02415
2013    1       1       0.1944246       51.59535
2013    1       2       0.183429        49.29178
2013    1       3       0.2103861       55.11352
2013    1       4       0.2478954       63.06983
2013    1       5       0.2660059       66.6924
2013    1       6       0.2669927       66.80268
2013    1       7       0.2917161       71.51116
2013    2       0       0.2972901       72.4645
2013    2       1       0.3127828       75.38364
2013    2       2       0.2819693       69.6014
2013    2       3       0.2805042       69.425
2013    2       4       0.3281333       78.75039
2013    2       5       0.3281027       78.83006
2013    2       6       0.3324802       79.56007
2013    2       7       0.3646597       85.35196
2013    3       0       0.427683        96.2071
2013    3       1       0.491356        106.7022
2013    3       2       0.451954        100.9322
2013    3       3       0.5401446       114.7866
2013    3       4       0.4959761       108.1287
2013    3       5       0.3998723       92.43688
2013    3       6       0.3639951       86.0174
2013    3       7       0.3565677       84.46447
2013    4       0       0.3686315       86.46274
2013    4       1       0.4024697       92.40278
2013    4       2       0.4669201       103.6557
2013    4       3       0.5460169       116.1934
2013    4       4       0.564967        119.0175
2013    4       5       0.487181        107.5834
2013    4       6       0.4116849       94.79224
2013    4       7       0.3959892       91.65533
2013    5       0       0.3719219       87.28508
2013    5       1       0.3530609       83.90891
2013    5       2       0.3707256       87.681
2013    5       3       0.4461217       101.1123
2013    5       4       0.4830388       107.1565
2013    5       5       0.4152704       95.86928
2013    5       6       0.3832729       89.92976
2013    5       7       0.3832693       89.8315
2013    6       0       0.3861938       90.41256
2013    6       1       0.4215802       96.69316
2013    6       2       0.5241496       113.1631
2013    6       3       0.5448852       116.3414
2013    6       4       0.5008377       109.8182
2013    6       5       0.3893909       91.36982
2013    6       6       0.3713294       87.91768
2013    6       7       0.3664947       86.80535
2013    7       0       0.3519232       83.96239
2013    7       1       0.3626435       86.13709
2013    7       2       0.4814569       106.9999
2013    7       3       0.4609714       103.8376
2013    7       4       0.3130085       77.45724
2013    7       5       0.2322233       60.86528
2013    7       6       0.2229953       58.59548
2013    7       7       0.255098        65.024
2013    8       0       0.2532902       64.36781
2013    8       1       0.4159614       94.48887
2013    8       2       0.4279576       96.93585
2013    8       3       0.4284835       97.08519
2013    8       4       0.3720023       87.13819
2013    8       5       0.3005223       73.75425
2013    8       6       0.2513035       63.88343
2013    8       7       0.2853603       70.44658
2013    9       0       0.2853487       70.37706
2013    9       1       0.3033085       73.92039
2013    9       2       0.2978852       73.37232
2013    9       3       0.2421231       62.45126
2013    9       4       0.2521125       64.37389
2013    9       5       0.2695739       67.65249
2013    9       6       0.2953669       72.46959
2013    9       7       0.3614279       84.66148
2013    10      0       0.3842262       88.93446
2013    10      1       0.2465716       62.81847
2013    10      2       0.1707454       46.61637
2013    10      3       0.2043767       54.10878
2013    10      4       0.2488604       63.50314
2013    10      5       0.2796878       69.62085
2013    10      6       0.2740003       68.41278
2013    10      7       0.2674058       66.89366
2013    11      0       0.2660521       66.41698
2013    11      1       0.2051921       53.89376
2013    11      2       0.1550725       43.03285
2013    11      3       0.1546717       43.08785
2013    11      4       0.1789347       48.47764
2013    11      5       0.1806471       48.87597
2013    11      6       0.174847        47.57634
2013    11      7       0.1922691       51.18492
2013    12      0       0.213614        55.57182
2013    12      1       0.2280374       58.6358
2013    12      2       0.2266591       58.50975
2013    12      3       0.2423186       61.90238
2013    12      4       0.2444012       62.27129
2013    12      5       0.2452114       62.22124
2013    12      6       0.2909068       71.18197
2013    12      7       0.3453565       81.30765
2013    13      0       0.333357        79.16248
2013    13      1       0.2857663       70.34287
2013    13      2       0.2807753       69.61047
2013    13      3       0.2899114       71.62969
2013    13      4       0.2346278       60.6185
2013    13      5       0.197343        52.544
2013    13      6       0.1766841       47.88301
2013    13      7       0.1828908       49.08999
2013    14      0       0.1909623       50.89977
2013    14      1       0.2021833       53.40577
2013    14      2       0.2157552       56.56246
2013    14      3       0.245277        62.97914
2013    14      4       0.2461849       63.22646
2013    14      5       0.2210064       57.87981
2013    14      6       0.2120366       55.69638
2013    14      7       0.2075269       54.71835
2013    15      0       0.3075194       74.48808
2013    15      1       0.3196825       76.85234
2013    15      2       0.3815262       88.75616
2013    15      3       0.448721        100.7449
2013    15      4       0.5168047       111.437
2013    15      5       0.4064643       93.56025
2013    15      6       0.3284473       79.28851
2013    15      7       0.3374681       80.60835
2013    16      0       0.393774        90.40464
2013    16      1       0.3828299       88.68015
2013    16      2       0.3389999       81.11358
2013    16      3       0.3500042       83.17632
2013    16      4       0.3515427       83.33511
2013    16      5       0.2675795       67.15601
2013    16      6       0.2268119       58.47729
2013    16      7       0.2261766       58.21572
2013    17      0       0.2014015       53.038
2013    17      1       0.19229         51.10425
2013    17      2       0.1987968       52.50591
2013    17      3       0.2126052       55.69844
2013    17      4       0.2186863       57.05178
2013    17      5       0.2060856       54.24148
2013    17      6       0.2293596       59.0353
2013    17      7       0.2586717       65.01298
2013    18      0       0.2731905       67.86733
2013    18      1       0.2934762       71.79686
2013    18      2       0.2528938       64.17179
2013    18      3       0.2487184       63.65033
2013    18      4       0.2327301       60.44252
2013    18      5       0.2416031       62.08073
2013    18      6       0.2447515       62.57906
2013    18      7       0.2688925       67.39012
2013    19      0       0.27123         67.81164
2013    19      1       0.2735649       68.26561
2013    19      2       0.3250777       78.30953
2013    19      3       0.3729781       86.94353
2013    19      4       0.4024328       92.04258
2013    19      5       0.3915873       90.26879
2013    19      6       0.450301        99.32809
2013    19      7       0.482005        104.8888
2013    20      0       0.4506738       100.2038
2013    20      1       0.5908488       121.2582
2013    20      2       0.5469566       115.2968
2013    20      3       0.4907706       106.9559
2013    20      4       0.4752774       104.0056
2013    20      5       0.4497175       100.1324
2013    20      6       0.508877        109.3024
2013    20      7       0.5287102       111.8063
2013    21      0       0.5433673       113.9572
2013    21      1       0.5674238       117.1573
2013    21      2       0.582988        119.3115
2013    21      3       0.5959482       121.1634
2013    21      4       0.6734325       131.5457
2013    21      5       0.4532044       100.2336
2013    21      6       0.3945481       90.5692
2013    21      7       0.4592056       101.1074
2013    22      0       0.4364442       97.45028
2013    22      1       0.6167523       124.3984
2013    22      2       0.5648324       116.9841
2013    22      3       0.5559709       115.974
2013    22      4       0.6298739       126.83
2013    22      5       0.4367694       97.42212
2013    22      6       0.3623854       84.49058
2013    22      7       0.3374822       80.09804
2013    23      0       0.3380038       79.64844
2013    23      1       0.2799008       69.07148
2013    23      2       0.3138146       75.80654
2013    23      3       0.3937881       90.85434
2013    23      4       0.4218079       95.72133
2013    23      5       0.2952133       73.19833
2013    23      6       0.2449825       62.80554
2013    23      7       0.2710812       67.61543
2013    24      0       0.4425011       97.72313
2013    24      1       0.5036945       107.4716
2013    24      2       0.5174745       110.0038
2013    24      3       0.5916211       121.7313
2013    24      4       0.622701        125.8502
2013    24      5       0.5448544       114.5533
2013    24      6       0.5494725       114.4338
2013    24      7       0.4503994       98.64676
2013    25      0       0.4103736       91.30706
2013    25      1       0.4561225       98.58984
2013    25      2       0.4060799       90.69122
2013    25      3       0.4729115       102.0251
2013    25      4       0.5238386       110.6703
2013    25      5       0.5033459       107.8988
2013    25      6       0.3784636       87.06692
2013    25      7       0.4084743       91.74135
2013    26      0       0.390535        88.57261
2013    26      1       0.4331996       95.91909
2013    26      2       0.3932831       89.52073
2013    26      3       0.416676        93.95754
2013    26      4       0.5078802       108.5384
2013    26      5       0.4901721       106.3596
2013    26      6       0.4123891       93.63823
2013    26      7       0.3546782       83.00835
2013    27      0       0.2776849       68.23053
2013    27      1       0.2600929       64.82401
2013    27      2       0.2900943       71.11845
2013    27      3       0.3074831       74.93322
2013    27      4       0.2625902       66.38307
2013    27      5       0.1744876       47.56898
2013    27      6       0.1064826       31.66357
2013    27      7       0.08659149      26.86522
2013    28      0       0.07342713      23.65278
2013    28      1       0.07637036      24.2891
2013    28      2       0.08143494      25.63627
2013    28      3       0.09666769      29.36708
2013    28      4       0.09272779      28.43418
2013    28      5       0.07898866      25.05421
2013    28      6       0.06915807      22.59082
2013    28      7       0.0705639       22.90172
2013    29      0       0.07906264      25.02274
2013    29      1       0.0931428       28.43575
2013    29      2       0.1103016       32.5028
2013    29      3       0.1236559       35.74637
2013    29      4       0.1414843       39.69617
2013    29      5       0.1524648       41.95186
2013    29      6       0.1275948       36.58745
2013    29      7       0.1333322       37.99387
2013    30      0       0.1511725       41.99972
2013    30      1       0.1975097       51.80875
2013    30      2       0.2212918       56.63773
2013    30      3       0.2208602       56.65516
2013    30      4       0.2046716       53.35965
2013    30      5       0.1677724       45.44594
2013    30      6       0.1282923       36.59512
2013    30      7       0.1200082       34.59196
2013    31      0       0.119766        34.50227
2013    31      1       0.1310059       37.06295
2013    31      2       0.1311967       37.10651
2013    31      3       0.1434166       39.81925
2013    31      4       0.1552755       42.49889
2013    31      5       0.1527043       41.97633
2013    31      6       0.1780829       47.19751
2013    31      7       0.1815666       48.20524
2014    1       0       0.3428761       80.66699
2014    1       1       0.3854084       88.2264
2014    1       2       0.4073789       92.07086
2014    1       3       0.5016104       107.0771
2014    1       4       0.62297         124.6919
2014    1       5       0.5573698       116.2438
2014    1       6       0.5489252       115.3415
2014    1       7       0.6044284       123.8371
2014    2       0       0.6261336       126.7664
2014    2       1       0.5332713       112.6992
2014    2       2       0.5539968       115.4073
2014    2       3       0.5404465       114.1814
2014    2       4       0.5068366       109.242
2014    2       5       0.4859866       105.9346
2014    2       6       0.50078         108.546
2014    2       7       0.4995448       108.2103
2014    3       0       0.4612136       101.8179
2014    3       1       0.4475967       98.79216
2014    3       2       0.328252        78.0703
2014    3       3       0.3426822       80.60893
2014    3       4       0.4724144       102.0877
2014    3       5       0.5183134       109.9938
2014    3       6       0.5229287       111.0033
2014    3       7       0.4435888       98.32606
2014    4       0       0.3042643       73.62411
2014    4       1       0.2788753       68.68061
2014    4       2       0.3048614       73.59424
2014    4       3       0.3759702       86.4889
2014    4       4       0.3833999       87.82785
2014    4       5       0.3465174       81.56422
2014    4       6       0.3394894       79.91822
2014    4       7       0.3152781       75.21219
2014    5       0       0.3336806       78.5672
2014    5       1       0.2709058       66.5947
2014    5       2       0.2215463       56.81061
2014    5       3       0.2717615       66.82932
2014    5       4       0.3123009       74.7396
2014    5       5       0.2753432       67.99507
2014    5       6       0.2515514       63.22472
2014    5       7       0.2502268       62.78254
2014    6       0       0.2360925       59.88353
2014    6       1       0.2180466       56.27445
2014    6       2       0.1925431       51.07215
2014    6       3       0.1832397       49.16032
2014    6       4       0.2110738       55.1127
2014    6       5       0.2343277       59.94571
2014    6       6       0.2289448       58.78854
2014    6       7       0.2450282       61.92629
2014    7       0       0.2981931       72.30818
2014    7       1       0.2268383       58.20083
2014    7       2       0.1818367       48.85497
2014    7       3       0.1634551       44.88163
2014    7       4       0.1518844       42.21019
2014    7       5       0.158756        43.66007
2014    7       6       0.1802699       48.34683
2014    7       7       0.1798354       48.08906
2014    8       0       0.1756654       47.03167
2014    8       1       0.1909264       50.119
2014    8       2       0.2010864       52.37897
2014    8       3       0.2318345       58.91023
2014    8       4       0.2964003       71.48356
2014    8       5       0.2249313       57.33701
2014    8       6       0.1739155       46.40654
2014    8       7       0.1484215       40.82167
2014    9       0       0.1515955       41.55297
2014    9       1       0.1861096       49.12776
2014    9       2       0.1983099       52.02656
2014    9       3       0.206139        53.92546
2014    9       4       0.2480553       62.39122
2014    9       5       0.2793418       68.64457
2014    9       6       0.2583797       64.6878
2014    9       7       0.2349068       59.99885
2014    10      0       0.2339281       59.7147
2014    10      1       0.3058279       73.69036
2014    10      2       0.2812243       69.33563
2014    10      3       0.2912574       71.38476
2014    10      4       0.3589668       83.67271
2014    10      5       0.4127243       93.61965
2014    10      6       0.3595064       84.45427
2014    10      7       0.281417        69.77274
2014    11      0       0.2795477       69.23734
2014    11      1       0.2917749       71.3874
2014    11      2       0.2589132       65.06813
2014    11      3       0.2615139       65.75629
2014    11      4       0.2828661       69.87807
2014    11      5       0.3595273       84.15897
2014    11      6       0.3301903       79.13557
2014    11      7       0.3132506       75.80948
2014    12      0       0.3163386       76.18789
2014    12      1       0.3604701       84.212
2014    12      2       0.3609768       84.6927
2014    12      3       0.3956066       91.05478
2014    12      4       0.4127053       94.14562
2014    12      5       0.4092827       93.84121
2014    12      6       0.4163169       94.99901
2014    12      7       0.398626        91.88482
2014    13      0       0.3839098       89.14182
2014    13      1       0.3939959       90.80718
2014    13      2       0.3788678       88.21217
2014    13      3       0.3883938       90.00374
2014    13      4       0.4507313       100.8756
2014    13      5       0.4672129       103.8724
2014    13      6       0.4152904       95.00724
2014    13      7       0.4224587       95.90669
2014    14      0       0.428852        96.92089
2014    14      1       0.4855212       106.1707
2014    14      2       0.5284642       112.6094
2014    14      3       0.5122181       110.791
2014    14      4       0.5232027       112.8188
2014    14      5       0.4657475       103.5952
2014    14      6       0.4349337       98.52862
2014    14      7       0.4921678       107.9079
2014    15      0       0.4863725       106.9917
2014    15      1       0.5125994       111.0087
2014    15      2       0.5311868       113.5365
2014    15      3       0.5496322       116.6876
2014    15      4       0.6083089       125.3721
2014    15      5       0.5083147       110.4286
2014    15      6       0.4085234       94.01072
2014    15      7       0.4504617       100.5764
2014    16      0       0.4399144       98.78181
2014    16      1       0.5204793       111.1206
2014    16      2       0.5145491       110.5711
2014    16      3       0.4658932       103.3462
2014    16      4       0.4499348       100.369
2014    16      5       0.407118        93.05136
2014    16      6       0.4386746       98.05801
2014    16      7       0.4529123       100.2903
2014    17      0       0.4533293       100.3474
2014    17      1       0.5381813       113.6981
2014    17      2       0.567487        117.4372
2014    17      3       0.6893917       134.172
2014    17      4       0.7499232       141.8677
2014    17      5       0.5724917       118.534
2014    17      6       0.5777601       119.5197
2014    17      7       0.5541446       116.1818
2014    18      0       0.5359085       113.5406
2014    18      1       0.5332975       113.1323
2014    18      2       0.5138398       110.2995
2014    18      3       0.5519665       116.2851
2014    18      4       0.6049898       123.7648
2014    18      5       0.5635555       117.9944
2014    18      6       0.5811121       120.5231
2014    18      7       0.557552        116.8196
2014    19      0       0.5112158       109.5622
2014    19      1       0.555688        116.4301
2014    19      2       0.6248559       126.685
2014    19      3       0.5857715       121.6469
2014    19      4       0.6377966       128.2848
2014    19      5       0.5911809       122.7473
2014    19      6       0.594712        123.0306
2014    19      7       0.5454093       115.5042
2014    20      0       0.455251        101.1579
2014    20      1       0.4001063       91.66685
2014    20      2       0.3947279       91.29644
2014    20      3       0.4376579       99.21418
2014    20      4       0.4042727       93.537
2014    20      5       0.3363376       81.11609
2014    20      6       0.3131023       76.51692
2014    20      7       0.3157982       76.75445
2014    21      0       0.3183072       77.03126
2014    21      1       0.3465054       82.2138
2014    21      2       0.3817904       89.23339
2014    21      3       0.4490609       100.9449
2014    21      4       0.4163643       95.24943
2014    21      5       0.3877925       89.99746
2014    21      6       0.3618083       85.03286
2014    21      7       0.3526265       83.15389
2014    22      0       0.4004282       91.80664
2014    22      1       0.4001117       91.59027
2014    22      2       0.4553963       101.4558
2014    22      3       0.540404        114.9557
2014    22      4       0.5662995       118.5653
2014    22      5       0.4704516       104.3116
2014    22      6       0.4510705       101.0031
2014    22      7       0.4266536       96.78874
2014    23      0       0.326253        78.18844
2014    23      1       0.2760887       68.20295
2014    23      2       0.2754859       68.44121
2014    23      3       0.2850407       70.68142
2014    23      4       0.3505027       82.89142
2014    23      5       0.4440197       99.63292
2014    23      6       0.4663986       103.477
2014    23      7       0.4393147       98.97861
2014    24      0       0.388941        90.14657
2014    24      1       0.3422328       81.60728
2014    24      2       0.3416972       81.70999
2014    24      3       0.3484883       82.9682
2014    24      4       0.3538729       84.00458
2014    24      5       0.3122409       75.75366
2014    24      6       0.2564717       64.70075
2014    24      7       0.2610683       65.59506
2014    25      0       0.2532797       64.0371
2014    25      1       0.2380376       60.93804
2014    25      2       0.2320814       59.88024
2014    25      3       0.2221681       58.00807
2014    25      4       0.263127        65.86134
2014    25      5       0.2338361       60.17783
2014    25      6       0.2411299       61.69199
2014    25      7       0.3104565       75.28567
2014    26      0       0.3302458       79.11493
2014    26      1       0.3440553       81.50961
2014    26      2       0.4216635       94.88878
2014    26      3       0.4079847       92.83959
2014    26      4       0.4378819       98.42317
2014    26      5       0.4508287       100.4921
2014    26      6       0.4001611       91.7903
2014    26      7       0.3796264       88.0917
2014    27      0       0.3975447       91.16846
2014    27      1       0.5095488       109.1287
2014    27      2       0.5119995       109.1184
2014    27      3       0.4992604       107.3346
2014    27      4       0.4653156       101.9038
2014    27      5       0.3629956       84.4594
2014    27      6       0.3941028       90.01786
2014    27      7       0.3795724       87.47533
2014    28      0       0.3840302       87.965
2014    28      1       0.4510594       98.80153
2014    28      2       0.5005529       106.8117
2014    28      3       0.5531056       114.5042
2014    28      4       0.5042062       107.3036
2014    28      5       0.4311397       96.22279
2014    28      6       0.4091633       92.692
2014    28      7       0.5297993       111.6589
2014    29      0       0.5890331       120.9262
2014    29      1       0.5353538       113.0731
2014    29      2       0.6084355       123.102
2014    29      3       0.6277107       125.8175
2014    29      4       0.4706843       103.3715
2014    29      5       0.3713597       86.98924
2014    29      6       0.3859318       89.43929
2014    29      7       0.3792112       88.16323
2014    30      0       0.3653159       85.41078
2014    30      1       0.4495573       99.54219
2014    30      2       0.5067979       108.2532
2014    30      3       0.6338244       126.6858
2014    30      4       0.6658951       131.7645
2014    30      5       0.4961419       107.4726
2014    30      6       0.4308586       96.85772
2014    30      7       0.4573084       100.9484
2014    31      0       0.3890342       89.57171
2014    31      1       0.5347113       112.3828
2014    31      2       0.5478079       114.8658
2014    31      3       0.5816038       120.1843
2014    31      4       0.4942154       107.6234
2014    31      5       0.4844102       105.4312
2014    31      6       0.4762127       103.4398
2014    31      7       0.4056822       92.15117
2015    1       0       0.3454681       80.83927
2015    1       1       0.3533103       81.9731
2015    1       2       0.2939557       71.13166
2015    1       3       0.2922063       71.00865
2015    1       4       0.2843012       69.61251
2015    1       5       0.3119997       74.85117
2015    1       6       0.4236667       94.74358
2015    1       7       0.485724        104.6556
2015    2       0       0.4726261       102.4991
2015    2       1       0.4243108       94.205
2015    2       2       0.406621        91.31521
2015    2       3       0.4538715       99.37509
2015    2       4       0.5558229       114.9939
2015    2       5       0.5102854       108.4192
2015    2       6       0.4457255       97.99366
2015    2       7       0.3556797       82.13211
2015    3       0       0.323147        76.02843
2015    3       1       0.3115944       74.09977
2015    3       2       0.286833        69.82343
2015    3       3       0.3287888       77.87175
2015    3       4       0.2782444       68.50673
2015    3       5       0.1837706       49.06969
2015    3       6       0.1310127       37.14394
2015    3       7       0.1025845       30.53937
2015    4       0       0.08685859      26.7915
2015    4       1       0.07718392      24.45556
2015    4       2       0.07444329      23.87385
2015    4       3       0.08463916      26.38745
2015    4       4       0.07736445      24.62688
2015    4       5       0.06623037      21.85823
2015    4       6       0.05821116      19.85503
2015    4       7       0.05652014      19.41978
2015    5       0       0.0566061       19.41052
2015    5       1       0.05923214      20.07005
2015    5       2       0.06728268      22.09095
2015    5       3       0.08506926      26.4236
2015    5       4       0.1082395       31.93126
2015    5       5       0.1554581       42.64558
2015    5       6       0.195715        51.36842
2015    5       7       0.1909339       50.05128
2015    6       0       0.1879704       49.35363
2015    6       1       0.1874302       49.33841
2015    6       2       0.2350845       59.29512
2015    6       3       0.3844938       87.3943
2015    6       4       0.4785621       102.952
2015    6       5       0.3964716       90.21018
2015    6       6       0.386845        88.38908
2015    6       7       0.4436415       97.67657
2015    7       0       0.4150871       93.09244
2015    7       1       0.4071731       91.96873
2015    7       2       0.4317626       95.96759
2015    7       3       0.441457        97.77906
2015    7       4       0.4968568       107.0202
2015    7       5       0.4822923       104.4747
2015    7       6       0.4561411       99.92618
2015    7       7       0.4057643       91.0167
2015    8       0       0.4023764       89.98109
2015    8       1       0.388877        87.4387
2015    8       2       0.4433696       96.85307
2015    8       3       0.5050682       107.0796
2015    8       4       0.5354363       111.9
2015    8       5       0.4448269       97.72113
2015    8       6       0.4444282       97.50795
2015    8       7       0.3672389       84.25017
2015    9       0       0.3017266       72.39099
2015    9       1       0.3179308       75.69071
2015    9       2       0.4403902       97.02134
2015    9       3       0.4815672       104.0935
2015    9       4       0.4715131       103.1361
2015    9       5       0.4649048       102.037
2015    9       6       0.5294067       112.0134
2015    9       7       0.5825542       119.3376
2015    10      0       0.5193583       110.3217
2015    10      1       0.4839154       104.4386
2015    10      2       0.5344465       112.0038
2015    10      3       0.5058852       108.372
2015    10      4       0.6098116       124.3334
2015    10      5       0.5799459       119.9467
2015    10      6       0.5631612       117.2346
2015    10      7       0.5689198       117.8364
2015    11      0       0.5248733       110.8469
2015    11      1       0.5944796       120.4875
2015    11      2       0.6015437       121.4461
2015    11      3       0.5699521       117.5133
2015    11      4       0.5764525       118.8286
2015    11      5       0.5696786       118.4422
2015    11      6       0.551716        115.7975
2015    11      7       0.5776043       118.9928
2015    12      0       0.5318979       111.8016
2015    12      1       0.4929881       106.1391
2015    12      2       0.5805802       119.3725
2015    12      3       0.6431023       128.5559
2015    12      4       0.6275765       127.2672
2015    12      5       0.7014917       137.2183
2015    12      6       0.686657        135.4969
2015    12      7       0.6254932       127.589
2015    13      0       0.5889738       122.2655
2015    13      1       0.5018947       108.9337
2015    13      2       0.5249058       112.2783
2015    13      3       0.5215275       112.1789
2015    13      4       0.6065583       124.8282
2015    13      5       0.611235        125.1305
2015    13      6       0.6176175       125.3574
2015    13      7       0.506784        109.3296
2015    14      0       0.4326257       97.25387
2015    14      1       0.3795162       88.04244
2015    14      2       0.3994625       91.67496
2015    14      3       0.4590632       101.5635
2015    14      4       0.4770202       104.413
2015    14      5       0.4680568       103.5188
2015    14      6       0.4886547       107.0182
2015    14      7       0.4408656       98.73328
2015    15      0       0.338059        80.0223
2015    15      1       0.2933762       71.56732
2015    15      2       0.2787829       69.20787
2015    15      3       0.3253611       78.44354
2015    15      4       0.3587501       84.70244
2015    15      5       0.3461954       82.39002
2015    15      6       0.3295214       78.93186
2015    15      7       0.2599383       65.2104
2015    16      0       0.2355279       60.12903
2015    16      1       0.2483519       62.65607
2015    16      2       0.2878766       70.69349
2015    16      3       0.3760741       87.1167
2015    16      4       0.4189373       94.63103
2015    16      5       0.4408253       98.02328
2015    16      6       0.365664        85.27327
2015    16      7       0.3601848       84.05719
2015    17      0       0.3646641       84.32717
2015    17      1       0.4257479       94.63908
2015    17      2       0.5345146       112.05
2015    17      3       0.6118863       123.2563
2015    17      4       0.5748153       118.1958
2015    17      5       0.424362        95.23887
2015    17      6       0.3538086       83.01241
2015    17      7       0.3430738       80.7888
2015    18      0       0.3064331       73.61934
2015    18      1       0.2540762       63.37846
2015    18      2       0.2562494       63.98647
2015    18      3       0.2738439       67.71046
2015    18      4       0.3117711       74.93471
2015    18      5       0.2811162       69.09246
2015    18      6       0.2708717       67.32216
2015    18      7       0.3872924       88.95078
2015    19      0       0.4563932       100.0522
2015    19      1       0.4564994       99.32412
2015    19      2       0.3729367       84.95631
2015    19      3       0.3153503       74.68931
2015    19      4       0.2891763       69.91405
2015    19      5       0.2488733       62.06217
2015    19      6       0.2492342       62.19022
2015    19      7       0.2841835       69.44528
2015    20      0       0.300066        72.81015
2015    20      1       0.3573903       82.70847
2015    20      2       0.3946518       89.33864
2015    20      3       0.4681699       102.5231
2015    20      4       0.5523228       115.7389
2015    20      5       0.5129091       109.6421
2015    20      6       0.4112728       93.22764
2015    20      7       0.3952169       90.39693
2015    21      0       0.4180975       94.34259
2015    21      1       0.4453104       98.30633
2015    21      2       0.505716        107.7341
2015    21      3       0.5120771       108.9385
2015    21      4       0.4850867       105.0458
2015    21      5       0.4408508       98.25549
2015    21      6       0.4816811       104.456
2015    21      7       0.4050479       91.97287
2015    22      0       0.3949104       90.08914
2015    22      1       0.4139648       93.41223
2015    22      2       0.4479072       99.37272
2015    22      3       0.5056931       108.8165
2015    22      4       0.5334495       113.483
2015    22      5       0.4765434       104.6124
2015    22      6       0.4628749       101.8213
2015    22      7       0.3957522       90.40211
2015    23      0       0.3621545       84.50863
2015    23      1       0.3580912       83.68356
2015    23      2       0.3790669       87.11579
2015    23      3       0.4352275       96.54081
2015    23      4       0.4453719       98.6379
2015    23      5       0.3755948       87.29647
2015    23      6       0.3341222       79.65356
2015    23      7       0.2717725       67.59062
2015    24      0       0.2012307       52.98564
2015    24      1       0.1751578       47.17407
2015    24      2       0.219539        56.27377
2015    24      3       0.2488383       62.34613
2015    24      4       0.210151        54.64246
2015    24      5       0.168243        45.61952
2015    24      6       0.1400537       39.30402
2015    24      7       0.1271248       36.27703
2015    25      0       0.1177666       34.15206
2015    25      1       0.1349476       38.07641
2015    25      2       0.1495817       41.4308
2015    25      3       0.1866206       49.42023
2015    25      4       0.1992271       52.22311
2015    25      5       0.2055277       53.55551
2015    25      6       0.2142846       55.45377
2015    25      7       0.2540427       63.88495
2015    26      0       0.3067783       74.41224
2015    26      1       0.3713767       85.38156
2015    26      2       0.3475413       81.47516
2015    26      3       0.367304        85.4963
2015    26      4       0.4121292       93.14055
2015    26      5       0.4349137       97.53263
2015    26      6       0.4214481       95.62512
2015    26      7       0.417226        94.92052
2015    27      0       0.4934311       106.6101
2015    27      1       0.4305369       96.1387
2015    27      2       0.3800957       87.74217
2015    27      3       0.3959639       90.67769
2015    27      4       0.4125862       93.87044
2015    27      5       0.3829687       88.90952
2015    27      6       0.3564132       83.89401
2015    27      7       0.3149736       76.31918
2015    28      0       0.3727601       86.45763
2015    28      1       0.4221448       94.44275
2015    28      2       0.3889359       89.23112
2015    28      3       0.4030768       92.03188
2015    28      4       0.4198586       94.94798
2015    28      5       0.4308039       97.13737
2015    28      6       0.4955033       107.7425
2015    28      7       0.5094422       109.4625
2015    29      0       0.5863809       120.2178
2015    29      1       0.588508        120.3124
2015    29      2       0.4473178       98.49146
2015    29      3       0.352703        82.70349
2015    29      4       0.4073293       92.30672
2015    29      5       0.4055914       92.31815
2015    29      6       0.49287         106.3757
2015    29      7       0.4751342       103.7347
2015    30      0       0.3921889       90.41291
2015    30      1       0.4527003       99.85296
2015    30      2       0.5081014       108.3045
2015    30      3       0.4716547       103.2614
2015    30      4       0.4201789       95.32168
2015    30      5       0.5185475       111.2121
2015    30      6       0.5410763       114.6861
2015    30      7       0.485849        106.5623
2015    31      0       0.45726         102.0059
2015    31      1       0.520912        111.7623
2015    31      2       0.4946759       108.1881
2015    31      3       0.4730903       104.791
2015    31      4       0.5294212       113.1397
2015    31      5       0.5846259       121.8128
2015    31      6       0.5925918       123.285
2015    31      7       0.6248521       127.9831
2016    1       0       0.3819659       88.40128
2016    1       1       0.3818701       88.34071
2016    1       2       0.3219817       77.45741
2016    1       3       0.3055855       74.20594
2016    1       4       0.482119        104.5021
2016    1       5       0.3691338       86.29547
2016    1       6       0.2943171       72.24647
2016    1       7       0.323428        77.35771
2016    2       0       0.3119283       75.02526
2016    2       1       0.3073221       74.26289
2016    2       2       0.3207642       76.84078
2016    2       3       0.4961318       106.6599
2016    2       4       0.5732346       118.616
2016    2       5       0.5088917       109.0165
2016    2       6       0.5533502       115.6238
2016    2       7       0.5794362       119.4123
2016    3       0       0.5848542       120.1955
2016    3       1       0.596275        121.3412
2016    3       2       0.6478071       127.9157
2016    3       3       0.6440061       127.5152
2016    3       4       0.6025038       122.3589
2016    3       5       0.484947        105.6821
2016    3       6       0.4355372       97.5944
2016    3       7       0.5265299       111.8005
2016    4       0       0.5531442       115.7098
2016    4       1       0.4144114       93.58124
2016    4       2       0.3719471       86.3771
2016    4       3       0.4295925       95.90774
2016    4       4       0.4338947       96.56702
2016    4       5       0.3803783       87.7636
2016    4       6       0.3211526       77.166
2016    4       7       0.3344866       79.58165
2016    5       0       0.3375125       79.93918
2016    5       1       0.3475352       81.70926
2016    5       2       0.2998322       73.00814
2016    5       3       0.3185143       76.31373
2016    5       4       0.3625819       84.40749
2016    5       5       0.3302538       79.06328
2016    5       6       0.4481225       98.83339
2016    5       7       0.4921009       105.8274
2016    6       0       0.3923644       89.71038
2016    6       1       0.4762707       102.6885
2016    6       2       0.4864856       105.2466
2016    6       3       0.4260971       96.42079
2016    6       4       0.2840355       70.85272
2016    6       5       0.2520482       64.18815
2016    6       6       0.2539277       64.31296
2016    6       7       0.2720767       67.76463
2016    7       0       0.2893917       71.0898
2016    7       1       0.3650098       84.96955
2016    7       2       0.3061811       74.35373
2016    7       3       0.2767718       69.05141
2016    7       4       0.2358486       60.72919
2016    7       5       0.2302109       59.35583
2016    7       6       0.2280784       58.81705
2016    7       7       0.2202691       57.13878
2016    8       0       0.2093064       54.80069
2016    8       1       0.2234909       57.60922
2016    8       2       0.2011294       53.01106
2016    8       3       0.2099236       54.96008
2016    8       4       0.223489        57.77789
2016    8       5       0.2272204       58.35632
2016    8       6       0.2090444       54.52543
2016    8       7       0.2471822       62.17095
2016    9       0       0.2555837       63.98205
2016    9       1       0.300484        72.81313
2016    9       2       0.3387293       80.57408
2016    9       3       0.3613609       85.33664
2016    9       4       0.2767306       69.52953
2016    9       5       0.2351915       61.00473
2016    9       6       0.2467127       63.18894
2016    9       7       0.3086761       75.16975
2016    10      0       0.3335423       79.67232
2016    10      1       0.2606221       65.41736
2016    10      2       0.226078        58.6655
2016    10      3       0.2584831       65.73733
2016    10      4       0.297377        73.69071
2016    10      5       0.3208109       78.25402
2016    10      6       0.3559834       84.76446
2016    10      7       0.3789197       88.6565
2016    11      0       0.380949        88.87875
2016    11      1       0.3961522       91.38147
2016    11      2       0.5286047       113.1447
2016    11      3       0.6310724       128.4475
2016    11      4       0.6977111       137.3752
2016    11      5       0.6105751       126.3289
2016    11      6       0.5545598       118.2015
2016    11      7       0.5576515       118.303
2016    12      0       0.5386623       115.4869
2016    12      1       0.5485155       116.4183
2016    12      2       0.5060442       110.0519
2016    12      3       0.508434        110.4394
2016    12      4       0.548312        116.4957
2016    12      5       0.5383962       114.9921
2016    12      6       0.5376953       114.9886
2016    12      7       0.6355317       128.5309
2016    13      0       0.496816        107.9572
2016    13      1       0.430211        96.99461
2016    13      2       0.4816544       105.5839
2016    13      3       0.5412226       114.8132
2016    13      4       0.5980576       123.7186
2016    13      5       0.5764445       121.0503
2016    13      6       0.6468438       130.9736
2016    13      7       0.6265326       128.2262
2016    14      0       0.5960158       123.8985
2016    14      1       0.6295625       128.7687
2016    14      2       0.6157485       126.8263
2016    14      3       0.6210011       128.1551
2016    14      4       0.7198101       141.2494
2016    14      5       0.7369025       143.4285
2016    14      6       0.7558453       146.0655
2016    14      7       0.7167071       141.2929
2016    15      0       0.6629535       134.0954
2016    15      1       0.7377422       143.8588
2016    15      2       0.6743223       135.7243
2016    15      3       0.7118787       141.1061
2016    15      4       0.701462        139.5958
2016    15      5       0.7178155       141.2327
2016    15      6       0.7154014       140.8956
2016    15      7       0.7862603       149.088
2016    16      0       0.8129856       152.0737
2016    16      1       0.7174406       139.8868
2016    16      2       0.6547755       131.6014
2016    16      3       0.7470306       143.1938
2016    16      4       0.774913        146.051
2016    16      5       0.5816779       120.9016
2016    16      6       0.4975735       107.8031
2016    16      7       0.5604143       117.1513
2016    17      0       0.5287591       111.9678
2016    17      1       0.5449097       114.9707
2016    17      2       0.5836826       120.6072
2016    17      3       0.5156231       110.8057
2016    17      4       0.5305171       112.718
2016    17      5       0.4997303       108.533
2016    17      6       0.4747248       104.677
2016    17      7       0.5709039       119.2317
2016    18      0       0.5898233       121.8159
2016    18      1       0.4439562       99.13677
2016    18      2       0.4311417       97.14526
2016    18      3       0.5011335       108.0802
2016    18      4       0.5744748       119.3019
2016    18      5       0.4904526       107.3738
2016    18      6       0.4097921       93.91055
2016    18      7       0.3331382       79.70804
2016    19      0       0.282734        69.78503
2016    19      1       0.2681898       66.91261
2016    19      2       0.2481467       63.07291
2016    19      3       0.2432568       62.18089
2016    19      4       0.2751898       68.78655
2016    19      5       0.2628137       66.46023
2016    19      6       0.2715264       67.94939
2016    19      7       0.2492768       63.19812
2016    20      0       0.2110618       55.22343
2016    20      1       0.1715449       46.7265
2016    20      2       0.1713404       46.88335
2016    20      3       0.1822926       49.34236
2016    20      4       0.1836541       49.60045
2016    20      5       0.1711767       46.72486
2016    20      6       0.1454745       40.88982
2016    20      7       0.1326315       37.89937
2016    21      0       0.1274575       36.64561
2016    21      1       0.1393948       39.44629
2016    21      2       0.1769871       47.83957
2016    21      3       0.2269862       58.70143
2016    21      4       0.3397082       80.3835
2016    21      5       0.3653118       85.23872
2016    21      6       0.3373734       80.16642
2016    21      7       0.3826163       88.69856
2016    22      0       0.5604208       117.5098
2016    22      1       0.4643343       102.0559
2016    22      2       0.3585915       83.76495
2016    22      3       0.3069746       74.57246
2016    22      4       0.4426574       98.36981
2016    22      5       0.4316895       96.93093
2016    22      6       0.537162        113.7271
2016    22      7       0.5084137       109.3997
2016    23      0       0.3587341       84.11408
2016    23      1       0.3437421       80.87718
2016    23      2       0.2974825       72.29505
2016    23      3       0.4110505       92.15828
2016    23      4       0.4868276       104.473
2016    23      5       0.3454143       80.19065
2016    23      6       0.2455677       60.75879
2016    23      7       0.21651         55.19338
2016    24      0       0.2287673       58.0659
2016    24      1       0.3026227       72.21193
2016    24      2       0.3772441       85.8689
2016    24      3       0.4183731       92.86929
2016    24      4       0.3949336       89.24885
2016    24      5       0.3285786       78.09
2016    24      6       0.293489        71.5964
2016    24      7       0.2904227       70.7987
2016    25      0       0.2954968       71.67352
2016    25      1       0.444001        97.51678
2016    25      2       0.5248179       110.045
2016    25      3       0.5887492       119.2223
2016    25      4       0.5321762       111.2852
2016    25      5       0.3550233       83.32394
2016    25      6       0.3520726       82.75576
2016    25      7       0.4135205       93.48227
2016    26      0       0.3798176       87.90426
2016    26      1       0.4394676       97.50736
2016    26      2       0.4586054       100.448
2016    26      3       0.5795839       118.4877
2016    26      4       0.593184        121.1607
2016    26      5       0.5285767       112.4897
2016    26      6       0.5150449       110.5062
2016    26      7       0.5133041       110.0396
2016    27      0       0.5478125       115.359
2016    27      1       0.5723068       118.4747
2016    27      2       0.6289252       126.0478
2016    27      3       0.6297752       126.0626
2016    27      4       0.5917828       121.1247
2016    27      5       0.511082        109.5621
2016    27      6       0.5015817       108.1041
2016    27      7       0.5069          108.9299
2016    28      0       0.4463293       99.25281
2016    28      1       0.4064061       92.53169
2016    28      2       0.4487575       99.66737
2016    28      3       0.4728057       103.2497
2016    28      4       0.5376589       113.0879
2016    28      5       0.4652466       102.4089
2016    28      6       0.4376588       98.04677
2016    28      7       0.5515947       115.6654
2016    29      0       0.5694205       118.3913
2016    29      1       0.5439561       114.4868
2016    29      2       0.4998541       107.8955
2016    29      3       0.5134414       110.4424
2016    29      4       0.6514021       130.0223
2016    29      5       0.6022964       123.6143
2016    29      6       0.4755447       104.3152
2016    29      7       0.4353372       97.39467
2016    30      0       0.4258921       95.6285
2016    30      1       0.6037201       122.1768
2016    30      2       0.6275073       125.6897
2016    30      3       0.6777565       132.7519
2016    30      4       0.6919969       135.1034
2016    30      5       0.5514815       115.9408
2016    30      6       0.4502177       100.1038
2016    30      7       0.4634649       102.2259
2016    31      0       0.4474916       99.44717
2016    31      1       0.4802318       104.482
2016    31      2       0.5758866       119.4086
2016    31      3       0.5675837       118.6218
2016    31      4       0.4590397       102.2507
2016    31      5       0.3607529       85.41644
2016    31      6       0.3545455       83.90298
2016    31      7       0.3312812       79.50279
2017    1       0       0.5058181       109.1839
2017    1       1       0.5068734       109.3527
2017    1       2       0.435419        98.11203
2017    1       3       0.4308764       97.56249
2017    1       4       0.4971258       107.3668
2017    1       5       0.5241372       112.0067
2017    1       6       0.5614956       117.2248
2017    1       7       0.5784351       119.8924
2017    2       0       0.4838495       105.7824
2017    2       1       0.4897454       106.3201
2017    2       2       0.4702328       103.2179
2017    2       3       0.4537668       100.7981
2017    2       4       0.416484        94.4751
2017    2       5       0.4078494       93.16477
2017    2       6       0.3976155       91.52046
2017    2       7       0.4453619       99.5975
2017    3       0       0.4265123       96.38262
2017    3       1       0.3740008       86.99955
2017    3       2       0.2622741       66.07813
2017    3       3       0.2362197       60.83646
2017    3       4       0.2358018       60.83344
2017    3       5       0.2316018       59.87314
2017    3       6       0.2209601       57.58216
2017    3       7       0.2268149       58.69057
2017    4       0       0.2306698       59.4186
2017    4       1       0.2448257       62.25438
2017    4       2       0.227265        58.85588
2017    4       3       0.2822972       70.15291
2017    4       4       0.32321         78.33849
2017    4       5       0.3011503       74.11618
2017    4       6       0.2934117       72.42062
2017    4       7       0.3166218       76.67579
2017    5       0       0.2881984       71.07763
2017    5       1       0.2316909       59.68555
2017    5       2       0.1893079       50.83212
2017    5       3       0.1837133       49.65259
2017    5       4       0.2810755       69.90303
2017    5       5       0.3032884       74.33327
2017    5       6       0.392407        90.91354
2017    5       7       0.4244491       96.44097
2017    6       0       0.3509972       82.96894
2017    6       1       0.298702        72.98123
2017    6       2       0.2709451       67.55895
2017    6       3       0.3223995       77.66422
2017    6       4       0.3167748       76.41618
2017    6       5       0.3371486       79.70108
2017    6       6       0.4005968       90.71304
2017    6       7       0.4247758       94.99528
2017    7       0       0.4421015       97.93639
2017    7       1       0.5063114       108.4571
2017    7       2       0.5221039       111.3978
2017    7       3       0.5449664       114.8828
2017    7       4       0.5235345       111.2457
2017    7       5       0.4227328       95.87935
2017    7       6       0.4011008       92.29595
2017    7       7       0.426201        96.4424
2017    8       0       0.4396414       98.47286
2017    8       1       0.4895697       106.0242
2017    8       2       0.5196205       110.0767
2017    8       3       0.4879091       105.8499
2017    8       4       0.5027172       107.9448
2017    8       5       0.5113586       109.8717
2017    8       6       0.5961356       122.3426
2017    8       7       0.5202054       111.3256
2017    9       0       0.4300405       97.02811
2017    9       1       0.4273081       96.29433
2017    9       2       0.4656289       101.7231
2017    9       3       0.4792583       103.8963
2017    9       4       0.4886148       105.6576
2017    9       5       0.4458768       99.09193
2017    9       6       0.4650925       102.4153
2017    9       7       0.4672639       102.95
2017    10      0       0.427871        96.23895
2017    10      1       0.4458352       99.1283
2017    10      2       0.4398837       98.06041
2017    10      3       0.4647434       101.8112
2017    10      4       0.527565        111.9948
2017    10      5       0.5710425       118.9768
2017    10      6       0.6255832       126.7983
2017    10      7       0.6328689       128.0234
2017    11      0       0.5013436       108.4614
2017    11      1       0.430163        97.0279
2017    11      2       0.431708        97.12526
2017    11      3       0.4641684       101.9826
2017    11      4       0.3617223       84.89646
2017    11      5       0.3358169       80.30684
2017    11      6       0.4240627       95.63653
2017    11      7       0.5746686       118.8368
2017    12      0       0.4843396       104.6941
2017    12      1       0.4258885       95.25383
2017    12      2       0.4743345       103.2797
2017    12      3       0.5569119       116.3293
2017    12      4       0.6208147       125.6546
2017    12      5       0.5809512       119.8924
2017    12      6       0.5890775       121.0709
2017    12      7       0.564782        117.2462
2017    13      0       0.4626967       101.6589
2017    13      1       0.4055278       92.40805
2017    13      2       0.5108452       109.5675
2017    13      3       0.5163611       110.4261
2017    13      4       0.5797307       119.9294
2017    13      5       0.5589834       117.2622
2017    13      6       0.4884456       106.668
2017    13      7       0.52264         112.0028
2017    14      0       0.5167867       110.7329
2017    14      1       0.5704145       118.5246
2017    14      2       0.5493616       115.3651
2017    14      3       0.5577332       117.0691
2017    14      4       0.5762798       120.1055
2017    14      5       0.4583854       101.8294
2017    14      6       0.3759613       87.69244
2017    14      7       0.350766        83.08702
2017    15      0       0.3447581       81.93666
2017    15      1       0.3553829       83.75314
2017    15      2       0.3792089       88.25771
2017    15      3       0.4762479       104.8103
2017    15      4       0.5405385       115.1635
2017    15      5       0.4543946       102.0745
2017    15      6       0.4437265       100.0447
2017    15      7       0.4378629       99.0046
2017    16      0       0.4524504       101.1023
2017    16      1       0.4952487       107.9238
2017    16      2       0.5037248       109.3166
2017    16      3       0.5131968       110.6365
2017    16      4       0.6046542       123.8338
2017    16      5       0.592598        122.6971
2017    16      6       0.5596496       117.4975
2017    16      7       0.4778127       105.1001
2017    17      0       0.4349215       97.9848
2017    17      1       0.4565951       101.4887
2017    17      2       0.4894383       107.2119
2017    17      3       0.5983253       123.486
2017    17      4       0.7003622       137.648
2017    17      5       0.6502653       131.1666
2017    17      6       0.5793838       121.506
2017    17      7       0.6412138       129.7727
2017    18      0       0.6491553       130.4337
2017    18      1       0.6589374       131.2983
2017    18      2       0.6350158       127.675
2017    18      3       0.6206542       125.8656
2017    18      4       0.6696446       133.2622
2017    18      5       0.6573146       131.6559
2017    18      6       0.5993237       123.6703
2017    18      7       0.6174312       126.2496
2017    19      0       0.4991872       108.4076
2017    19      1       0.5911683       121.9862
2017    19      2       0.5341315       113.5329
2017    19      3       0.5399185       114.7692
2017    19      4       0.6570477       131.7564
2017    19      5       0.5844898       121.3967
2017    19      6       0.5542898       116.8509
2017    19      7       0.4803452       104.9925
2017    20      0       0.4687957       103.3746
2017    20      1       0.4529871       100.7988
2017    20      2       0.4670099       103.1292
2017    20      3       0.5051058       109.1345
2017    20      4       0.548629        115.7317
2017    20      5       0.5060894       109.7072
2017    20      6       0.499992        108.8985
2017    20      7       0.5887828       121.7981
2017    21      0       0.682843        134.8188
2017    21      1       0.721358        139.2891
2017    21      2       0.6330755       127.8037
2017    21      3       0.5823978       121.6092
2017    21      4       0.6856817       136.2883
2017    21      5       0.721544        140.7412
2017    21      6       0.6160034       126.1045
2017    21      7       0.682028        135.7528
2017    22      0       0.7141503       140.3272
2017    22      1       0.5820107       121.3536
2017    22      2       0.5932846       122.7672
2017    22      3       0.5679022       119.7346
2017    22      4       0.695948        137.145
2017    22      5       0.6897329       136.9468
2017    22      6       0.7461135       143.5054
2017    22      7       0.632207        128.53
2017    23      0       0.6376873       129.5409
2017    23      1       0.6095564       125.1323
2017    23      2       0.6240946       126.9165
2017    23      3       0.6341789       129.0084
2017    23      4       0.7515184       144.37
2017    23      5       0.638366        129.3351
2017    23      6       0.5844568       121.5198
2017    23      7       0.5216664       111.7872
2017    24      0       0.4633142       102.5097
2017    24      1       0.465927        102.8338
2017    24      2       0.5983153       122.225
2017    24      3       0.606364        124.2007
2017    24      4       0.6620677       132.2236
2017    24      5       0.604953        124.3901
2017    24      6       0.6304882       127.3391
2017    24      7       0.5375404       114.0647
2017    25      0       0.4747264       104.3194
2017    25      1       0.5091332       109.2202
2017    25      2       0.5792464       119.5131
2017    25      3       0.6073046       123.4651
2017    25      4       0.6907124       134.8482
2017    25      5       0.5850429       121.1398
2017    25      6       0.5361942       113.8686
2017    25      7       0.451367        100.3366
2017    26      0       0.4066507       93.01569
2017    26      1       0.423994        96.05511
2017    26      2       0.5780119       119.8169
2017    26      3       0.6947204       135.6767
2017    26      4       0.6945631       136.123
2017    26      5       0.5273795       113.07
2017    26      6       0.5006595       108.9164
2017    26      7       0.5475142       116.0501
2017    27      0       0.5244715       112.4342
2017    27      1       0.5570419       117.1702
2017    27      2       0.5421198       115.2835
2017    27      3       0.6077029       124.5671
2017    27      4       0.7008469       137.3277
2017    27      5       0.5747216       120.2001
2017    27      6       0.5284953       113.3594
2017    27      7       0.5377246       114.7743
2017    28      0       0.4807363       105.8686
2017    28      1       0.44441         99.89457
2017    28      2       0.5420795       115.3931
2017    28      3       0.5709973       120.0907
2017    28      4       0.568748        120.1216
2017    28      5       0.572586        120.7234
2017    28      6       0.6428331       130.336
2017    28      7       0.68096         135.6721
2017    29      0       0.5970775       123.9114
2017    29      1       0.5851995       121.6167
2017    29      2       0.48663         106.6874
2017    29      3       0.4924738       107.7863
2017    29      4       0.5086378       110.4919
2017    29      5       0.5242112       112.8723
2017    29      6       0.5189908       112.0877
2017    29      7       0.4854688       106.6576
2017    30      0       0.4227196       96.36961
2017    30      1       0.4369181       98.72016
2017    30      2       0.5234852       112.7022
2017    30      3       0.5513846       117.3052
2017    30      4       0.5485277       117.2137
2017    30      5       0.4809269       106.5773
2017    30      6       0.6876134       135.2073
2017    30      7       0.6542164       130.8144
2017    31      0       0.5258973       111.7384
2017    31      1       0.4552007       100.4942
2017    31      2       0.4519499       100.6104
2017    31      3       0.5209396       111.6628
2017    31      4       0.4904242       106.8713
2017    31      5       0.3302218       79.73556
2017    31      6       0.3639715       85.44886
2017    31      7       0.3739446       86.8594
2018    1       0       0.4414946       99.80896
2018    1       1       0.4041412       93.23472
2018    1       2       0.413344        94.77246
2018    1       3       0.4813144       106.0122
2018    1       4       0.4366862       98.94141
2018    1       5       0.3350849       80.96189
2018    1       6       0.2934064       72.71665
2018    1       7       0.2915568       72.18339
2018    2       0       0.2882193       71.34608
2018    2       1       0.3559877       83.83154
2018    2       2       0.5531976       116.4778
2018    2       3       0.5917852       123.0099
2018    2       4       0.4343374       97.69734
2018    2       5       0.457091        101.6242
2018    2       6       0.6422196       128.9408
2018    2       7       0.5324221       112.806
2018    3       0       0.507517        108.9398
2018    3       1       0.3515065       82.66908
2018    3       2       0.4975911       106.1806
2018    3       3       0.5367001       112.6186
2018    3       4       0.5349518       112.7881
2018    3       5       0.3965047       90.80208
2018    3       6       0.3266237       78.17123
2018    3       7       0.2804628       68.90116
2018    4       0       0.2485448       62.06203
2018    4       1       0.3053214       72.67342
2018    4       2       0.4688136       101.4015
2018    4       3       0.4792909       103.6379
2018    4       4       0.3938539       89.39374
2018    4       5       0.3008381       72.4359
2018    4       6       0.2279137       58.00346
2018    4       7       0.1901417       50.05786
2018    5       0       0.15589         42.6414
2018    5       1       0.1233721       35.31905
2018    5       2       0.1416641       39.33491
2018    5       3       0.1874094       49.42609
2018    5       4       0.2401529       60.55328
2018    5       5       0.2747688       67.57037
2018    5       6       0.2806737       68.60925
2018    5       7       0.2746156       67.43864
2018    6       0       0.248943        62.50299
2018    6       1       0.2237576       57.50438
2018    6       2       0.2182714       56.66094
2018    6       3       0.2194955       57.08311
2018    6       4       0.2302761       59.51238
2018    6       5       0.2223074       57.91097
2018    6       6       0.1995595       52.99121
2018    6       7       0.1902916       50.85155
2018    7       0       0.1604863       44.1858
2018    7       1       0.1454375       40.65736
2018    7       2       0.1524122       42.18284
2018    7       3       0.1769015       47.66247
2018    7       4       0.2003005       52.84247
2018    7       5       0.2124407       55.49041
2018    7       6       0.2119453       55.31988
2018    7       7       0.2117538       55.25442
2018    8       0       0.205368        53.84775
2018    8       1       0.2220971       57.42481
2018    8       2       0.2082713       54.67847
2018    8       3       0.2178384       56.93526
2018    8       4       0.232345        60.16641
2018    8       5       0.2384515       61.51278
2018    8       6       0.241672        62.15206
2018    8       7       0.2465527       63.02694
2018    9       0       0.2559498       64.82862
2018    9       1       0.2699343       67.5155
2018    9       2       0.2618793       65.97741
2018    9       3       0.2516994       63.95709
2018    9       4       0.2451131       62.57705
2018    9       5       0.2721649       68.1442
2018    9       6       0.2892836       71.58437
2018    9       7       0.3115491       75.73524
2018    10      0       0.3366538       80.28631
2018    10      1       0.389983        89.6349
2018    10      2       0.3568096       83.70378
2018    10      3       0.3747324       86.75955
2018    10      4       0.4169645       93.99136
2018    10      5       0.4277144       96.05582
2018    10      6       0.4782009       104.298
2018    10      7       0.5418159       113.7955
2018    11      0       0.6111279       124.0003
2018    11      1       0.5971016       121.3724
2018    11      2       0.4941963       105.7151
2018    11      3       0.5207901       109.9568
2018    11      4       0.6094537       123.0317
2018    11      5       0.57344         118.8138
2018    11      6       0.5127753       110.3053
2018    11      7       0.6310413       127.7001
2018    12      0       0.6397158       128.7494
2018    12      1       0.6254944       125.7183
2018    12      2       0.5780763       118.8514
2018    12      3       0.508918        109.1623
2018    12      4       0.546881        114.5372
2018    12      5       0.4397758       97.98492
2018    12      6       0.3856166       88.94475
2018    12      7       0.4775204       103.9076
2018    13      0       0.6272655       126.5247
2018    13      1       0.6442416       128.2183
2018    13      2       0.5331728       112.563
2018    13      3       0.5182366       110.4919
2018    13      4       0.6766885       133.0504
2018    13      5       0.5587361       117.0866
2018    13      6       0.4844419       105.7094
2018    13      7       0.4020686       92.15782
2018    14      0       0.4573336       100.7967
2018    14      1       0.5415087       113.9154
2018    14      2       0.4995159       107.7876
2018    14      3       0.495059        107.3571
2018    14      4       0.4555009       101.4149
2018    14      5       0.3850266       89.76545
2018    14      6       0.2987437       73.63466
2018    14      7       0.2825647       69.83717
2018    15      0       0.2733839       67.56509
2018    15      1       0.2980611       72.24077
2018    15      2       0.3250959       77.6846
2018    15      3       0.31546         76.0508
2018    15      4       0.2774271       68.7824
2018    15      5       0.3192976       77.07202
2018    15      6       0.3738119       87.07137
2018    15      7       0.3998744       91.28161
2018    16      0       0.44033         97.83945
2018    16      1       0.4586397       100.9733
2018    16      2       0.5987352       121.7423
2018    16      3       0.5624756       116.9362
2018    16      4       0.5551618       115.9638
2018    16      5       0.3904246       90.18929
2018    16      6       0.4229322       95.58339
2018    16      7       0.4581493       101.3245
2018    17      0       0.5754561       119.1926
2018    17      1       0.6535654       129.9449
2018    17      2       0.63581         127.4174
2018    17      3       0.6323286       127.4701
2018    17      4       0.6832579       134.2051
2018    17      5       0.5601977       117.6695
2018    17      6       0.6682262       132.6513
2018    17      7       0.6972287       136.0574
2018    18      0       0.564539        117.9871
2018    18      1       0.5145659       110.4655
2018    18      2       0.5165166       110.6574
2018    18      3       0.5579591       116.7672
2018    18      4       0.6326814       127.9505
2018    18      5       0.5852995       121.0732
2018    18      6       0.640566        128.678
2018    18      7       0.5683302       117.8674
2018    19      0       0.4553564       100.3238
2018    19      1       0.4738607       103.2235
2018    19      2       0.5893319       120.1105
2018    19      3       0.5785849       119.3435
2018    19      4       0.5557351       116.998
2018    19      5       0.6614091       132.1144
2018    19      6       0.6742311       133.6879
2018    19      7       0.6700283       132.8206
2018    20      0       0.6814999       134.3763
2018    20      1       0.5631425       117.9283
2018    20      2       0.577723        119.3498
2018    20      3       0.678928        133.1401
2018    20      4       0.6901853       136.0156
2018    20      5       0.702638        137.7314
2018    20      6       0.7120229       139.0602
2018    20      7       0.702095        137.1798
2018    21      0       0.7136381       138.4723
2018    21      1       0.5414211       114.6752
2018    21      2       0.5512817       116.2793
2018    21      3       0.5807689       120.4597
2018    21      4       0.6480055       130.5076
2018    21      5       0.6924433       136.3564
2018    21      6       0.7016094       137.4181
2018    21      7       0.6583664       132.2381
2018    22      0       0.7165272       138.9785
2018    22      1       0.6796472       133.4575
2018    22      2       0.5994862       122.8236
2018    22      3       0.6713787       132.5613
2018    22      4       0.6902277       135.3871
2018    22      5       0.6072422       124.7336
2018    22      6       0.5717088       119.8056
2018    22      7       0.5546354       117.0657
2018    23      0       0.4921865       107.4136
2018    23      1       0.5471077       115.5191
2018    23      2       0.6642157       131.5878
2018    23      3       0.6758538       133.5403
2018    23      4       0.6569013       131.3903
2018    23      5       0.6258279       127.2284
2018    23      6       0.6258044       126.9945
2018    23      7       0.6275218       127.0514
2018    24      0       0.5705589       119.4508
2018    24      1       0.5969268       123.4663
2018    24      2       0.6090826       125.3374
2018    24      3       0.6597382       132.9233
2018    24      4       0.7658892       146.8679
2018    24      5       0.702501        138.5773
2018    24      6       0.778542        148.2215
2018    24      7       0.7767238       147.6937
2018    25      0       0.5806963       120.4761
2018    25      1       0.5290772       112.3238
2018    25      2       0.538907        114.3817
2018    25      3       0.5798363       121.1206
2018    25      4       0.678851        135.0856
2018    25      5       0.7037849       138.1017
2018    25      6       0.8096395       151.5638
2018    25      7       0.871854        159.1551
2018    26      0       0.7785796       148.0124
2018    26      1       0.6768042       134.263
2018    26      2       0.6812717       134.83
2018    26      3       0.6790131       135.3519
2018    26      4       0.7372428       142.5181
2018    26      5       0.7742069       147.832
2018    26      6       0.8855384       161.5717
2018    26      7       0.3983772       92.37491
2018    27      0       0.4931595       108.0678
2018    27      1       0.5183117       111.682
2018    27      2       0.5298114       113.3385
2018    27      3       0.5533432       116.9201
2018    27      4       0.5648651       118.6607
2018    27      5       0.5967766       123.4104
2018    27      6       0.5900937       122.1188
2018    27      7       0.6290567       127.7863
2018    28      0       0.5532601       116.8172
2018    28      1       0.53929         114.5383
2018    28      2       0.4904904       107.2579
2018    28      3       0.5315626       113.7012
2018    28      4       0.5306096       113.3932
2018    28      5       0.5016956       108.8951
2018    28      6       0.5611532       117.9581
2018    28      7       0.6858958       135.8339
2018    29      0       0.50985         110.3988
2018    29      1       0.3863649       89.2265
2018    29      2       0.3626238       85.4189
2018    29      3       0.3740164       87.77786
2018    29      4       0.3659649       86.30317
2018    29      5       0.3486844       83.03801
2018    29      6       0.3367253       80.69021
2018    29      7       0.3387866       80.94863
2018    30      0       0.2961396       72.64228
2018    30      1       0.2318864       59.75098
2018    30      2       0.2144248       56.29703
2018    30      3       0.2341694       60.62367
2018    30      4       0.2345015       60.7654
2018    30      5       0.2259006       59.03743
2018    30      6       0.2508318       64.15334
2018    30      7       0.2785088       69.42664
2018    31      0       0.3021588       73.75562
2018    31      1       0.3490928       82.43941
2018    31      2       0.4992957       108.2415
2018    31      3       0.5306181       113.5988
2018    31      4       0.4763385       105.2357
2018    31      5       0.3829963       89.41777
2018    31      6       0.368175        86.4138
2018    31      7       0.439583        98.83486
