####################################################################################################
# Month: 01Jan                                                                                     #
# Station: BAR                                                                                     #
# Frequency: 345 GHz                                                                               #
# Columns are: year    day     tau     Tb (K)                                                      #
####################################################################################################
2009    1       0.44696542      95.6434675
2009    2       0.44899683      95.92611625
2009    3       0.12984664      34.676675
2009    4       0.1121906       32.25009
2009    5       0.55275391      104.06224625
2009    6       0.48337428      102.200085
2009    7       0.40580618      89.55821625
2009    8       0.38601784      88.06744625
2009    9       0.10870617      31.60238
2009    10      0.22756049      56.54536375
2009    11      0.38742302      87.52737375
2009    12      0.26431291      65.82647125
2009    13      0.14369502      39.932885
2009    14      0.14411387      40.06480875
2009    15      0.16894102      45.38332375
2009    16      0.15387442      42.4732175
2009    17      0.12197754      35.4537875
2009    18      0.11559015      33.295485
2009    19      0.13256816      36.24463375
2009    20      0.52477858      108.2181725
2009    21      0.73050121      136.7896
2009    22      0.83239134      148.2837375
2009    23      0.55895144      114.53202625
2009    24      0.4917917       101.42248625
2009    25      0.23131096      57.43288625
2009    26      0.24380802      58.54543
2009    27      0.14267862      38.49733625
2009    28      0.22458669      56.56203875
2009    29      0.13329187      37.48328625
2009    30      0.16630659      44.95761375
2009    31      0.15450936      42.3095275
2010    1       0.74730661      137.7849
2010    2       0.2221518       52.6375475
2010    3       0.45199825      97.40982
2010    4       0.39376846      86.8170825
2010    5       0.4063844       91.18129375
2010    6       0.56279532      113.841155
2010    7       0.64836085      125.94953375
2010    8       0.50678504      104.24881125
2010    9       0.51446361      107.661225
2010    10      0.45551871      92.23997875
2010    11      0.30449339      68.6255125
2010    12      0.58778736      116.38663
2010    13      0.39854915      85.9373825
2010    14      0.14258317      38.83790875
2010    15      0.47276738      100.36910375
2010    16      0.41384922      90.39072625
2010    17      0.51160002      104.65843875
2010    18      0.59270029      116.95387875
2010    19      0.3375382       74.188315
2010    20      0.38693149      84.1542025
2010    21      0.37183602      80.3715625
2010    22      0.34797476      75.40997875
2010    23      0.19613348      49.70620875
2010    24      0.3886243       84.52780875
2010    25      0.62957498      121.562685
2010    26      0.45289455      94.30783375
2010    27      0.42581624      88.4677425
2010    28      0.20619749      52.54437
2010    29      0.64847856      124.52428125
2010    30      0.2960344       69.23705125
2010    31      0.21562801      53.6450325
2011    1       0.24683609      59.62865
2011    2       0.51800021      105.84796875
2011    3       0.41279965      88.23269125
2011    4       0.14727491      39.7521375
2011    5       0.12795158      36.29572125
2011    6       0.20805132      53.45918
2011    7       0.37477581      83.58752625
2011    8       0.46478744      99.45947125
2011    9       0.20844001      52.40022375
2011    10      0.2295701       56.663715
2011    11      0.6866801       129.18288875
2011    12      0.37234788      82.04291125
2011    13      0.55612072      112.08023
2011    14      0.35030966      76.26621625
2011    15      0.53154221      110.39583625
2011    16      0.68453161      134.1073375
2011    17      0.65984724      130.25076
2011    18      0.68642485      131.7417
2011    19      0.34931058      79.5606075
2011    20      0.23559309      59.92968125
2011    21      0.42035668      93.2460575
2011    22      0.44288518      95.12383375
2011    23      0.10124601      30.06680625
2011    24      0.35801236      80.1500525
2011    25      0.3056692       68.35057125
2011    26      0.1932722       50.3428625
2011    27      0.1790489       46.76069875
2011    28      0.26926624      66.3238475
2011    29      0.19459371      50.48158
2011    30      0.27586756      65.23145375
2011    31      0.2106206       51.9139025
2012    1       0.44305605      97.3730075
2012    2       0.21899275      55.88180875
2012    3       0.37249046      82.94727375
2012    4       0.54285162      113.37275375
2012    5       0.43014769      95.6888725
2012    6       0.27301585      65.44821
2012    7       0.25720376      61.7535875
2012    8       0.25095934      60.74241375
2012    9       0.36278921      84.1697
2012    10      0.34299231      80.169365
2012    11      0.21026145      53.3118075
2012    12      0.208724        53.531115
2012    13      0.2104367       53.431165
2012    14      0.25206305      62.32110625
2012    15      0.34131802      77.34068125
2012    16      0.1547878       41.45450375
2012    17      0.2050116       52.12027
2012    18      0.59942095      116.9440775
2012    19      0.36555355      82.827645
2012    20      0.71532821      134.18121625
2012    21      0.61152302      116.56366375
2012    22      0.34267155      75.44558125
2012    23      0.46993816      97.89387
2012    24      0.40355735      87.76967375
2012    25      0.41565865      91.90420875
2012    26      0.36150458      82.53594375
2012    27      0.15934707      41.59769875
2012    28      0.13263789      36.963675
2012    29      0.27022092      65.51959625
2012    30      0.42603129      90.612995
2012    31      0.368494        79.771045
2013    1       0.25045254      60.43404125
2013    2       0.11363976      33.11546125
2013    3       0.14043255      39.39725875
2013    4       0.15596368      41.79177375
2013    5       0.43195986      94.854255
2013    6       0.43418468      92.73615375
2013    7       0.29857965      69.1131675
2013    8       0.43391551      94.25825
2013    9       0.35664212      81.04206125
2013    10      0.24541553      57.1096425
2013    11      0.13032596      35.884285
2013    12      0.10309293      29.89985375
2013    13      0.11806361      33.0891575
2013    14      0.20313633      50.3684225
2013    15      0.35431518      80.67825125
2013    16      0.07379599      24.31577375
2013    17      0.07701711      25.15530125
2013    18      0.06868326      23.00353375
2013    19      0.07062794      23.214395
2013    20      0.06502515      21.83112125
2013    21      0.1287541       37.04412
2013    22      0.10083332      30.84635875
2013    23      0.34039803      70.46896
2013    24      1.03863526      169.16585
2013    25      0.76014301      140.2311625
2013    26      0.5495468       108.58911
2013    27      0.15049195      41.00747875
2013    28      0.20037056      50.14296375
2013    29      0.42969302      93.13058625
2013    30      0.38994495      87.75778875
2013    31      0.28125623      66.91872
2014    1       0.28049394      66.2418975
2014    2       0.41756026      91.47809375
2014    3       0.48495595      103.87734125
2014    4       0.25180471      62.0056575
2014    5       0.22478944      57.88242125
2014    6       0.21978901      56.67099875
2014    7       0.43936712      91.42400625
2014    8       0.21972158      54.88747625
2014    9       0.46210952      96.2669725
2014    10      0.44310238      96.76536625
2014    11      0.35213012      81.010565
2014    12      0.2545071       60.89855
2014    13      0.15314865      42.13155375
2014    14      0.22040946      56.25704
2014    15      0.24739466      62.07783125
2014    16      0.15033714      41.2346325
2014    17      0.22082729      57.2035525
2014    18      0.13999828      39.88749375
2014    19      0.09929833      30.32048375
2014    20      0.10198493      30.41506625
2014    21      0.27828529      67.20927375
2014    22      0.26508508      64.5398625
2014    23      0.4862048       101.5477425
2014    24      0.51430175      107.1282625
2014    25      0.68556079      130.598275
2014    26      0.56732171      115.2772
2014    27      0.2962913       68.81698875
2014    28      0.86004514      151.7801875
2014    29      0.65251716      124.8048475
2014    30      0.57680284      115.024025
2014    31      0.27235334      64.74250125
2015    1       0.14357778      39.68550375
2015    2       0.2107784       54.4225875
2015    3       0.35713432      81.07332875
2015    4       0.55960482      113.19587125
2015    5       0.65261541      129.1567
2015    6       0.65529216      129.7592925
2015    7       0.19430931      51.14224875
2015    8       0.15862881      43.78014375
2015    9       0.50674522      100.781585
2015    10      0.70708194      131.5392375
2015    11      0.71577752      133.8932
2015    12      0.54212832      110.5857225
2015    13      0.2016996       50.32543
2015    14      0.14841322      40.79834
2015    15      0.18293228      48.26869375
2015    16      0.59534435      116.59239
2015    17      0.61217001      121.9381875
2015    18      0.50543453      105.39879875
2015    19      0.45172896      97.07026875
2015    20      0.35978108      80.13932
2015    21      0.2442556       57.7944775
2015    22      0.20796225      52.23536625
2015    23      0.41264361      87.93176
2015    24      0.20290311      52.88831
2015    25      0.24793792      62.932085
2015    26      0.25782851      64.51447125
2015    27      0.80748054      144.382925
2015    28      0.48339481      102.38832875
2015    29      0.57805018      114.5965825
2015    30      0.63239552      123.1232125
2015    31      0.42781774      90.41809375
2016    1       0.0783771       25.15008625
2016    5       0.43629245      93.09612625
2016    6       0.37404756      81.24193125
2016    7       0.32060576      73.0217475
2016    8       0.14560695      39.42073125
2016    9       0.25418262      60.0656575
2016    10      0.3646959       81.5806275
2016    11      0.08981603      27.5348775
2016    12      0.15480785      42.16233375
2016    13      0.15878684      41.62259
2016    14      0.27120105      63.49875625
2016    15      0.37274946      80.14427
2016    16      0.54249159      105.02460875
2016    17      0.23509948      57.18134875
2016    18      0.58827875      116.71192625
2016    19      0.55228311      108.0638025
2016    20      0.2880388       67.34465125
2016    21      0.3895816       86.18752625
2016    22      0.52395856      108.20603
2016    23      0.45737768      95.39854125
2016    24      0.19029038      48.20993
2016    25      0.23014464      56.6842275
2016    26      0.15378744      42.46841125
2016    27      0.30201115      70.00361375
2016    28      0.40370436      89.146815
2016    29      0.64870232      126.2951625
2016    30      0.42872408      93.141695
2016    31      0.56599362      113.24607625
2017    1       0.20671805      52.18964375
2017    2       0.2001908       49.78519875
2017    3       0.3693756       79.78105625
2017    4       0.60606389      120.52567
2017    5       0.47094489      99.3739475
2017    6       0.13819375      37.06442625
2017    7       0.73260384      136.1102125
2017    8       0.81952061      147.3652875
2017    9       0.56891026      112.49590125
2017    10      0.67257699      128.2627225
2017    11      0.39773104      85.0465675
2017    12      0.44763068      93.55323125
2017    13      0.34414264      76.87270625
2017    14      0.2359825       58.43577375
2017    15      0.18357276      48.52053
2017    16      0.19126089      48.67144375
2017    17      0.24462221      61.75654
2017    18      0.59443391      110.08935
2017    19      0.54010035      103.2549325
2017    20      0.49580098      100.9212625
2017    21      0.25340531      61.3838725
2017    22      0.71007694      131.40507375
2017    23      0.3747646       82.10841
2017    24      0.18102295      46.47338875
2017    25      0.19193129      48.36918875
2017    26      0.30107331      69.86994
2017    27      0.11879239      34.049295
2017    28      0.09428034      28.613535
2017    29      0.16022361      43.66997375
2017    30      0.12777465      36.56454875
2017    31      0.18175245      47.1543325
2018    1       0.57512952      116.3608125
2018    2       0.4430723       96.7530425
2018    3       0.74852246      139.94385
2018    4       0.75983308      139.5233
2018    5       0.4192247       91.9037725
2018    6       0.88716335      151.8224325
2018    7       0.17705644      47.43289
2018    8       0.8647874       143.83455875
2018    9       0.81858684      146.0129625
2018    10      0.54821918      111.722165
2018    11      0.46116759      98.01786125
2018    12      0.29805505      68.52236875
2018    13      0.4044832       91.473065
2018    14      0.33243552      77.2575875
2018    15      0.57798361      115.96967
2018    16      0.62715897      122.21617875
2018    17      0.5751035       116.24632625
2018    18      0.76341386      139.5754125
2018    19      0.49691819      104.046305
2018    20      0.23262018      56.48268125
2018    21      0.20969794      50.839135
2018    22      0.45811422      96.3880425
2018    23      0.23601954      57.93663875
2018    24      0.19768195      50.77505125
2018    25      0.21978247      54.4806925
2018    26      0.21111425      52.1148775
2018    27      0.55244835      112.89285
2018    28      0.37337271      84.8153925
2018    29      0.31401391      74.096265
2018    30      0.51178536      106.5940825
2018    31      0.26912359      65.40639
2019    1       0.1060985       31.120125
