####################################################################################################
# Month: 04Apr                                                                                     #
# Station: ROB                                                                                     #
# Frequency: 230 GHz                                                                               #
# Columns are: year    day     segment         tau     Tb (K)                                      #
####################################################################################################
2009    1       0       0.3298895       80.79766
2009    1       1       0.288751        72.74615
2009    1       2       0.3220279       79.40789
2009    1       3       0.352872        85.41784
2009    1       4       0.3690448       88.25198
2009    1       5       0.3837733       90.71139
2009    1       6       0.4330835       99.27066
2009    1       7       0.4694727       105.2516
2009    2       0       0.4753048       106.2002
2009    2       1       0.465558        104.5059
2009    2       2       0.4485012       101.5199
2009    2       3       0.4098419       94.80684
2009    2       4       0.3866202       90.79319
2009    2       5       0.3550429       85.01802
2009    2       6       0.3542522       84.94618
2009    2       7       0.3378778       81.82387
2009    3       0       0.2914563       72.77592
2009    3       1       0.2595774       66.43918
2009    3       2       0.2697367       68.41133
2009    3       3       0.2670142       67.51
2009    3       4       0.2751023       68.78519
2009    3       5       0.3192842       77.31646
2009    3       6       0.3955338       91.37648
2009    3       7       0.4302547       97.1486
2009    4       0       0.4069708       92.43995
2009    4       1       0.3314636       78.14194
2009    4       2       0.3360183       79.26714
2009    4       3       0.3265697       77.40655
2009    4       4       0.2903111       71.22267
2009    4       5       0.3511873       82.76944
2009    4       6       0.385032        89.39233
2009    4       7       0.3611157       85.38815
2009    5       0       0.2939653       72.70497
2009    5       1       0.2651671       66.86525
2009    5       2       0.2652922       66.99111
2009    5       3       0.2791393       69.87233
2009    5       4       0.2993375       74.1751
2009    5       5       0.3131096       77.14571
2009    5       6       0.3260183       79.75284
2009    5       7       0.3413722       82.80265
2009    6       0       0.3267805       80.16945
2009    6       1       0.2967461       74.43456
2009    6       2       0.2852221       72.18071
2009    6       3       0.2768829       70.39662
2009    6       4       0.2636271       67.67628
2009    6       5       0.2656742       68.09239
2009    6       6       0.2792194       70.63877
2009    6       7       0.3303302       80.74438
2009    7       0       0.3240983       79.84981
2009    7       1       0.2679697       68.86837
2009    7       2       0.2202496       58.67082
2009    7       3       0.2096747       56.62639
2009    7       4       0.2089276       56.39857
2009    7       5       0.1971562       53.8092
2009    7       6       0.1957686       53.65701
2009    7       7       0.1878341       51.90738
2009    8       0       0.1635          46.25579
2009    8       1       0.1495946       42.94225
2009    8       2       0.1459869       41.99966
2009    8       3       0.1483757       42.52187
2009    8       4       0.1351757       39.3613
2009    8       5       0.1365568       39.79428
2009    8       6       0.1441917       41.58314
2009    8       7       0.1676908       46.89291
2009    9       0       0.1792652       49.50388
2009    9       1       0.1955114       53.34594
2009    9       2       0.2298343       61.08383
2009    9       3       0.2626185       68.05928
2009    9       4       0.2671232       69.26002
2009    9       5       0.2963667       75.36229
2009    9       6       0.2975252       75.58452
2009    9       7       0.2899367       74.12775
2009    10      0       0.3403882       84.09341
2009    10      1       0.3473465       85.56794
2009    10      2       0.3332959       82.82476
2009    10      3       0.309931        77.97867
2009    10      4       0.2953008       74.94824
2009    10      5       0.3025589       76.53178
2009    10      6       0.3125175       78.58339
2009    10      7       0.2792243       71.86931
2009    11      0       0.2491108       65.6118
2009    11      1       0.204476        55.83688
2009    11      2       0.2025237       55.14616
2009    11      3       0.2231279       59.28875
2009    11      4       0.2431178       63.47594
2009    11      5       0.2715858       69.64488
2009    11      6       0.3130775       78.06867
2009    11      7       0.3007148       75.51199
2009    12      0       0.220273        58.69744
2009    12      1       0.2049912       55.36947
2009    12      2       0.1943247       52.69652
2009    12      3       0.1709006       47.34995
2009    12      4       0.2231452       58.67274
2009    12      5       0.2916132       72.95843
2009    12      6       0.2867938       71.9776
2009    12      7       0.2896542       72.60566
2009    13      0       0.2726281       68.92429
2009    13      1       0.2654575       67.43964
2009    13      2       0.2729197       68.92239
2009    13      3       0.2601771       66.66804
2009    13      4       0.2586815       66.41473
2009    13      5       0.2582251       66.19688
2009    13      6       0.2881694       72.333
2009    13      7       0.2486076       64.66181
2009    14      0       0.2294272       60.41362
2009    14      1       0.2323661       61.10888
2009    14      2       0.1887198       51.62613
2009    14      3       0.1387349       40.07167
2009    14      4       0.1233209       36.44506
2009    14      5       0.1299809       38.19599
2009    14      6       0.1458618       42.14374
2009    14      7       0.1542874       44.27402
2009    15      0       0.1666363       47.18579
2009    15      1       0.2024023       55.58052
2009    15      2       0.2472662       65.37553
2009    15      3       0.261829        68.22053
2009    15      4       0.214654        58.05786
2009    15      5       0.1706232       47.88905
2009    15      6       0.1703878       47.64599
2009    15      7       0.1773316       49.22057
2009    16      0       0.1385363       40.08007
2009    16      1       0.1271583       37.40709
2009    16      2       0.1359625       39.62372
2009    16      3       0.1376453       40.08708
2009    16      4       0.1330621       38.98984
2009    16      5       0.1388568       40.41306
2009    16      6       0.164629        46.47103
2009    16      7       0.1627065       45.92119
2009    17      0       0.1327573       38.78214
2009    17      1       0.1036988       31.56244
2009    17      2       0.1028226       31.26787
2009    17      3       0.1165685       34.66049
2009    17      4       0.1128955       33.6718
2009    17      5       0.1168773       34.51004
2009    17      6       0.1225982       36.10117
2009    17      7       0.1351648       38.91457
2009    18      0       0.1160194       34.25703
2009    18      1       0.106766        31.8525
2009    18      2       0.09574343      29.09783
2009    18      3       0.08346704      26.1329
2009    18      4       0.1025839       30.44594
2009    18      5       0.1325525       37.0127
2009    18      6       0.1787413       47.28818
2009    18      7       0.2393521       60.17267
2009    19      0       0.2911807       71.18116
2009    19      1       0.3529621       83.31086
2009    19      2       0.3532666       84.12752
2009    19      3       0.324845        79.10844
2009    19      4       0.3294742       80.65472
2009    19      5       0.3328615       81.67504
2009    19      6       0.323525        79.90384
2009    19      7       0.3300343       81.00968
2009    20      0       0.3267886       80.41875
2009    20      1       0.3201393       78.94646
2009    20      2       0.3176026       78.10182
2009    20      3       0.2959611       73.75211
2009    20      4       0.2669745       68.39601
2009    20      5       0.2135354       57.26435
2009    20      6       0.1922976       52.26386
2009    20      7       0.2390263       61.9051
2009    21      0       0.2846226       71.1119
2009    21      1       0.2732659       69.08636
2009    21      2       0.3361646       81.32146
2009    21      3       0.3744581       88.3626
2009    21      4       0.4148792       94.96838
2009    21      5       0.374851        88.30803
2009    21      6       0.3303944       80.19189
2009    21      7       0.306382        75.34205
2009    22      0       0.2706514       68.24585
2009    22      1       0.2292843       59.60109
2009    22      2       0.188016        50.64498
2009    22      3       0.1719444       47.12019
2009    22      4       0.155885        43.58084
2009    22      5       0.1333771       38.43849
2009    22      6       0.1314695       37.88448
2009    22      7       0.1282248       37.02916
2009    23      0       0.09908165      29.75431
2009    23      1       0.08704349      26.92449
2009    23      2       0.1460083       40.19643
2009    23      3       0.08047504      25.17116
2009    23      4       0.06083536      20.24096
2009    23      5       0.09388036      28.63262
2009    23      6       0.09494321      29.02251
2009    23      7       0.1124372       33.34008
2009    24      0       0.09602377      29.09634
2009    24      1       0.09397012      28.61293
2009    24      2       0.09897524      29.89919
2009    24      3       0.09221287      28.23136
2009    24      4       0.08452708      26.32595
2009    24      5       0.08612333      26.72073
2009    24      6       0.08459729      26.38965
2009    24      7       0.0849736       26.55606
2009    25      0       0.06554778      21.60046
2009    25      1       0.05341179      18.46699
2009    25      2       0.05643861      19.18292
2009    25      3       0.0608952       20.28928
2009    25      4       0.05866944      19.66651
2009    25      5       0.06167133      20.40287
2009    25      6       0.07157087      22.89475
2009    25      7       0.07851375      24.69319
2009    26      0       0.0722545       23.23793
2009    26      1       0.1077892       32.34157
2009    26      2       0.1815029       49.79566
2009    26      3       0.2206441       58.50186
2009    26      4       0.2035338       54.81242
2009    26      5       0.1919047       52.26691
2009    26      6       0.1822911       50.04656
2009    26      7       0.1752479       48.39051
2009    27      0       0.1733879       47.78015
2009    27      1       0.1756727       48.25632
2009    27      2       0.1927232       52.223
2009    27      3       0.1904757       51.78594
2009    27      4       0.1695327       47.01023
2009    27      5       0.135889        39.20346
2009    27      6       0.1212198       35.76937
2009    27      7       0.1186592       35.07275
2009    28      0       0.1044423       31.46114
2009    28      1       0.1064548       31.95248
2009    28      2       0.1156468       34.15942
2009    28      3       0.1167574       34.38435
2009    28      4       0.1188056       34.90455
2009    28      5       0.1203181       35.33475
2009    28      6       0.1231576       36.07526
2009    28      7       0.1295818       37.55117
2009    29      0       0.1243646       36.11722
2009    29      1       0.1411636       40.06024
2009    29      2       0.1423219       40.37624
2009    29      3       0.1366854       39.12895
2009    29      4       0.1033274       31.06959
2009    29      5       0.08717263      27.23111
2009    29      6       0.1014465       30.87508
2009    29      7       0.1524837       42.63623
2009    30      0       0.2072772       54.67051
2009    30      1       0.2441449       62.91614
2009    30      2       0.2647024       67.54022
2009    30      3       0.2680675       68.58281
2009    30      4       0.2746557       69.98773
2009    30      5       0.2850566       71.81639
2009    30      6       0.2811828       70.87728
2009    30      7       0.2505817       64.70572
2010    1       0       0.2567642       64.95052
2010    1       1       0.2508866       64.16484
2010    1       2       0.2602735       65.85485
2010    1       3       0.2637351       66.14467
2010    1       4       0.2702888       67.45853
2010    1       5       0.3005799       73.43884
2010    1       6       0.3163444       77.00637
2010    1       7       0.3006436       74.17488
2010    2       0       0.2511512       64.14753
2010    2       1       0.1943456       52.24027
2010    2       2       0.1649019       45.79713
2010    2       3       0.1355383       39.05453
2010    2       4       0.1253253       36.61504
2010    2       5       0.1257369       36.65585
2010    2       6       0.1433603       40.92842
2010    2       7       0.1643008       45.81212
2010    3       0       0.152771        43.16388
2010    3       1       0.1443578       41.27683
2010    3       2       0.1520734       43.10329
2010    3       3       0.1455013       41.59597
2010    3       4       0.1457316       41.72882
2010    3       5       0.1604045       45.19269
2010    3       6       0.151112        42.94768
2010    3       7       0.1377056       39.76427
2010    4       0       0.1215083       35.73625
2010    4       1       0.1197842       35.29687
2010    4       2       0.1283245       37.40318
2010    4       3       0.145088        41.48493
2010    4       4       0.1498114       42.67225
2010    4       5       0.1168567       34.82322
2010    4       6       0.1029337       31.39784
2010    4       7       0.1168704       34.89526
2010    5       0       0.09441373      29.34574
2010    5       1       0.0744052       24.28749
2010    5       2       0.07317946      23.98074
2010    5       3       0.07989533      25.69902
2010    5       4       0.1041256       31.80554
2010    5       5       0.1398555       40.53838
2010    5       6       0.1868946       51.54374
2010    5       7       0.2485693       65.02262
2010    6       0       0.2360726       62.39799
2010    6       1       0.2125383       57.24754
2010    6       2       0.2214502       59.02374
2010    6       3       0.2705855       69.19506
2010    6       4       0.284323        71.85587
2010    6       5       0.2724568       69.12651
2010    6       6       0.2391693       61.46409
2010    6       7       0.2737211       68.11276
2010    7       0       0.2234363       58.77568
2010    7       1       0.188147        51.37411
2010    7       2       0.1762798       48.67604
2010    7       3       0.1766958       48.73357
2010    7       4       0.2530881       65.67522
2010    7       5       0.1663517       45.99094
2010    7       6       0.1789877       49.15078
2010    7       7       0.1842736       50.52808
2010    8       0       0.1742316       48.15578
2010    8       1       0.1750288       48.41458
2010    8       2       0.1611502       45.19556
2010    8       3       0.134777        38.87183
2010    8       4       0.1231885       36.02306
2010    8       5       0.1222101       35.80817
2010    8       6       0.1303224       37.90346
2010    8       7       0.1244978       36.54501
2010    9       0       0.08921991      27.81308
2010    9       1       0.07888977      25.25829
2010    9       2       0.08566518      27.00664
2010    9       3       0.09683047      29.81326
2010    9       4       0.09470846      29.27877
2010    9       5       0.1044856       31.69287
2010    9       6       0.118816        35.13706
2010    9       7       0.1128714       33.43931
2010    10      0       0.109706        32.53806
2010    10      1       0.1126027       33.15021
2010    10      2       0.120454        34.89973
2010    10      3       0.1280845       36.68174
2010    10      4       0.1335853       38.06111
2010    10      5       0.1413025       39.95987
2010    10      6       0.1445529       40.80367
2010    10      7       0.1525023       42.63055
2010    11      0       0.1385157       39.27721
2010    11      1       0.1226628       35.56607
2010    11      2       0.1162857       34.09708
2010    11      3       0.1094417       32.37595
2010    11      4       0.1054406       31.46855
2010    11      5       0.1103351       32.51251
2010    11      6       0.1228643       35.38881
2010    11      7       0.1227406       35.19562
2010    12      0       0.1259986       35.97119
2010    12      1       0.126033        36.02926
2010    12      2       0.1292108       36.86973
2010    12      3       0.1206675       34.89769
2010    12      4       0.1095933       32.21385
2010    12      5       0.11122         32.55225
2010    12      6       0.12349         35.3543
2010    12      7       0.1273571       36.16095
2010    13      0       0.1073964       31.47264
2010    13      1       0.07888394      24.72847
2010    13      2       0.07994855      25.06964
2010    13      3       0.1066901       31.48272
2010    13      4       0.1304782       37.24624
2010    13      5       0.1205411       35.09743
2010    13      6       0.086973        27.02806
2010    13      7       0.06714653      22.11753
2010    14      0       0.06270384      20.92786
2010    14      1       0.03724498      14.13766
2010    14      2       0.0392491       14.55857
2010    14      3       0.05496692      18.56265
2010    14      4       0.07153573      22.79752
2010    14      5       0.09591133      28.69516
2010    14      6       0.105582        31.05211
2010    14      7       0.1036701       30.729
2010    15      0       0.09453054      28.60192
2010    15      1       0.09521658      28.86403
2010    15      2       0.09285459      28.3578
2010    15      3       0.1056958       31.49468
2010    15      4       0.1550824       43.18439
2010    15      5       0.1832289       49.62433
2010    15      6       0.2220037       58.21052
2010    15      7       0.3035759       74.83461
2010    16      0       0.2891474       72.17006
2010    16      1       0.2544054       65.40797
2010    16      2       0.2976008       74.07805
2010    16      3       0.3361632       81.48136
2010    16      4       0.4056841       93.87172
2010    16      5       0.3982449       92.05142
2010    16      6       0.3116982       75.50239
2010    16      7       0.2371855       60.80224
2010    17      0       0.1678004       45.92368
2010    17      1       0.1718921       46.76437
2010    17      2       0.1986165       52.57928
2010    17      3       0.2045795       53.84173
2010    17      4       0.2057101       53.99045
2010    17      5       0.2236982       57.91117
2010    17      6       0.2510852       63.68053
2010    17      7       0.2274582       58.657
2010    18      0       0.1840962       49.34261
2010    18      1       0.1661141       45.08027
2010    18      2       0.1914879       50.25601
2010    18      3       0.2155615       55.56726
2010    18      4       0.1949764       50.4782
2010    18      5       0.2180341       55.101
2010    18      6       0.2778113       66.77609
2010    18      7       0.2807572       67.37892
2010    19      0       0.2327096       58.12728
2010    19      1       0.2162899       54.76651
2010    19      2       0.2593324       63.0264
2010    19      3       0.2544526       62.46131
2010    19      4       0.2100607       54.04667
2010    19      5       0.195076        51.08712
2010    19      6       0.171704        46.25947
2010    19      7       0.1534253       42.29918
2010    20      0       0.1524166       42.15008
2010    20      1       0.1313505       36.86054
2010    20      2       0.1683827       44.36678
2010    20      3       0.1399123       38.30366
2010    20      4       0.1434049       38.85894
2010    20      5       0.1597011       42.42337
2010    20      6       0.2014738       50.99647
2010    20      7       0.1763771       45.96735
2010    21      0       0.1248795       35.11607
2010    21      1       0.1091347       31.502
2010    21      2       0.09220393      27.73157
2010    21      3       0.08618185      26.3907
2010    21      4       0.08527301      26.25088
2010    21      5       0.08629537      26.56313
2010    21      6       0.09004425      27.49345
2010    21      7       0.08950125      27.28049
2010    22      0       0.08250386      25.32019
2010    22      1       0.07861114      24.28387
2010    22      2       0.08088863      24.83863
2010    22      3       0.08283517      25.3083
2010    22      4       0.07346322      23.11488
2010    22      5       0.06787647      21.79388
2010    22      6       0.08054571      24.99052
2010    22      7       0.08798508      26.87488
2010    23      0       0.07704699      24.23355
2010    23      1       0.06964093      22.4385
2010    23      2       0.0713312       22.83155
2010    23      3       0.08359141      25.63582
2010    23      4       0.1073498       31.08257
2010    23      5       0.140122        38.49384
2010    23      6       0.1496284       40.93543
2010    23      7       0.1535447       41.84127
2010    24      0       0.1453918       39.96597
2010    24      1       0.14383         39.51643
2010    24      2       0.1376401       38.02214
2010    24      3       0.1437196       39.18073
2010    24      4       0.1316254       36.49935
2010    24      5       0.1123982       32.42727
2010    24      6       0.1307775       36.72082
2010    24      7       0.1523882       41.70467
2010    25      0       0.1904793       50.50769
2010    25      1       0.1349773       38.06883
2010    25      2       0.1261236       36.06401
2010    25      3       0.1246234       35.70042
2010    25      4       0.1164032       33.75125
2010    25      5       0.1066236       31.43409
2010    25      6       0.1049124       31.01709
2010    25      7       0.1112003       32.57965
2010    26      0       0.1120941       32.89916
2010    26      1       0.1069779       31.53907
2010    26      2       0.1056235       31.02872
2010    26      3       0.1092201       31.59806
2010    26      4       0.1528835       40.9672
2010    26      5       0.2276204       56.49653
2010    26      6       0.3013264       71.31504
2010    26      7       0.1431776       39.37904
2010    27      0       0.1249555       35.53511
2010    27      1       0.1683961       44.44147
2010    27      2       0.1296814       36.37297
2010    27      3       0.1128912       32.62244
2010    27      4       0.109437        31.94094
2010    27      5       0.103061        30.44811
2010    27      6       0.1161282       33.65277
2010    27      7       0.1330606       37.57158
2010    28      0       0.1353646       37.97745
2010    28      1       0.1287462       36.22688
2010    28      2       0.1306666       36.53033
2010    28      3       0.1162287       33.30396
2010    28      4       0.1080234       31.48316
2010    28      5       0.1202761       34.38696
2010    28      6       0.1384883       38.84632
2010    28      7       0.1314994       37.06677
2010    29      0       0.1064182       30.97618
2010    29      1       0.1103811       31.65273
2010    29      2       0.1164729       33.46585
2010    29      3       0.1079937       31.69421
2010    29      4       0.1070633       31.50255
2010    29      5       0.11442         33.30641
2010    29      6       0.1160925       33.62534
2010    29      7       0.1160089       33.60894
2010    30      0       0.1081564       31.83174
2010    30      1       0.09625768      29.12038
2010    30      2       0.09787241      29.54806
2010    30      3       0.09612764      29.23724
2010    30      4       0.09010378      27.8256
2010    30      5       0.08622986      26.83894
2010    30      6       0.08935098      27.62325
2010    30      7       0.0922045       28.4577
2011    1       0       0.156103        44.00565
2011    1       1       0.1184061       35.03721
2011    1       2       0.1154628       34.11625
2011    1       3       0.1073554       32.14257
2011    1       4       0.1044545       31.51259
2011    1       5       0.122264        35.91032
2011    1       6       0.1237774       36.18178
2011    1       7       0.1243715       36.25291
2011    2       0       0.1104836       32.60125
2011    2       1       0.1026707       30.54422
2011    2       2       0.09892516      29.87143
2011    2       3       0.09963392      30.07284
2011    2       4       0.0938691       28.61187
2011    2       5       0.1004665       30.2287
2011    2       6       0.1087056       32.2492
2011    2       7       0.1196665       34.93749
2011    3       0       0.1116353       32.99514
2011    3       1       0.1005764       30.30128
2011    3       2       0.0960055       29.08489
2011    3       3       0.1056151       31.33962
2011    3       4       0.130974        37.37122
2011    3       5       0.176861        47.96809
2011    3       6       0.2053587       54.61408
2011    3       7       0.2692676       68.04509
2011    4       0       0.2708315       68.10908
2011    4       1       0.2010837       53.42596
2011    4       2       0.1645819       45.02534
2011    4       3       0.2139567       55.85513
2011    4       4       0.2438149       62.67462
2011    4       5       0.2801533       70.05999
2011    4       6       0.2811439       70.63594
2011    4       7       0.2899538       72.59749
2011    5       0       0.2866844       71.8851
2011    5       1       0.2651642       67.77241
2011    5       2       0.2475415       64.44342
2011    5       3       0.2337466       61.49155
2011    5       4       0.2357924       61.85773
2011    5       5       0.2425559       63.33545
2011    5       6       0.2341688       61.66024
2011    5       7       0.2273619       60.31226
2011    6       0       0.2124384       57.10179
2011    6       1       0.1985064       54.19457
2011    6       2       0.302303        76.4752
2011    6       3       0.4465054       103.2328
2011    6       4       0.4341926       100.8452
2011    6       5       0.3880261       92.44445
2011    6       6       0.4088625       95.69371
2011    6       7       0.4319601       98.72458
2011    7       0       0.4125564       95.27161
2011    7       1       0.3663174       86.95559
2011    7       2       0.3375549       81.67118
2011    7       3       0.3419146       82.46441
2011    7       4       0.5661772       122.2421
2011    7       5       0.3617103       86.73626
2011    7       6       0.3604622       86.76507
2011    7       7       0.3168359       78.65987
2011    8       0       0.215237        57.55106
2011    8       1       0.1676953       47.0481
2011    8       2       0.2024814       54.95496
2011    8       3       0.2246977       59.70808
2011    8       4       0.2490216       64.77793
2011    8       5       0.2546052       66.13738
2011    8       6       0.297331        74.98011
2011    8       7       0.345231        84.36273
2011    9       0       0.3409925       83.68596
2011    9       1       0.3305207       81.6875
2011    9       2       0.3539821       86.14876
2011    9       3       0.3739514       90.19458
2011    9       4       0.3851737       92.47937
2011    9       5       0.408961        96.48587
2011    9       6       0.5202433       114.3418
2011    9       7       0.4948802       109.2578
2011    10      0       0.6823195       136.0897
2011    10      1       0.8008229       151.7854
2011    10      2       0.6897345       138.1348
2011    10      3       0.539726        116.7585
2011    10      4       0.3729482       88.64209
2011    10      5       0.2969476       74.06564
2011    10      6       0.2839605       71.52848
2011    10      7       0.2769212       70.32977
2011    11      0       0.2176294       57.92953
2011    11      1       0.146832        41.80885
2011    11      2       0.1369894       39.36584
2011    11      3       0.1171414       34.3277
2011    11      4       0.1129424       32.81053
2011    11      5       0.1294995       36.49586
2011    11      6       0.1933971       51.31887
2011    11      7       0.1436489       40.30324
2011    12      0       0.0899429       27.28916
2011    12      1       0.1009365       30.06088
2011    12      2       0.1069234       31.55007
2011    12      3       0.1199521       34.52514
2011    12      4       0.149706        41.00271
2011    12      5       0.1899978       49.5403
2011    12      6       0.2776216       67.49039
2011    12      7       0.3205416       76.20773
2011    13      0       0.2757538       67.62036
2011    13      1       0.2777138       68.57175
2011    13      2       0.3334904       79.4903
2011    13      3       0.4044332       92.11208
2011    13      4       0.3904075       89.64981
2011    13      5       0.4542108       100.4599
2011    13      6       0.4847185       105.4813
2011    13      7       0.5782545       119.9157
2011    14      0       0.5463244       116.2042
2011    14      1       0.6691086       134.6317
2011    14      2       0.5784222       121.6245
2011    14      3       0.4184674       95.47971
2011    14      4       0.3861348       89.551
2011    14      5       0.3394658       81.07129
2011    14      6       0.3615472       85.48148
2011    14      7       0.3378145       81.25646
2011    15      0       0.2864197       71.25448
2011    15      1       0.2679431       67.64682
2011    15      2       0.2465557       63.25345
2011    15      3       0.1845035       49.76989
2011    15      4       0.1387441       39.2751
2011    15      5       0.1159263       34.0215
2011    15      6       0.142474        40.41755
2011    15      7       0.1582758       43.92789
2011    16      0       0.1181412       34.46076
2011    16      1       0.08935704      27.20174
2011    16      2       0.09573544      28.74971
2011    16      3       0.1069572       31.34805
2011    16      4       0.1172541       33.81682
2011    16      5       0.1356842       37.84362
2011    16      6       0.1448778       39.07372
2011    16      7       0.1712725       44.88241
2011    17      0       0.08891368      27.10859
2011    17      1       0.0548063       18.88512
2011    17      2       0.05470329      18.58209
2011    17      3       0.08039335      25.08617
2011    17      4       0.1008766       30.08142
2011    17      5       0.102793        30.7345
2011    17      6       0.1082959       32.1063
2011    17      7       0.1129976       33.30671
2011    18      0       0.101997        30.76268
2011    18      1       0.09451664      28.93778
2011    18      2       0.08947415      27.65686
2011    18      3       0.08852847      27.37775
2011    18      4       0.09790604      29.65483
2011    18      5       0.1090557       32.31058
2011    18      6       0.1110189       32.72067
2011    18      7       0.1117725       32.92034
2011    19      0       0.1133961       33.37794
2011    19      1       0.1083101       32.1534
2011    19      2       0.1033269       30.80856
2011    19      3       0.1090972       32.0675
2011    19      4       0.1182022       34.25517
2011    19      5       0.1248089       35.93162
2011    19      6       0.1304947       37.22742
2011    19      7       0.156822        43.19782
2011    20      0       0.1786641       47.89903
2011    20      1       0.2046327       53.56131
2011    20      2       0.2670851       66.55569
2011    20      3       0.3002125       73.23641
2011    20      4       0.2727714       67.87822
2011    20      5       0.2496378       63.25208
2011    20      6       0.230638        59.38118
2011    20      7       0.2092966       54.95079
2011    21      0       0.2047138       53.8715
2011    21      1       0.1974217       52.14004
2011    21      2       0.2161304       56.01822
2011    21      3       0.2322722       59.23929
2011    21      4       0.2350961       59.44619
2011    21      5       0.3542863       81.48159
2011    21      6       0.2675971       65.93374
2011    21      7       0.2624707       65.28221
2011    22      0       0.2380889       60.27532
2011    22      1       0.2338353       59.22751
2011    22      2       0.2464419       61.78179
2011    22      3       0.3665069       84.84724
2011    22      4       0.6145444       125.0078
2011    22      5       0.8085714       151.1185
2011    22      6       0.7868498       149.0563
2011    22      7       0.5425928       116.0166
2011    23      0       0.2783309       69.69936
2011    23      1       0.1580861       43.98563
2011    23      2       0.1099531       32.53361
2011    23      3       0.08237691      25.4489
2011    23      4       0.06907756      22.26076
2011    23      5       0.06797032      22.16967
2011    23      6       0.07726944      24.46815
2011    23      7       0.08111671      25.46149
2011    24      0       0.07774126      24.59793
2011    24      1       0.083695        26.04986
2011    24      2       0.0871243       26.86838
2011    24      3       0.07713764      24.32173
2011    24      4       0.06658937      21.69071
2011    24      5       0.07116441      22.82142
2011    24      6       0.07736995      24.44857
2011    24      7       0.0818647       25.64732
2011    25      0       0.09682247      29.33325
2011    25      1       0.1230978       35.7545
2011    25      2       0.1259672       36.62706
2011    25      3       0.1254238       36.60654
2011    25      4       0.1149836       34.15713
2011    25      5       0.1034889       31.37393
2011    25      6       0.115776        34.41157
2011    25      7       0.1151478       34.26346
2011    26      0       0.1040396       31.56799
2011    26      1       0.09794345      30.07508
2011    26      2       0.09737443      29.89968
2011    26      3       0.1041176       31.32225
2011    26      4       0.1032974       30.88032
2011    26      5       0.1463979       40.15841
2011    26      6       0.175601        46.44591
2011    26      7       0.141719        39.28867
2011    27      0       0.1403149       39.02619
2011    27      1       0.1305895       36.99938
2011    27      2       0.1377579       38.51596
2011    27      3       0.1366027       38.33612
2011    27      4       0.139809        39.18776
2011    27      5       0.1412984       39.97302
2011    27      6       0.1363953       38.99839
2011    27      7       0.1268819       36.66492
2011    28      0       0.1444615       40.181
2011    28      1       0.2204557       56.64074
2011    28      2       0.2501787       62.87817
2011    28      3       0.2735906       67.78797
2011    28      4       0.2391574       61.09751
2011    28      5       0.1822448       49.52481
2011    28      6       0.1539938       43.08261
2011    28      7       0.1240456       35.8732
2011    29      0       0.07715116      24.42082
2011    29      1       0.1199917       34.83134
2011    29      2       0.1849459       49.96593
2011    29      3       0.1973637       52.62497
2011    29      4       0.1631496       45.09075
2011    29      5       0.1242608       36.04889
2011    29      6       0.1386593       39.0868
2011    29      7       0.1754424       47.25269
2011    30      0       0.1567427       42.94931
2011    30      1       0.1466308       40.59088
2011    30      2       0.1558786       42.72688
2011    30      3       0.1605901       43.94649
2011    30      4       0.1265066       36.44414
2011    30      5       0.1131798       33.43398
2011    30      6       0.1280591       37.0963
2011    30      7       0.1300774       37.61163
2012    1       0       0.2473641       64.17744
2012    1       1       0.2248714       59.43541
2012    1       2       0.2381873       62.15241
2012    1       3       0.2835188       71.47704
2012    1       4       0.3159733       77.77256
2012    1       5       0.3122857       76.96383
2012    1       6       0.3502469       84.22911
2012    1       7       0.3905795       91.59206
2012    2       0       0.3425981       82.79541
2012    2       1       0.2745016       69.82891
2012    2       2       0.3081027       76.67256
2012    2       3       0.3059224       76.27618
2012    2       4       0.3101191       77.11106
2012    2       5       0.3019526       75.64381
2012    2       6       0.2800419       71.28402
2012    2       7       0.2863089       72.6211
2012    3       0       0.2652004       68.16481
2012    3       1       0.2615283       67.5533
2012    3       2       0.2508195       65.1253
2012    3       3       0.24565         63.87627
2012    3       4       0.2615868       67.23569
2012    3       5       0.2519363       65.38552
2012    3       6       0.2735815       70.05774
2012    3       7       0.2696336       69.25607
2012    4       0       0.2286398       60.54129
2012    4       1       0.2444537       63.80747
2012    4       2       0.2273312       60.00418
2012    4       3       0.20892         55.68622
2012    4       4       0.1597749       44.33228
2012    4       5       0.1861461       50.04745
2012    4       6       0.2325648       59.89966
2012    4       7       0.2281373       59.55675
2012    5       0       0.1552163       43.16505
2012    5       1       0.1274376       36.73169
2012    5       2       0.1326862       37.73571
2012    5       3       0.1138628       33.32603
2012    5       4       0.1455346       40.45753
2012    5       5       0.1950366       51.70267
2012    5       6       0.2226465       57.98082
2012    5       7       0.243809        62.81378
2012    6       0       0.2330067       61.11909
2012    6       1       0.2014879       54.60015
2012    6       2       0.1721584       48.12792
2012    6       3       0.1449683       41.76273
2012    6       4       0.1301504       38.12865
2012    6       5       0.1031987       31.54254
2012    6       6       0.119757        35.65812
2012    6       7       0.1566693       44.48468
2012    7       0       0.1539293       43.78844
2012    7       1       0.1381261       40.11239
2012    7       2       0.09471713      29.41876
2012    7       3       0.08016957      25.59398
2012    7       4       0.07513645      24.27372
2012    7       5       0.07889855      25.24355
2012    7       6       0.1055955       31.96935
2012    7       7       0.1306265       37.97038
2012    8       0       0.1065535       32.02831
2012    8       1       0.09588399      29.25099
2012    8       2       0.1190364       34.72737
2012    8       3       0.1601056       44.60488
2012    8       4       0.2304892       60.21601
2012    8       5       0.2770082       69.38435
2012    8       6       0.3452573       82.07792
2012    8       7       0.316778        77.22686
2012    9       0       0.2752604       68.93563
2012    9       1       0.322948        77.63904
2012    9       2       0.3627294       84.53834
2012    9       3       0.4039091       91.63322
2012    9       4       0.4802858       104.3615
2012    9       5       0.4111684       93.71395
2012    9       6       0.4260806       96.59169
2012    9       7       0.4078881       93.66053
2012    10      0       0.3210109       77.82822
2012    10      1       0.2629018       66.39157
2012    10      2       0.2828354       70.43412
2012    10      3       0.3238692       78.24652
2012    10      4       0.3552706       84.06423
2012    10      5       0.365211        86.13955
2012    10      6       0.4461853       100.7914
2012    10      7       0.5201175       113.302
2012    11      0       0.3901864       91.36966
2012    11      1       0.3761084       88.99037
2012    11      2       0.4440957       101.1278
2012    11      3       0.449856        102.0209
2012    11      4       0.4368183       99.8498
2012    11      5       0.4408822       100.9804
2012    11      6       0.4723857       106.2341
2012    11      7       0.5069327       112.0699
2012    12      0       0.4949473       110.2696
2012    12      1       0.463993        105.2642
2012    12      2       0.4961732       110.6619
2012    12      3       0.4850317       108.8955
2012    12      4       0.4929927       110.0495
2012    12      5       0.5161819       113.5025
2012    12      6       0.5676324       120.935
2012    12      7       0.4701876       105.1469
2012    13      0       0.4068669       94.52531
2012    13      1       0.3959671       92.43689
2012    13      2       0.3842217       89.60762
2012    13      3       0.3733751       86.99485
2012    13      4       0.3679184       86.2271
2012    13      5       0.4375304       98.61352
2012    13      6       0.5290696       113.3715
2012    13      7       0.5260163       112.7018
2012    14      0       0.393067        90.70912
2012    14      1       0.289472        71.5513
2012    14      2       0.2419664       62.21833
2012    14      3       0.2128677       56.1804
2012    14      4       0.2087379       55.40042
2012    14      5       0.2245694       58.95664
2012    14      6       0.2362557       61.46003
2012    14      7       0.2522054       64.8633
2012    15      0       0.2152087       56.8207
2012    15      1       0.1418167       40.07308
2012    15      2       0.1064099       31.57031
2012    15      3       0.09362058      28.61211
2012    15      4       0.1017833       30.56194
2012    15      5       0.1188503       34.61843
2012    15      6       0.1809678       49.12217
2012    15      7       0.2276048       59.29063
2012    16      0       0.2144828       56.37733
2012    16      1       0.1922734       51.61269
2012    16      2       0.1728699       47.11415
2012    16      3       0.1651937       45.1538
2012    16      4       0.1568643       43.27236
2012    16      5       0.1766557       47.6497
2012    16      6       0.2080868       54.51306
2012    16      7       0.2055622       53.71987
2012    17      0       0.163424        44.13008
2012    17      1       0.1455916       40.05991
2012    17      2       0.1466097       40.90213
2012    17      3       0.1223315       35.349
2012    17      4       0.1131054       33.23039
2012    17      5       0.1141065       33.46891
2012    17      6       0.1346508       38.22534
2012    17      7       0.1551991       42.88415
2012    18      0       0.1406174       39.50282
2012    18      1       0.1325316       37.69406
2012    18      2       0.1357923       38.43021
2012    18      3       0.1429306       40.04259
2012    18      4       0.1587031       43.69474
2012    18      5       0.1807121       48.68741
2012    18      6       0.1740649       47.24638
2012    18      7       0.1688664       46.1493
2012    19      0       0.1506928       41.99777
2012    19      1       0.1355738       38.48037
2012    19      2       0.1294276       37.07933
2012    19      3       0.1237379       35.83376
2012    19      4       0.1153124       33.99148
2012    19      5       0.111376        33.09187
2012    19      6       0.1246817       36.1279
2012    19      7       0.1318401       37.7214
2012    20      0       0.1248882       36.0329
2012    20      1       0.1171325       34.21239
2012    20      2       0.1223987       35.48304
2012    20      3       0.1353203       38.57934
2012    20      4       0.1215652       35.43774
2012    20      5       0.09417252      28.82355
2012    20      6       0.1105829       32.81283
2012    20      7       0.1288957       37.08738
2012    21      0       0.1229654       35.51551
2012    21      1       0.1253033       36.10569
2012    21      2       0.1288352       37.03945
2012    21      3       0.1289563       37.16232
2012    21      4       0.1356813       38.87865
2012    21      5       0.1500315       42.31457
2012    21      6       0.1526854       42.90942
2012    21      7       0.1323124       38.01974
2012    22      0       0.1177423       34.39929
2012    22      1       0.1154881       33.93105
2012    22      2       0.1230831       35.82612
2012    22      3       0.1319569       37.91176
2012    22      4       0.1348499       38.68951
2012    22      5       0.1387941       39.67058
2012    22      6       0.1515116       42.65427
2012    22      7       0.1641773       45.59781
2012    23      0       0.1387021       39.65398
2012    23      1       0.1283729       37.21822
2012    23      2       0.1351675       38.77637
2012    23      3       0.1359624       38.83264
2012    23      4       0.1404187       39.77135
2012    23      5       0.165345        45.41174
2012    23      6       0.2156526       56.48919
2012    23      7       0.2283243       59.17943
2012    24      0       0.223767        58.18341
2012    24      1       0.2862126       71.20959
2012    24      2       0.2802221       70.2395
2012    24      3       0.2485027       63.73946
2012    24      4       0.2243961       58.54891
2012    24      5       0.1757863       47.91877
2012    24      6       0.1799188       48.83624
2012    24      7       0.2281304       59.29411
2012    25      0       0.2541499       64.71117
2012    25      1       0.2104981       55.46933
2012    25      2       0.2587912       65.6177
2012    25      3       0.2646015       66.62702
2012    25      4       0.2682416       67.39407
2012    25      5       0.2736388       68.55552
2012    25      6       0.3417019       81.89639
2012    25      7       0.3113483       75.74778
2012    26      0       0.2621828       65.84902
2012    26      1       0.1900149       50.36483
2012    26      2       0.1689068       45.17906
2012    26      3       0.2588017       63.70595
2012    26      4       0.2652999       64.48944
2012    26      5       0.312907        73.46412
2012    26      6       0.3795017       85.12112
2012    26      7       0.4464755       96.82107
2012    27      0       0.4693121       101.6112
2012    27      1       0.7097661       136.542
2012    27      2       0.7601173       142.3177
2012    27      3       0.6990475       134.7369
2012    27      4       0.501643        106.8576
2012    27      5       0.4836947       103.8479
2012    27      6       0.489562        104.5288
2012    27      7       0.4509017       98.12778
2012    28      0       0.283855        68.89758
2012    28      1       0.2927461       70.35601
2012    28      2       0.2513672       62.3452
2012    28      3       0.2054185       52.92934
2012    28      4       0.2047589       52.26452
2012    28      5       0.278076        66.08733
2012    28      6       0.3724154       83.32867
2012    28      7       0.3911976       87.31067
2012    29      0       0.3009922       71.76098
2012    29      1       0.2193188       56.10111
2012    29      2       0.2002622       52.24325
2012    29      3       0.1934621       51.09493
2012    29      4       0.1906523       50.8597
2012    29      5       0.1568589       43.42992
2012    29      6       0.1048078       31.24068
2012    29      7       0.08548466      26.29947
2012    30      0       0.08098661      25.06607
2012    30      1       0.09659696      28.83164
2012    30      2       0.1165149       33.47075
2012    30      3       0.1236797       35.20422
2012    30      4       0.1015692       30.34155
2012    30      5       0.08528987      26.55579
2012    30      6       0.08823013      27.08653
2012    30      7       0.07786604      24.54796
2013    1       0       0.3903386       90.34726
2013    1       1       0.2721537       68.31751
2013    1       2       0.1786669       48.3856
2013    1       3       0.1182069       34.32289
2013    1       4       0.1091717       32.06071
2013    1       5       0.133743        37.7087
2013    1       6       0.1836687       48.80702
2013    1       7       0.2220816       57.01347
2013    2       0       0.168112        45.39549
2013    2       1       0.1260948       35.9452
2013    2       2       0.1081257       31.6177
2013    2       3       0.1380455       38.2949
2013    2       4       0.1957227       51.22894
2013    2       5       0.1828954       48.90732
2013    2       6       0.1643779       45.05901
2013    2       7       0.1727978       46.99174
2013    3       0       0.168241        45.82319
2013    3       1       0.164186        44.56629
2013    3       2       0.1773073       47.06853
2013    3       3       0.2319385       58.068
2013    3       4       0.2105759       53.87124
2013    3       5       0.1863256       49.46731
2013    3       6       0.2053533       53.79796
2013    3       7       0.2154398       55.94568
2013    4       0       0.2091527       54.65655
2013    4       1       0.2109486       55.10988
2013    4       2       0.2019251       53.45186
2013    4       3       0.1628241       44.80155
2013    4       4       0.1322285       37.80711
2013    4       5       0.1235657       35.90792
2013    4       6       0.1495164       41.98537
2013    4       7       0.1525585       42.67232
2013    5       0       0.112008        33.10208
2013    5       1       0.1039023       31.14011
2013    5       2       0.09286912      28.38343
2013    5       3       0.09373078      28.5803
2013    5       4       0.101749        30.50941
2013    5       5       0.1091739       32.35799
2013    5       6       0.1685228       46.02401
2013    5       7       0.2736701       67.12907
2013    6       0       0.2405346       60.35698
2013    6       1       0.1093781       32.26998
2013    6       2       0.1121582       32.7116
2013    6       3       0.1411465       39.30141
2013    6       4       0.1500872       41.51031
2013    6       5       0.1327996       37.63735
2013    6       6       0.1363217       38.52249
2013    6       7       0.1542887       42.80504
2013    7       0       0.1503582       42.01012
2013    7       1       0.1498304       41.96022
2013    7       2       0.1555145       43.26835
2013    7       3       0.1475385       41.52183
2013    7       4       0.1579283       43.69144
2013    7       5       0.1413679       39.82621
2013    7       6       0.1467533       41.14707
2013    7       7       0.1359635       38.79169
2013    8       0       0.1078652       32.05479
2013    8       1       0.08466322      26.28269
2013    8       2       0.09023412      27.72221
2013    8       3       0.1090318       32.38152
2013    8       4       0.1344317       38.28981
2013    8       5       0.164114        44.89048
2013    8       6       0.2060762       54.16224
2013    8       7       0.2328566       60.0444
2013    9       0       0.2644507       66.23901
2013    9       1       0.2286883       59.2223
2013    9       2       0.2193123       57.37355
2013    9       3       0.2073716       54.54262
2013    9       4       0.2285228       58.35968
2013    9       5       0.2936958       70.43506
2013    9       6       0.4281715       94.52165
2013    9       7       0.3593114       82.29603
2013    10      0       0.3811215       86.58156
2013    10      1       0.4230598       94.5516
2013    10      2       0.4216811       94.68761
2013    10      3       0.2910078       71.40375
2013    10      4       0.2140478       56.08288
2013    10      5       0.1973963       52.59917
2013    10      6       0.245514        62.86143
2013    10      7       0.2428172       62.14687
2013    11      0       0.1798818       48.44543
2013    11      1       0.1680586       45.86105
2013    11      2       0.1576074       43.3319
2013    11      3       0.1639305       44.28608
2013    11      4       0.1646395       44.32761
2013    11      5       0.1631029       43.95489
2013    11      6       0.2007536       52.47519
2013    11      7       0.2222519       57.31671
2013    12      0       0.1381782       38.84902
2013    12      1       0.1070533       31.54684
2013    12      2       0.07805286      24.45177
2013    12      3       0.06756297      21.83071
2013    12      4       0.06714721      21.66831
2013    12      5       0.08026149      24.63674
2013    12      6       0.1082953       31.24771
2013    12      7       0.1081133       31.49136
2013    13      0       0.1297761       36.41838
2013    13      1       0.1714113       45.80943
2013    13      2       0.2354071       59.28815
2013    13      3       0.2923279       70.72398
2013    13      4       0.3473378       81.31104
2013    13      5       0.3740805       86.50698
2013    13      6       0.4284358       95.9785
2013    13      7       0.4280843       96.23672
2013    14      0       0.338293        81.22677
2013    14      1       0.3041433       75.12199
2013    14      2       0.282229        70.71499
2013    14      3       0.2818393       70.39246
2013    14      4       0.2574747       65.94977
2013    14      5       0.2291399       60.35699
2013    14      6       0.2274357       59.84571
2013    14      7       0.216698        57.58779
2013    15      0       0.1894399       51.66751
2013    15      1       0.1710955       47.57493
2013    15      2       0.1632103       45.81836
2013    15      3       0.1642826       46.16496
2013    15      4       0.1566815       44.51926
2013    15      5       0.1402444       40.64603
2013    15      6       0.1296349       38.04691
2013    15      7       0.11331         34.08984
2013    16      0       0.09379052      29.20693
2013    16      1       0.08067847      25.72235
2013    16      2       0.08258975      26.21605
2013    16      3       0.08417046      26.65535
2013    16      4       0.07527647      24.30796
2013    16      5       0.07032872      23.01618
2013    16      6       0.07300307      23.70623
2013    16      7       0.06864313      22.55025
2013    17      0       0.06065183      20.51696
2013    17      1       0.05896611      20.10933
2013    17      2       0.06108738      20.64502
2013    17      3       0.05944931      20.23149
2013    17      4       0.06689337      22.20559
2013    17      5       0.07013762      23.01075
2013    17      6       0.07595429      24.50421
2013    17      7       0.07877431      25.20831
2013    18      0       0.07169359      23.3538
2013    18      1       0.06573026      21.78866
2013    18      2       0.06072735      20.47917
2013    18      3       0.05831678      19.86567
2013    18      4       0.05684814      19.4825
2013    18      5       0.06137365      20.66899
2013    18      6       0.07816682      25.27811
2013    18      7       0.08203794      26.17238
2013    19      0       0.0735968       24.12415
2013    19      1       0.08765275      27.74555
2013    19      2       0.1135227       34.32682
2013    19      3       0.1451616       41.85526
2013    19      4       0.1728296       48.30859
2013    19      5       0.2200366       58.8423
2013    19      6       0.276209        70.76196
2013    19      7       0.2459565       64.30458
2013    20      0       0.1898605       52.02877
2013    20      1       0.1691474       47.28936
2013    20      2       0.164553        46.11163
2013    20      3       0.1525448       43.30085
2013    20      4       0.1689551       46.51247
2013    20      5       0.1707054       47.12921
2013    20      6       0.1840858       50.05837
2013    20      7       0.1661176       45.98987
2013    21      0       0.1634934       45.1129
2013    21      1       0.1594109       44.10383
2013    21      2       0.1472085       41.24787
2013    21      3       0.146147        40.92489
2013    21      4       0.133915        38.11946
2013    21      5       0.1405937       39.59865
2013    21      6       0.1738904       47.19253
2013    21      7       0.1702505       46.32702
2013    22      0       0.1702933       46.57676
2013    22      1       0.1443155       40.79828
2013    22      2       0.1151691       33.81633
2013    22      3       0.09824016      29.63978
2013    22      4       0.1002103       30.12816
2013    22      5       0.1151406       33.67965
2013    22      6       0.1329684       37.9564
2013    22      7       0.13234         37.70648
2013    23      0       0.1302433       37.1688
2013    23      1       0.1343567       38.15606
2013    23      2       0.1261571       36.02162
2013    23      3       0.1109572       32.44974
2013    23      4       0.1124843       32.77372
2013    23      5       0.1122665       32.93419
2013    23      6       0.1122756       33.21044
2013    23      7       0.1012455       30.511
2013    24      0       0.102681        30.73523
2013    24      1       0.1064296       31.55807
2013    24      2       0.1320225       37.88749
2013    24      3       0.133862        38.14155
2013    24      4       0.1369673       38.85423
2013    24      5       0.1531856       42.61178
2013    24      6       0.1581757       43.89375
2013    24      7       0.1523042       42.57392
2013    25      0       0.1425187       40.22402
2013    25      1       0.1482927       41.45052
2013    25      2       0.1517334       41.8862
2013    25      3       0.1805362       48.03472
2013    25      4       0.2004413       52.25241
2013    25      5       0.2139925       55.07869
2013    25      6       0.2426948       61.29717
2013    25      7       0.2447259       61.95202
2013    26      0       0.2697829       67.60154
2013    26      1       0.3541307       84.53606
2013    26      2       0.4298575       97.99772
2013    26      3       0.3905748       90.15756
2013    26      4       0.2581506       64.33742
2013    26      5       0.2339259       58.99279
2013    26      6       0.3737198       85.0503
2013    26      7       0.447026        97.70382
2013    27      0       0.3415479       79.89309
2013    27      1       0.2544573       63.37893
2013    27      2       0.2471517       61.84768
2013    27      3       0.2378967       60.00558
2013    27      4       0.2263578       57.70541
2013    27      5       0.2186764       56.22117
2013    27      6       0.2526279       62.96455
2013    27      7       0.2519854       62.91167
2013    28      0       0.2171856       55.88707
2013    28      1       0.207543        53.83978
2013    28      2       0.1941194       50.66142
2013    28      3       0.2019524       51.97371
2013    28      4       0.2387118       58.92974
2013    28      5       0.2346511       57.94115
2013    28      6       0.1892731       48.95588
2013    28      7       0.1795998       47.56162
2013    29      0       0.2053782       53.70227
2013    29      1       0.2169262       56.06652
2013    29      2       0.2702869       66.98456
2013    29      3       0.3303081       78.7092
2013    29      4       0.3385674       80.51255
2013    29      5       0.2498091       63.46221
2013    29      6       0.2665922       66.93578
2013    29      7       0.2908502       71.69795
2013    30      0       0.2737418       68.44797
2013    30      1       0.2466045       63.20093
2013    30      2       0.2247419       58.57375
2013    30      3       0.1939394       51.97588
2013    30      4       0.1824271       49.29669
2013    30      5       0.1761681       47.78073
2013    30      6       0.184425        49.51203
2013    30      7       0.1988429       52.58368
2014    1       0       0.1907087       50.86862
2014    1       1       0.1679565       45.98478
2014    1       2       0.162856        44.87643
2014    1       3       0.1631095       44.80278
2014    1       4       0.1605797       44.12658
2014    1       5       0.176447        47.67653
2014    1       6       0.2124552       55.42155
2014    1       7       0.2452654       62.17519
2014    2       0       0.2206098       56.89251
2014    2       1       0.2462724       62.87067
2014    2       2       0.2393372       61.62527
2014    2       3       0.1937446       51.9437
2014    2       4       0.1452396       41.05523
2014    2       5       0.1245468       36.24757
2014    2       6       0.1213754       35.58163
2014    2       7       0.1273493       37.05387
2014    3       0       0.09541212      29.27671
2014    3       1       0.08198602      25.82545
2014    3       2       0.08708705      26.96245
2014    3       3       0.09265014      28.14701
2014    3       4       0.08998823      27.62997
2014    3       5       0.08911374      27.51377
2014    3       6       0.1024337       30.92557
2014    3       7       0.1004283       30.47241
2014    4       0       0.0788951       25.0371
2014    4       1       0.07686688      24.38952
2014    4       2       0.09023695      27.61259
2014    4       3       0.1141675       33.31301
2014    4       4       0.1390046       38.82285
2014    4       5       0.1739481       46.83839
2014    4       6       0.1928596       51.084
2014    4       7       0.2099547       54.87758
2014    5       0       0.205936        54.25353
2014    5       1       0.2015926       53.47582
2014    5       2       0.2070741       54.90549
2014    5       3       0.2237803       58.52444
2014    5       4       0.2150979       56.51268
2014    5       5       0.1989262       52.87684
2014    5       6       0.1905621       51.13185
2014    5       7       0.1971314       52.69144
2014    6       0       0.2084698       55.23745
2014    6       1       0.2359659       61.41114
2014    6       2       0.2640438       67.49878
2014    6       3       0.2837656       71.54156
2014    6       4       0.3406537       82.41293
2014    6       5       0.4241252       97.21633
2014    6       6       0.4474858       101.081
2014    6       7       0.397218        92.38399
2014    7       0       0.3452928       83.02775
2014    7       1       0.3252193       78.79313
2014    7       2       0.2629155       66.0837
2014    7       3       0.1671703       45.34374
2014    7       4       0.1664386       44.74289
2014    7       5       0.2383485       59.90737
2014    7       6       0.3369264       78.91612
2014    7       7       0.3605698       83.04331
2014    8       0       0.2331919       58.68604
2014    8       1       0.1548832       42.28238
2014    8       2       0.1560681       42.79812
2014    8       3       0.1620179       44.23616
2014    8       4       0.1805125       48.32421
2014    8       5       0.2015332       53.26444
2014    8       6       0.2459259       62.64294
2014    8       7       0.2621174       65.97549
2014    9       0       0.2603383       65.90939
2014    9       1       0.2574189       65.19596
2014    9       2       0.2981228       73.57299
2014    9       3       0.307955        75.009
2014    9       4       0.3514832       83.1223
2014    9       5       0.3998506       91.99426
2014    9       6       0.4991043       108.6538
2014    9       7       0.6321583       128.5156
2014    10      0       0.6964098       136.9017
2014    10      1       0.498621        107.2103
2014    10      2       0.3415831       80.31044
2014    10      3       0.1980535       52.00304
2014    10      4       0.1109285       32.60281
2014    10      5       0.08838527      27.17175
2014    10      6       0.1036757       30.97103
2014    10      7       0.1026757       30.75527
2014    11      0       0.0741127       23.66077
2014    11      1       0.07114042      22.61642
2014    11      2       0.07489385      23.75974
2014    11      3       0.08968259      27.05057
2014    11      4       0.2072063       52.31533
2014    11      5       0.2392701       59.70013
2014    11      6       0.3403284       79.9022
2014    11      7       0.3714395       86.61087
2014    12      0       0.3584903       84.74713
2014    12      1       0.2279032       59.33335
2014    12      2       0.1466241       40.9865
2014    12      3       0.06505125      20.89006
2014    12      4       0.07431779      22.91116
2014    12      5       0.08256417      25.11162
2014    12      6       0.09999393      29.2274
2014    12      7       0.1077125       31.27825
2014    13      0       0.09973713      29.63569
2014    13      1       0.103099        30.60565
2014    13      2       0.1286414       36.7674
2014    13      3       0.145957        41.10913
2014    13      4       0.1642934       45.63142
2014    13      5       0.1638781       45.60894
2014    13      6       0.1655459       45.84771
2014    13      7       0.1759101       47.69189
2014    14      0       0.1875878       49.83134
2014    14      1       0.2075901       54.35192
2014    14      2       0.1888193       51.05757
2014    14      3       0.1794164       49.27897
2014    14      4       0.1574717       44.13559
2014    14      5       0.1668784       45.96926
2014    14      6       0.1916619       51.45939
2014    14      7       0.2200676       57.56428
2014    15      0       0.2030067       54.47877
2014    15      1       0.2248816       59.61871
2014    15      2       0.2446102       64.03624
2014    15      3       0.2668189       68.85029
2014    15      4       0.2348504       61.98638
2014    15      5       0.2152084       57.63321
2014    15      6       0.2225078       59.10374
2014    15      7       0.2435775       63.35968
2014    16      0       0.2292195       60.18728
2014    16      1       0.1929277       52.11601
2014    16      2       0.1754947       47.57275
2014    16      3       0.1715006       46.44118
2014    16      4       0.2208862       57.11445
2014    16      5       0.1634201       45.23187
2014    16      6       0.192141        51.96686
2014    16      7       0.1709897       46.87213
2014    17      0       0.1888684       50.94419
2014    17      1       0.1713162       46.25827
2014    17      2       0.1592142       43.67101
2014    17      3       0.1781774       47.11491
2014    17      4       0.2244289       56.47607
2014    17      5       0.2007111       51.93268
2014    17      6       0.1851161       49.34441
2014    17      7       0.1374791       38.84281
2014    18      0       0.130399        36.99277
2014    18      1       0.1280824       36.11391
2014    18      2       0.1302091       36.52437
2014    18      3       0.134585        37.50389
2014    18      4       0.19215         49.86073
2014    18      5       0.2932828       69.66497
2014    18      6       0.3068122       72.83478
2014    18      7       0.3195401       75.77729
2014    19      0       0.2814494       69.51693
2014    19      1       0.2266291       59.23669
2014    19      2       0.3226725       79.45615
2014    19      3       0.1896202       51.2293
2014    19      4       0.1685873       46.399
2014    19      5       0.1732392       47.00275
2014    19      6       0.1608415       44.32205
2014    19      7       0.1620756       44.55827
2014    20      0       0.1592926       43.75194
2014    20      1       0.175426        46.88722
2014    20      2       0.1677331       45.38677
2014    20      3       0.1462216       40.51689
2014    20      4       0.1112702       32.69963
2014    20      5       0.117102        33.82408
2014    20      6       0.1293335       36.61732
2014    20      7       0.1277755       36.28757
2014    21      0       0.1133891       33.09287
2014    21      1       0.1247844       36.03369
2014    21      2       0.1249661       36.17966
2014    21      3       0.1352506       38.73268
2014    21      4       0.1353214       38.81029
2014    21      5       0.1168839       34.50472
2014    21      6       0.1097541       32.80377
2014    21      7       0.1019101       30.92389
2014    22      0       0.07664947      24.63186
2014    22      1       0.06261256      20.94545
2014    22      2       0.06735573      22.06044
2014    22      3       0.1042032       30.88709
2014    22      4       0.1354381       38.22388
2014    22      5       0.1250981       35.8202
2014    22      6       0.1041185       30.78809
2014    22      7       0.1071214       31.58043
2014    23      0       0.1102363       32.23795
2014    23      1       0.1049499       30.87519
2014    23      2       0.1120853       32.60245
2014    23      3       0.113991        32.81145
2014    23      4       0.1152276       33.15932
2014    23      5       0.1385356       39.05088
2014    23      6       0.1499629       41.6668
2014    23      7       0.1622379       44.44328
2014    24      0       0.1592248       44.0387
2014    24      1       0.1433228       40.63554
2014    24      2       0.1512962       42.52605
2014    24      3       0.1650585       45.59529
2014    24      4       0.1576749       43.91629
2014    24      5       0.1473012       41.52101
2014    24      6       0.1431775       40.59811
2014    24      7       0.1364787       39.10468
2014    25      0       0.1302227       37.60709
2014    25      1       0.1459169       41.17442
2014    25      2       0.1636376       45.20376
2014    25      3       0.1959221       52.54489
2014    25      4       0.2073721       55.06378
2014    25      5       0.1818545       49.33028
2014    25      6       0.197402        52.52325
2014    25      7       0.1702386       46.28764
2014    26      0       0.2035415       53.36489
2014    26      1       0.2228149       57.64607
2014    26      2       0.2231674       57.95944
2014    26      3       0.2079082       54.83298
2014    26      4       0.1893091       50.89338
2014    26      5       0.1780239       48.43566
2014    26      6       0.176682        47.95255
2014    26      7       0.1760864       47.7704
2014    27      0       0.1954818       51.50469
2014    27      1       0.2164383       55.39417
2014    27      2       0.1974384       51.62686
2014    27      3       0.1701561       46.04568
2014    27      4       0.1377167       38.91521
2014    27      5       0.1166727       34.03765
2014    27      6       0.1157855       33.74189
2014    27      7       0.1183878       34.30479
2014    28      0       0.09629414      28.98291
2014    28      1       0.1034117       30.77853
2014    28      2       0.1011366       30.077
2014    28      3       0.0996895       29.68444
2014    28      4       0.1013291       30.07781
2014    28      5       0.1013488       30.32346
2014    28      6       0.1038945       31.02736
2014    28      7       0.1055442       31.40296
2014    29      0       0.09778135      29.49881
2014    29      1       0.09768396      29.44214
2014    29      2       0.1159548       33.69299
2014    29      3       0.147737        40.93011
2014    29      4       0.1673351       45.19008
2014    29      5       0.1674535       45.2509
2014    29      6       0.1746463       46.94578
2014    29      7       0.1627829       44.25363
2014    30      0       0.1510005       41.50523
2014    30      1       0.1513639       41.73035
2014    30      2       0.1489415       41.13933
2014    30      3       0.1350642       37.94681
2014    30      4       0.1814929       48.18514
2014    30      5       0.2327534       58.71797
2014    30      6       0.3122032       73.91146
2014    30      7       0.4223091       93.23232
2015    1       0       0.1043035       31.29601
2015    1       1       0.1077818       32.05064
2015    1       2       0.1407218       39.66547
2015    1       3       0.1602686       44.15396
2015    1       4       0.1606097       44.31766
2015    1       5       0.1613702       44.68574
2015    1       6       0.1775243       48.44055
2015    1       7       0.188627        51.03877
2015    2       0       0.1811178       49.42087
2015    2       1       0.1664261       46.29222
2015    2       2       0.15975         44.79655
2015    2       3       0.1656112       46.06782
2015    2       4       0.1858453       50.64476
2015    2       5       0.2010569       54.02648
2015    2       6       0.212029        56.36412
2015    2       7       0.2316892       60.63211
2015    3       0       0.2283319       60.00768
2015    3       1       0.213228        56.9092
2015    3       2       0.2160852       57.42392
2015    3       3       0.2251401       59.08589
2015    3       4       0.2326641       60.47339
2015    3       5       0.2525374       64.31652
2015    3       6       0.2941646       72.34181
2015    3       7       0.315129        76.45601
2015    4       0       0.2759895       68.84249
2015    4       1       0.2425271       62.12605
2015    4       2       0.2258719       58.78809
2015    4       3       0.2141269       56.43489
2015    4       4       0.2004547       53.64213
2015    4       5       0.197036        53.04382
2015    4       6       0.1880706       51.15954
2015    4       7       0.1939694       52.31186
2015    5       0       0.1808285       49.17073
2015    5       1       0.1640916       45.45999
2015    5       2       0.1340234       38.38825
2015    5       3       0.1262103       36.5262
2015    5       4       0.135528        38.60247
2015    5       5       0.1350459       38.52436
2015    5       6       0.1645422       45.46623
2015    5       7       0.1957123       52.49896
2015    6       0       0.17026         46.52079
2015    6       1       0.1426536       40.24041
2015    6       2       0.1470058       41.38084
2015    6       3       0.1548782       43.18648
2015    6       4       0.1552813       43.29661
2015    6       5       0.1431012       40.64681
2015    6       6       0.1409271       39.95746
2015    6       7       0.1711265       46.35437
2015    7       0       0.2218086       56.7665
2015    7       1       0.2568117       63.75921
2015    7       2       0.282295        69.00085
2015    7       3       0.298193        72.5294
2015    7       4       0.2585121       65.31354
2015    7       5       0.2417609       62.01405
2015    7       6       0.2290905       59.47208
2015    7       7       0.2038437       53.95953
2015    8       0       0.186008        49.65147
2015    8       1       0.2048984       53.67783
2015    8       2       0.2151911       55.74107
2015    8       3       0.2095531       54.62572
2015    8       4       0.2084286       54.25025
2015    8       5       0.2118153       55.07662
2015    8       6       0.2185059       57.07238
2015    8       7       0.2200764       57.76326
2015    9       0       0.1781851       48.62569
2015    9       1       0.1433122       40.71751
2015    9       2       0.1357063       38.71932
2015    9       3       0.134606        38.34791
2015    9       4       0.1245875       35.94235
2015    9       5       0.122592        35.4848
2015    9       6       0.1195533       34.85894
2015    9       7       0.1178369       34.50515
2015    10      0       0.1188301       34.72836
2015    10      1       0.1125928       33.32896
2015    10      2       0.1251651       36.5425
2015    10      3       0.1604136       45.25955
2015    10      4       0.1509164       42.93021
2015    10      5       0.1405163       40.49391
2015    10      6       0.1235818       36.48719
2015    10      7       0.1246227       36.90365
2015    11      0       0.1117602       33.82055
2015    11      1       0.09517891      29.66862
2015    11      2       0.0918771       28.7714
2015    11      3       0.08355478      26.56871
2015    11      4       0.07228034      23.63195
2015    11      5       0.08813606      27.74767
2015    11      6       0.08871966      27.90256
2015    11      7       0.08177762      26.13529
2015    12      0       0.08028445      25.78925
2015    12      1       0.07562379      24.60301
2015    12      2       0.07819203      25.18976
2015    12      3       0.0905498       28.17737
2015    12      4       0.1349955       38.85121
2015    12      5       0.1870736       50.80108
2015    12      6       0.1880752       50.97041
2015    12      7       0.1811157       49.62187
2015    13      0       0.1560198       43.94896
2015    13      1       0.1277102       37.01439
2015    13      2       0.1361232       38.94193
2015    13      3       0.1596818       44.67312
2015    13      4       0.1521238       42.72038
2015    13      5       0.1468046       41.45872
2015    13      6       0.1730885       47.70026
2015    13      7       0.2159229       57.2817
2015    14      0       0.1984366       53.3138
2015    14      1       0.175202        47.96858
2015    14      2       0.1674713       45.93233
2015    14      3       0.1660073       45.46097
2015    14      4       0.1835908       49.20945
2015    14      5       0.1821969       48.80197
2015    14      6       0.2104456       54.84352
2015    14      7       0.2526037       63.77417
2015    15      0       0.2317784       59.33946
2015    15      1       0.2094599       54.51572
2015    15      2       0.2277781       58.09513
2015    15      3       0.2489475       62.3885
2015    15      4       0.2229943       57.22204
2015    15      5       0.2213422       56.7279
2015    15      6       0.2795513       67.85603
2015    15      7       0.2850594       68.86271
2015    16      0       0.3538832       81.10341
2015    16      1       0.4081972       90.7777
2015    16      2       0.3789762       86.5093
2015    16      3       0.2765526       68.34517
2015    16      4       0.3205721       77.8012
2015    16      5       0.1825581       49.2102
2015    16      6       0.16425         45.12562
2015    16      7       0.1180394       34.35932
2015    17      0       0.08491144      26.17217
2015    17      1       0.08155875      25.17106
2015    17      2       0.09707516      28.72654
2015    17      3       0.1094513       31.7391
2015    17      4       0.1466778       40.13835
2015    17      5       0.188134        49.60245
2015    17      6       0.2372132       60.20924
2015    17      7       0.2479264       62.43385
2015    18      0       0.2012396       52.96727
2015    18      1       0.2021246       53.14519
2015    18      2       0.1901704       50.62771
2015    18      3       0.177439        47.71271
2015    18      4       0.1681133       45.60217
2015    18      5       0.149739        41.36597
2015    18      6       0.1472244       40.84601
2015    18      7       0.1930003       50.97457
2015    19      0       0.2023081       52.92472
2015    19      1       0.2270375       57.97976
2015    19      2       0.2122761       54.45832
2015    19      3       0.2166622       54.98467
2015    19      4       0.2205279       55.90608
2015    19      5       0.2457669       61.15899
2015    19      6       0.2912393       69.59074
2015    19      7       0.3151931       74.00729
2015    20      0       0.2848278       68.12039
2015    20      1       0.2802112       67.37873
2015    20      2       0.3237046       75.76051
2015    20      3       0.4468279       97.40736
2015    20      4       0.5178438       109.0305
2015    20      5       0.4620285       100.2993
2015    20      6       0.3455253       79.78768
2015    20      7       0.2563437       63.49756
2015    21      0       0.256275        64.02738
2015    21      1       0.2611121       65.69474
2015    21      2       0.2964856       72.92705
2015    21      3       0.2948227       72.54761
2015    21      4       0.2853431       70.6384
2015    21      5       0.2821393       70.0076
2015    21      6       0.2830128       70.21355
2015    21      7       0.2787041       69.65299
2015    22      0       0.24355         62.72067
2015    22      1       0.2077545       55.24228
2015    22      2       0.1857521       50.46187
2015    22      3       0.1650746       45.96484
2015    22      4       0.1414121       40.59278
2015    22      5       0.1282403       37.4826
2015    22      6       0.1497394       42.3061
2015    22      7       0.1773848       48.44985
2015    23      0       0.1557325       43.39714
2015    23      1       0.1259532       36.27099
2015    23      2       0.1226268       35.49698
2015    23      3       0.1221265       35.60614
2015    23      4       0.1005652       30.48476
2015    23      5       0.08463667      26.55354
2015    23      6       0.0903879       28.11798
2015    23      7       0.0901423       28.15368
2015    24      0       0.07070281      23.22285
2015    24      1       0.06021351      20.54544
2015    24      2       0.06317945      21.35259
2015    24      3       0.06777075      22.53926
2015    24      4       0.0700601       23.13667
2015    24      5       0.0720391       23.59733
2015    24      6       0.07252889      23.73921
2015    24      7       0.07288156      23.90255
2015    25      0       0.06826861      22.7027
2015    25      1       0.06774649      22.54691
2015    25      2       0.05902302      20.32421
2015    25      3       0.05009165      18.03744
2015    25      4       0.1003911       30.48512
2015    25      5       0.2081298       54.72126
2015    25      6       0.2724927       67.68456
2015    25      7       0.3588829       83.39004
2015    26      0       0.4472618       99.45189
2015    26      1       0.3649925       86.28648
2015    26      2       0.3111764       75.98554
2015    26      3       0.2942258       72.2546
2015    26      4       0.2777269       69.21094
2015    26      5       0.2776985       69.54516
2015    26      6       0.2845341       71.17388
2015    26      7       0.3056061       75.49479
2015    27      0       0.2991677       74.27381
2015    27      1       0.2485793       64.31295
2015    27      2       0.2281985       60.01533
2015    27      3       0.2051648       54.88918
2015    27      4       0.1741074       47.97549
2015    27      5       0.1489533       42.2587
2015    27      6       0.143477        41.11308
2015    27      7       0.1535182       43.65245
2015    28      0       0.1351352       39.2523
2015    28      1       0.1267994       37.11776
2015    28      2       0.1489806       41.97199
2015    28      3       0.16717         45.81356
2015    28      4       0.1652706       45.43122
2015    28      5       0.1926288       51.48153
2015    28      6       0.2222561       57.94479
2015    28      7       0.2151907       56.65395
2015    29      0       0.2304608       59.91357
2015    29      1       0.2227232       58.34689
2015    29      2       0.2324475       60.3944
2015    29      3       0.2557076       65.40491
2015    29      4       0.2909891       72.67633
2015    29      5       0.2690281       68.19012
2015    29      6       0.2730389       69.04658
2015    29      7       0.2706354       68.74982
2015    30      0       0.2635906       67.37066
2015    30      1       0.2486533       64.28781
2015    30      2       0.2257453       59.54767
2015    30      3       0.2045135       54.86186
2015    30      4       0.1844789       50.45828
2015    30      5       0.1672694       46.65602
2015    30      6       0.1626609       45.63658
2015    30      7       0.1637787       45.62384
2016    1       0       0.4195255       94.71659
2016    1       1       0.3854049       90.36148
2016    1       2       0.4234714       97.22704
2016    1       3       0.4319375       98.24585
2016    1       4       0.3876925       90.33802
2016    1       5       0.403919        93.0909
2016    1       6       0.4447494       100.0849
2016    1       7       0.5240991       112.0708
2016    2       0       0.512827        109.991
2016    2       1       0.4429436       99.97105
2016    2       2       0.3955331       92.03518
2016    2       3       0.3421036       82.06406
2016    2       4       0.2953637       72.89036
2016    2       5       0.2745141       68.47942
2016    2       6       0.2381447       61.43426
2016    2       7       0.2462571       63.27307
2016    3       0       0.2206446       57.95709
2016    3       1       0.2299135       59.98161
2016    3       2       0.2302731       59.98737
2016    3       3       0.2450581       63.06418
2016    3       4       0.2477375       63.61254
2016    3       5       0.2801641       70.06522
2016    3       6       0.3168837       76.99708
2016    3       7       0.30387         74.58693
2016    4       0       0.2216385       57.72846
2016    4       1       0.1829303       49.29255
2016    4       2       0.1677038       45.85517
2016    4       3       0.137167        38.74236
2016    4       4       0.1204446       34.83221
2016    4       5       0.1171686       34.04395
2016    4       6       0.1406381       39.45877
2016    4       7       0.1826634       48.87108
2016    5       0       0.1940228       51.32517
2016    5       1       0.2005559       52.78649
2016    5       2       0.2326642       59.37991
2016    5       3       0.3266968       77.12332
2016    5       4       0.4427001       97.75366
2016    5       5       0.5521933       116.16
2016    5       6       0.5716024       120.058
2016    5       7       0.557038        118.2037
2016    6       0       0.4777426       105.5245
2016    6       1       0.3334819       80.63705
2016    6       2       0.2632594       66.57458
2016    6       3       0.2483071       63.31486
2016    6       4       0.2766961       69.43888
2016    6       5       0.2834722       70.74559
2016    6       6       0.3035606       74.68447
2016    6       7       0.2691264       67.68949
2016    7       0       0.2220489       57.46778
2016    7       1       0.2167198       56.05307
2016    7       2       0.2275866       58.11147
2016    7       3       0.243351        61.24863
2016    7       4       0.2958792       71.04065
2016    7       5       0.3051805       72.26479
2016    7       6       0.3300537       77.78277
2016    7       7       0.3023974       72.66396
2016    8       0       0.2555072       63.96589
2016    8       1       0.2662311       66.61666
2016    8       2       0.2418513       62.19707
2016    8       3       0.2496805       63.68471
2016    8       4       0.2483273       63.1489
2016    8       5       0.2241977       58.15645
2016    8       6       0.2223508       57.81565
2016    8       7       0.2171538       56.81654
2016    9       0       0.1876155       50.4194
2016    9       1       0.1415219       39.91586
2016    9       2       0.116969        34.09081
2016    9       3       0.09070704      27.67923
2016    9       4       0.07076986      22.73041
2016    9       5       0.07424377      23.70289
2016    9       6       0.07544497      24.14017
2016    9       7       0.08777258      27.20003
2016    10      0       0.06747626      21.98909
2016    10      1       0.05253999      18.21873
2016    10      2       0.0478395       16.92877
2016    10      3       0.04898044      17.11144
2016    10      4       0.05240748      17.78751
2016    10      5       0.06386291      20.48594
2016    10      6       0.08239914      24.85365
2016    10      7       0.1149139       32.67118
2016    11      0       0.1192341       34.12853
2016    11      1       0.1406176       39.17117
2016    11      2       0.2027646       52.75946
2016    11      3       0.2087926       54.36841
2016    11      4       0.1943497       51.34514
2016    11      5       0.2005127       52.80012
2016    11      6       0.2200931       56.87218
2016    11      7       0.2301471       58.79368
2016    12      0       0.27788         68.46039
2016    12      1       0.313424        75.72227
2016    12      2       0.3745804       86.87668
2016    12      3       0.4258836       96.00662
2016    12      4       0.3975849       91.5992
2016    12      5       0.3638605       85.74187
2016    12      6       0.3208159       77.58169
2016    12      7       0.2952903       72.53757
2016    13      0       0.2523353       63.82685
2016    13      1       0.2013465       52.86966
2016    13      2       0.2026987       52.93408
2016    13      3       0.3041625       72.28064
2016    13      4       0.3302937       77.34551
2016    13      5       0.4536263       98.22404
2016    13      6       0.533619        112.0089
2016    13      7       0.4988358       108.0644
2016    14      0       0.5862771       122.1018
2016    14      1       0.7172359       140.6283
2016    14      2       0.6327655       129.1825
2016    14      3       0.6079686       125.3988
2016    14      4       0.7100805       139.2735
2016    14      5       0.8782542       159.8284
2016    14      6       0.9023974       162.2161
2016    14      7       0.9139175       163.8354
2016    15      0       0.9455806       168.3224
2016    15      1       1.053802        179.0214
2016    15      2       1.152366        187.8981
2016    15      3       1.089563        181.6052
2016    15      4       1.005666        173.8757
2016    15      5       0.7439418       143.7831
2016    15      6       0.735085        142.0763
2016    15      7       0.8640974       157.6876
2016    16      0       0.8899072       161.2663
2016    16      1       0.8908162       162.1386
2016    16      2       0.7973209       152.1222
2016    16      3       0.9399182       168.165
2016    16      4       0.9842902       172.663
2016    16      5       1.126726        186.2503
2016    16      6       1.049242        179.2004
2016    16      7       1.179292        189.6863
2016    17      0       1.16593         188.4506
2016    17      1       1.002408        173.9949
2016    17      2       1.102325        182.6212
2016    17      3       1.10831         183.6681
2016    17      4       1.102917        182.7931
2016    17      5       0.9505834       167.4565
2016    17      6       1.067905        179.1678
2016    17      7       1.008571        173.6871
2016    18      0       0.9561841       169.1456
2016    18      1       0.7271739       142.2669
2016    18      2       0.6558652       132.557
2016    18      3       0.6429443       130.5384
2016    18      4       0.5807446       121.4886
2016    18      5       0.6912215       137.2272
2016    18      6       0.5565345       117.502
2016    18      7       0.4067184       93.24429
2016    19      0       0.2983758       73.38047
2016    19      1       0.2348718       60.5026
2016    19      2       0.1867302       50.13059
2016    19      3       0.1175833       34.24021
2016    19      4       0.09318636      28.23449
2016    19      5       0.09099498      27.69869
2016    19      6       0.08730011      26.75539
2016    19      7       0.0967866       29.17161
2016    20      0       0.08592227      26.29626
2016    20      1       0.1084295       31.65685
2016    20      2       0.1558371       42.77093
2016    20      3       0.2049426       53.53307
2016    20      4       0.2706441       66.85108
2016    20      5       0.3342016       78.81781
2016    20      6       0.3263663       77.99883
2016    20      7       0.3681407       85.74213
2016    21      0       0.3901068       89.78297
2016    21      1       0.4021482       92.03034
2016    21      2       0.4196029       95.03456
2016    21      3       0.4177912       94.66353
2016    21      4       0.4330243       97.54456
2016    21      5       0.4329212       97.73084
2016    21      6       0.3765296       88.364
2016    21      7       0.309237        76.35048
2016    22      0       0.2984837       73.78247
2016    22      1       0.2960555       72.72347
2016    22      2       0.3152569       76.25512
2016    22      3       0.37067         85.56592
2016    22      4       0.3951696       89.20749
2016    22      5       0.4634602       100.397
2016    22      6       0.5278411       111.3421
2016    22      7       0.4700965       102.729
2016    23      0       0.492848        106.2157
2016    23      1       0.6592262       129.9711
2016    23      2       0.7677632       144.5653
2016    23      3       0.7143581       138.1364
2016    23      4       0.7314142       141.3706
2016    23      5       0.7738          147.5622
2016    23      6       0.8610671       157.7891
2016    23      7       0.8728057       158.9662
2016    24      0       0.8462097       156.0599
2016    24      1       0.7285881       141.8481
2016    24      2       0.6797911       135.2238
2016    24      3       0.7338932       141.8549
2016    24      4       0.6058493       124.1751
2016    24      5       0.6664209       132.19
2016    24      6       0.5521674       116.0517
2016    24      7       0.4485977       99.29056
2016    25      0       0.3562647       82.95009
2016    25      1       0.270044        66.31778
2016    25      2       0.1908121       49.80349
2016    25      3       0.1507697       40.96743
2016    25      4       0.1359324       37.52865
2016    25      5       0.1479936       40.4038
2016    25      6       0.1258315       35.38413
2016    25      7       0.189073        49.20709
2016    26      0       0.1895217       49.50757
2016    26      1       0.1436841       39.70171
2016    26      2       0.1100757       32.31394
2016    26      3       0.1013058       30.40705
2016    26      4       0.0921204       28.17802
2016    26      5       0.08037921      25.41503
2016    26      6       0.09052587      27.9432
2016    26      7       0.08840184      27.46304
2016    27      0       0.08807755      27.19335
2016    27      1       0.09075191      27.48816
2016    27      2       0.09240581      27.89488
2016    27      3       0.09763418      28.97426
2016    27      4       0.1376825       37.80224
2016    27      5       0.2240172       55.83115
2016    27      6       0.3097073       72.68986
2016    27      7       0.3504645       81.07231
2016    28      0       0.3101679       73.80122
2016    28      1       0.2981981       71.82366
2016    28      2       0.4102455       91.39331
2016    28      3       0.4381666       96.67492
2016    28      4       0.4201587       93.99912
2016    28      5       0.3745637       86.3499
2016    28      6       0.3988343       89.88732
2016    28      7       0.4707026       101.8733
2016    29      0       0.4902283       105.2782
2016    29      1       0.5045499       107.9926
2016    29      2       0.4763768       103.8373
2016    29      3       0.4082828       93.04241
2016    29      4       0.4064436       92.74976
2016    29      5       0.3896546       90.27998
2016    29      6       0.3961267       91.60018
2016    29      7       0.3979955       92.01837
2016    30      0       0.3663942       86.44953
2016    30      1       0.3385964       81.61732
2016    30      2       0.346513        83.24723
2016    30      3       0.3581464       85.52631
2016    30      4       0.3698954       87.8991
2016    30      5       0.3705534       88.29585
2016    30      6       0.5090651       112.6288
2016    30      7       0.6632016       135.8393
2017    1       0       0.2045267       54.73123
2017    1       1       0.1952482       52.97129
2017    1       2       0.2204455       58.53136
2017    1       3       0.2562583       66.03596
2017    1       4       0.2980263       74.20293
2017    1       5       0.341204        82.20072
2017    1       6       0.3615947       85.82071
2017    1       7       0.3381989       81.44929
2017    2       0       0.2484822       63.83515
2017    2       1       0.1944446       52.20196
2017    2       2       0.1812254       49.0923
2017    2       3       0.1581534       43.76223
2017    2       4       0.1297015       37.27844
2017    2       5       0.1232267       35.71058
2017    2       6       0.1545366       43.06307
2017    2       7       0.1613819       44.26819
2017    3       0       0.1592721       43.45213
2017    3       1       0.1557113       42.77694
2017    3       2       0.1369942       38.31475
2017    3       3       0.1359006       37.81217
2017    3       4       0.1305624       36.927
2017    3       5       0.1552529       42.82237
2017    3       6       0.167622        45.58298
2017    3       7       0.1945073       51.49381
2017    4       0       0.2432029       61.59774
2017    4       1       0.2763839       68.33086
2017    4       2       0.2831644       69.83152
2017    4       3       0.3033324       73.54635
2017    4       4       0.2950476       71.8898
2017    4       5       0.3090874       74.52383
2017    4       6       0.3366924       80.15238
2017    4       7       0.327456        78.26261
2017    5       0       0.2718319       67.47249
2017    5       1       0.238452        60.89104
2017    5       2       0.2295162       59.25352
2017    5       3       0.214627        56.28733
2017    5       4       0.1690506       46.50946
2017    5       5       0.1514362       42.45744
2017    5       6       0.1589041       44.2685
2017    5       7       0.1762515       48.10783
2017    6       0       0.1515116       42.43104
2017    6       1       0.1188559       34.81604
2017    6       2       0.1081212       32.19613
2017    6       3       0.1079937       32.1745
2017    6       4       0.1076707       32.20282
2017    6       5       0.1164986       34.34078
2017    6       6       0.1817893       49.25162
2017    6       7       0.2289862       58.95241
2017    7       0       0.2645004       65.69233
2017    7       1       0.3073825       74.21998
2017    7       2       0.3898506       89.04988
2017    7       3       0.38027         88.97281
2017    7       4       0.4946461       108.7979
2017    7       5       0.3539367       84.05082
2017    7       6       0.3649758       85.83457
2017    7       7       0.2214751       57.55454
2017    8       0       0.1276874       36.43346
2017    8       1       0.09881094      29.32953
2017    8       2       0.09722702      29.0782
2017    8       3       0.1295179       36.61945
2017    8       4       0.1467925       40.12992
2017    8       5       0.2022305       52.34059
2017    8       6       0.2287691       57.94337
2017    8       7       0.2519581       62.33888
2017    9       0       0.193912        50.62442
2017    9       1       0.1546918       42.17018
2017    9       2       0.131906        37.01574
2017    9       3       0.1256175       35.57721
2017    9       4       0.1404121       38.82905
2017    9       5       0.1465853       40.2724
2017    9       6       0.160472        43.7022
2017    9       7       0.1715424       46.40137
2017    10      0       0.1631789       44.57362
2017    10      1       0.1562639       43.05817
2017    10      2       0.151407        41.97207
2017    10      3       0.1465897       40.92224
2017    10      4       0.1424133       39.99509
2017    10      5       0.1367001       38.76507
2017    10      6       0.1353058       38.51254
2017    10      7       0.1360988       38.81107
2017    11      0       0.1180888       34.59632
2017    11      1       0.1191245       34.91121
2017    11      2       0.1216407       35.40919
2017    11      3       0.1230289       35.66795
2017    11      4       0.1249376       36.20793
2017    11      5       0.1223483       35.72227
2017    11      6       0.1196045       35.213
2017    11      7       0.1276067       37.25387
2017    12      0       0.1538115       43.51399
2017    12      1       0.1732522       48.22352
2017    12      2       0.1924953       52.44842
2017    12      3       0.1774366       48.97969
2017    12      4       0.187544        51.21376
2017    12      5       0.2000687       53.85767
2017    12      6       0.2115306       56.21076
2017    12      7       0.2307109       60.25724
2017    13      0       0.2380065       61.98146
2017    13      1       0.2392405       62.67601
2017    13      2       0.2287964       60.32668
2017    13      3       0.188633        51.30227
2017    13      4       0.1514035       42.71519
2017    13      5       0.1487597       42.1959
2017    13      6       0.1486444       42.15806
2017    13      7       0.1601753       44.72402
2017    14      0       0.148021        41.96132
2017    14      1       0.1389576       39.70006
2017    14      2       0.1384332       39.37369
2017    14      3       0.1310427       37.32109
2017    14      4       0.1356741       38.07188
2017    14      5       0.1430537       39.84695
2017    14      6       0.1453935       40.76769
2017    14      7       0.1653371       45.31703
2017    15      0       0.1304189       36.72961
2017    15      1       0.1707288       45.16854
2017    15      2       0.1715319       45.24408
2017    15      3       0.1723584       45.4374
2017    15      4       0.16347         43.56739
2017    15      5       0.1161851       33.65828
2017    15      6       0.1287382       36.3167
2017    15      7       0.2736302       65.74491
2017    16      0       0.2507888       61.54345
2017    16      1       0.2227495       56.40128
2017    16      2       0.1979534       51.08639
2017    16      3       0.2074693       53.33153
2017    16      4       0.2116643       54.18969
2017    16      5       0.2187098       56.2418
2017    16      6       0.3399156       79.65078
2017    16      7       0.4084334       91.61373
2017    17      0       0.3753409       87.40803
2017    17      1       0.4519002       100.3294
2017    17      2       0.4036642       92.03959
2017    17      3       0.3218823       77.64275
2017    17      4       0.3040751       74.33802
2017    17      5       0.2878842       71.25073
2017    17      6       0.3482397       82.82122
2017    17      7       0.3962165       91.6296
2017    18      0       0.3951077       91.79872
2017    18      1       0.5578787       117.7362
2017    18      2       0.7294423       141.0296
2017    18      3       0.7110432       138.322
2017    18      4       0.7073278       137.7034
2017    18      5       0.684139        135.022
2017    18      6       0.6159444       126.318
2017    18      7       0.6471172       131.0726
2017    19      0       0.6686149       134.2652
2017    19      1       0.4826557       107.5523
2017    19      2       0.529449        114.7286
2017    19      3       0.5941841       123.2511
2017    19      4       0.4920622       107.5812
2017    19      5       0.4399597       98.83216
2017    19      6       0.5383085       114.6184
2017    19      7       0.548799        116.2133
2017    20      0       0.5791774       120.7036
2017    20      1       0.9128615       163.4954
2017    20      2       1.12386         184.4048
2017    20      3       1.229248        194.066
2017    20      4       1.128696        185.9094
2017    20      5       1.032542        177.2043
2017    20      6       1.185235        191.4971
2017    20      7       0.9154545       166.1351
2017    21      0       0.7916894       150.81
2017    21      1       0.7151424       140.5789
2017    21      2       0.5416527       116.1762
2017    21      3       0.4065531       94.22664
2017    21      4       0.2893824       71.92918
2017    21      5       0.2215046       57.33719
2017    21      6       0.2723616       67.7055
2017    21      7       0.3234118       77.62511
2017    22      0       0.3158277       76.27035
2017    22      1       0.3353381       80.2186
2017    22      2       0.4203999       95.26512
2017    22      3       0.454358        100.9864
2017    22      4       0.4455912       99.50971
2017    22      5       0.4110925       94.78914
2017    22      6       0.3201823       78.69605
2017    22      7       0.3359392       81.65546
2017    23      0       0.3896175       91.52398
2017    23      1       0.4389991       100.1481
2017    23      2       0.4114801       95.01444
2017    23      3       0.3768767       88.50306
2017    23      4       0.3818164       88.69767
2017    23      5       0.4261797       95.40386
2017    23      6       0.340589        80.34241
2017    23      7       0.3351302       79.7375
2017    24      0       0.2912399       71.71656
2017    24      1       0.2224687       57.68057
2017    24      2       0.2215954       57.13867
2017    24      3       0.2282222       58.25714
2017    24      4       0.2242767       57.62766
2017    24      5       0.2692482       66.26944
2017    24      6       0.359039        82.71711
2017    24      7       0.5038644       106.9215
2017    25      0       0.3827115       87.83532
2017    25      1       0.1645677       45.19332
2017    25      2       0.1621463       44.50644
2017    25      3       0.2135533       55.64291
2017    25      4       0.2283089       58.59343
2017    25      5       0.2640839       65.62399
2017    25      6       0.2018881       52.20446
2017    25      7       0.1927532       50.29765
2017    26      0       0.1325771       36.91042
2017    26      1       0.121203        34.45303
2017    26      2       0.1236967       35.13576
2017    26      3       0.1209344       34.82424
2017    26      4       0.1129847       33.07242
2017    26      5       0.1054576       31.22956
2017    26      6       0.1087436       31.68383
2017    26      7       0.112561        32.55425
2017    27      0       0.1207324       34.28554
2017    27      1       0.1640459       44.18461
2017    27      2       0.2108675       54.41328
2017    27      3       0.2327986       58.96722
2017    27      4       0.2200771       56.55452
2017    27      5       0.2090056       54.38267
2017    27      6       0.2218116       57.28524
2017    27      7       0.2455866       62.29299
2017    28      0       0.2224777       57.81926
2017    28      1       0.1788364       48.51622
2017    28      2       0.1572065       43.70238
2017    28      3       0.1634941       45.15691
2017    28      4       0.205158        54.62011
2017    28      5       0.194082        52.20888
2017    28      6       0.1979841       53.10924
2017    28      7       0.2020705       54.0378
2017    29      0       0.1838026       50.04236
2017    29      1       0.1631511       45.4189
2017    29      2       0.1486057       42.01735
2017    29      3       0.1376294       39.30013
2017    29      4       0.1188592       34.79986
2017    29      5       0.1126968       33.23551
2017    29      6       0.1345095       38.39788
2017    29      7       0.1458209       41.16987
2017    30      0       0.1294171       37.37556
2017    30      1       0.1201866       35.24794
2017    30      2       0.115665        34.1635
2017    30      3       0.1119186       33.21552
2017    30      4       0.1117617       33.10553
2017    30      5       0.1257473       36.41525
2017    30      6       0.1423633       40.35225
2017    30      7       0.1472929       41.37402
2018    1       0       0.2544791       65.66991
2018    1       1       0.2348086       61.46056
2018    1       2       0.2251955       59.54091
2018    1       3       0.230939        60.61323
2018    1       4       0.2082322       55.78573
2018    1       5       0.2115099       56.67768
2018    1       6       0.2588126       66.73104
2018    1       7       0.2883691       72.9065
2018    2       0       0.300378        75.33516
2018    2       1       0.3399637       83.2012
2018    2       2       0.3886373       92.20395
2018    2       3       0.3954716       93.30892
2018    2       4       0.4062415       95.24382
2018    2       5       0.4185669       97.5824
2018    2       6       0.4402002       101.3517
2018    2       7       0.4062446       95.29741
2018    3       0       0.3427954       83.60302
2018    3       1       0.2619726       67.55087
2018    3       2       0.2384758       62.51132
2018    3       3       0.2095614       56.15235
2018    3       4       0.2209689       58.68484
2018    3       5       0.2692223       68.94394
2018    3       6       0.2822569       71.52731
2018    3       7       0.3138759       77.59517
2018    4       0       0.2942428       73.43281
2018    4       1       0.2854511       71.38328
2018    4       2       0.2845134       71.11048
2018    4       3       0.2880394       71.58066
2018    4       4       0.272173        68.51736
2018    4       5       0.2653813       67.35804
2018    4       6       0.2759204       69.64698
2018    4       7       0.2938234       73.39489
2018    5       0       0.2205363       58.23264
2018    5       1       0.1758055       48.20773
2018    5       2       0.2043728       54.39643
2018    5       3       0.2658705       67.38727
2018    5       4       0.2528651       64.90977
2018    5       5       0.24506         63.46642
2018    5       6       0.3615058       86.81955
2018    5       7       0.4519229       102.7701
2018    6       0       0.4121248       95.52365
2018    6       1       0.3806926       89.4403
2018    6       2       0.3410909       81.14431
2018    6       3       0.3944795       90.24737
2018    6       4       0.3804413       88.33121
2018    6       5       0.369802        86.35158
2018    6       6       0.4534249       100.7042
2018    6       7       0.4116452       93.41172
2018    7       0       0.3099749       74.90375
2018    7       1       0.2742197       67.81861
2018    7       2       0.2846312       69.68582
2018    7       3       0.300596        72.82986
2018    7       4       0.3133159       75.56546
2018    7       5       0.3002761       73.66317
2018    7       6       0.3141874       76.87636
2018    7       7       0.2966041       73.61676
2018    8       0       0.2241369       58.84816
2018    8       1       0.168918        46.84927
2018    8       2       0.1424723       40.70808
2018    8       3       0.1575722       44.05851
2018    8       4       0.2212142       58.19298
2018    8       5       0.2397857       62.07011
2018    8       6       0.1728595       47.32362
2018    8       7       0.1650269       45.6559
2018    9       0       0.1588909       44.10238
2018    9       1       0.1322434       38.02613
2018    9       2       0.1447419       41.02548
2018    9       3       0.1563808       43.65422
2018    9       4       0.1653863       45.76144
2018    9       5       0.1851263       50.18244
2018    9       6       0.2130336       56.21353
2018    9       7       0.1957973       52.41939
2018    10      0       0.1759289       48.03243
2018    10      1       0.1697723       46.54762
2018    10      2       0.1810733       48.87347
2018    10      3       0.1895693       50.60773
2018    10      4       0.1995473       52.53995
2018    10      5       0.3243745       77.5384
2018    10      6       0.3630729       85.2586
2018    10      7       0.5464988       115.0148
2018    11      0       0.4673922       102.753
2018    11      1       0.4225126       96.01044
2018    11      2       0.4058315       93.60913
2018    11      3       0.4015589       92.62782
2018    11      4       0.395278        91.68568
2018    11      5       0.3696276       87.06876
2018    11      6       0.3379373       81.3335
2018    11      7       0.3181696       77.61444
2018    12      0       0.2048692       54.30841
2018    12      1       0.1544753       43.23455
2018    12      2       0.1296411       37.54246
2018    12      3       0.1082141       32.50295
2018    12      4       0.1022647       31.10037
2018    12      5       0.09426462      29.17371
2018    12      6       0.08936015      28.02218
2018    12      7       0.09264952      28.9482
2018    13      0       0.09161846      28.70105
2018    13      1       0.08353004      26.67805
2018    13      2       0.08608045      27.28902
2018    13      3       0.06923815      22.92564
2018    13      4       0.06796742      22.60031
2018    13      5       0.07618849      24.7278
2018    13      6       0.08743847      27.64111
2018    13      7       0.08238482      26.37279
2018    14      0       0.06649131      22.28417
2018    14      1       0.05599455      19.51505
2018    14      2       0.06184195      21.03533
2018    14      3       0.06556534      22.00041
2018    14      4       0.0607279       20.72379
2018    14      5       0.05611741      19.53514
2018    14      6       0.05524944      19.34544
2018    14      7       0.05484874      19.27989
2018    15      0       0.05037539      18.03557
2018    15      1       0.0502508       17.94311
2018    15      2       0.0497848       17.69623
2018    15      3       0.04649954      16.71455
2018    15      4       0.05605875      18.94755
2018    15      5       0.0628175       20.65423
2018    15      6       0.07589774      23.76669
2018    15      7       0.1034308       30.07048
2018    16      0       0.2432231       60.14462
2018    16      1       0.2315344       59.3774
2018    16      2       0.2404629       61.12023
2018    16      3       0.2472103       62.13614
2018    16      4       0.2487366       62.51084
2018    16      5       0.3170071       76.20445
2018    16      6       0.4936286       107.1438
2018    16      7       0.4933945       107.3091
2018    17      0       0.3803641       88.99055
2018    17      1       0.3607991       85.01037
2018    17      2       0.3814419       87.81679
2018    17      3       0.3507102       82.05951
2018    17      4       0.1946407       52.00568
2018    17      5       0.1751526       47.73681
2018    17      6       0.2067737       54.15782
2018    17      7       0.2039532       53.79147
2018    18      0       0.2065381       54.53531
2018    18      1       0.2418646       61.89394
2018    18      2       0.243905        62.21042
2018    18      3       0.3235886       77.26746
2018    18      4       0.3742527       86.39596
2018    18      5       0.3676389       85.66519
2018    18      6       0.3397353       81.18277
2018    18      7       0.3314362       80.04686
2018    19      0       0.2803606       70.08858
2018    19      1       0.2260338       59.03434
2018    19      2       0.1919285       51.6092
2018    19      3       0.155327        43.37019
2018    19      4       0.1110443       33.1889
2018    19      5       0.09520044      29.36223
2018    19      6       0.09948261      30.41525
2018    19      7       0.106113        32.02209
2018    20      0       0.1013164       30.81008
2018    20      1       0.0940292       29.0844
2018    20      2       0.09226752      28.69222
2018    20      3       0.1086475       32.6757
2018    20      4       0.1272715       37.07595
2018    20      5       0.1418821       40.45462
2018    20      6       0.1542026       43.37233
2018    20      7       0.1548994       43.61916
2018    21      0       0.1212438       35.70365
2018    21      1       0.08625407      27.14056
2018    21      2       0.07397584      24.03434
2018    21      3       0.06971992      22.94859
2018    21      4       0.0691538       22.82978
2018    21      5       0.08361453      26.61725
2018    21      6       0.1017089       31.08882
2018    21      7       0.1396852       39.89272
2018    22      0       0.146106        41.24379
2018    22      1       0.1345935       38.37897
2018    22      2       0.1368359       38.91498
2018    22      3       0.1424918       40.32275
2018    22      4       0.1352792       38.75665
2018    22      5       0.1302577       37.63849
2018    22      6       0.1354238       38.92166
2018    22      7       0.1509631       42.43704
2018    23      0       0.1772203       48.10007
2018    23      1       0.1784007       48.39808
2018    23      2       0.174331        47.82614
2018    23      3       0.1615814       44.47065
2018    23      4       0.1344674       37.81066
2018    23      5       0.1271443       36.02983
2018    23      6       0.1284407       36.56208
2018    23      7       0.1368788       38.73565
2018    24      0       0.1520587       41.83048
2018    24      1       0.1722458       45.98723
2018    24      2       0.1710504       45.826
2018    24      3       0.1615559       44.20042
2018    24      4       0.1549884       43.05406
2018    24      5       0.1426826       40.36932
2018    24      6       0.1494212       41.82436
2018    24      7       0.1401831       39.81751
2018    25      0       0.1125948       33.11191
2018    25      1       0.1031387       30.85794
2018    25      2       0.09680736      29.45329
2018    25      3       0.1069087       31.85731
2018    25      4       0.09578663      29.2553
2018    25      5       0.07675171      24.74794
2018    25      6       0.07541783      24.22557
2018    25      7       0.1226334       35.09505
2018    26      0       0.1785032       47.24848
2018    26      1       0.1652863       44.48242
2018    26      2       0.1395074       39.06594
2018    26      3       0.1174688       34.13255
2018    26      4       0.09677955      29.20553
2018    26      5       0.1012261       30.3183
2018    26      6       0.1182794       34.43014
2018    26      7       0.1316681       37.58304
2018    27      0       0.1462656       40.77285
2018    27      1       0.1466864       40.97151
2018    27      2       0.1458558       40.81711
2018    27      3       0.1417562       39.8346
2018    27      4       0.1676902       45.38593
2018    27      5       0.2023507       53.27354
2018    27      6       0.2449302       62.56223
2018    27      7       0.2793468       69.99981
2018    28      0       0.2711009       68.40407
2018    28      1       0.2250487       58.73315
2018    28      2       0.2033284       53.91478
2018    28      3       0.1914267       51.10779
2018    28      4       0.1696035       45.94781
2018    28      5       0.1707827       46.83501
2018    28      6       0.2548535       64.69802
2018    28      7       0.276475        69.44258
2018    29      0       0.2673876       67.72248
2018    29      1       0.288572        71.97534
2018    29      2       0.3067704       75.33208
2018    29      3       0.2851002       70.94959
2018    29      4       0.2612483       66.374
2018    29      5       0.219925        57.75801
2018    29      6       0.2396709       61.91435
2018    29      7       0.2172149       57.2242
2018    30      0       0.1656411       46.19646
2018    30      1       0.1604127       45.03742
2018    30      2       0.1494974       42.39979
2018    30      3       0.1347606       38.81229
2018    30      4       0.1318484       37.86294
2018    30      5       0.1560275       43.25636
2018    30      6       0.1777499       48.0709
2018    30      7       0.1966411       52.26004
