####################################################################################################
# Month: 04Apr                                                                                     #
# Station: JCMT                                                                                    #
# Frequency: 345 GHz                                                                               #
# Columns are: year    day     tau     Tb (K)                                                      #
####################################################################################################
2009    1       0.64597735      122.67578125
2009    2       0.49304294      100.6138825
2009    3       0.21280634      54.72467875
2009    4       0.31873122      75.0602525
2009    5       0.56091202      114.03919625
2009    6       0.69136299      130.8830375
2009    7       0.47549866      102.26091375
2009    8       0.39873608      88.80597
2009    9       0.87802889      154.0793625
2009    10      1.22222938      185.7022875
2009    11      0.75690058      136.35135
2009    12      0.16027132      44.0749775
2009    13      0.12163216      35.56004125
2009    14      0.16825588      45.48958125
2009    15      0.32822796      76.71302375
2009    16      0.60274469      122.283425
2009    17      0.58277184      117.74275125
2009    18      0.42844126      94.6116875
2009    19      0.21283794      55.1678575
2009    20      0.28690805      70.0018675
2009    21      0.61837715      122.2509375
2009    22      0.63304071      125.4549
2009    23      0.43951062      95.58338125
2009    24      0.65816192      125.89759375
2009    25      0.22068669      54.77183875
2009    26      0.25772609      63.7953175
2009    27      0.35692255      83.3635
2009    28      0.45596748      100.0011675
2009    29      0.68509272      132.510315
2009    30      0.78397416      147.9170125
2010    1       0.10583678      32.24897875
2010    2       0.14897587      42.19041125
2010    3       0.16917207      45.76332
2010    4       0.13266984      38.32898625
2010    5       0.15422192      43.30969
2010    6       0.17927732      47.99378125
2010    7       0.39002086      87.85846
2010    8       0.23588582      57.31928375
2010    9       0.09073735      28.73193375
2010    10      0.14339138      39.9440375
2010    11      0.08614271      26.7671875
2010    12      0.06529522      22.29574
2010    13      0.0760764       24.92061875
2010    14      0.12008595      34.60151375
2010    15      0.23020846      57.70442
2010    16      0.08070345      25.46232875
2010    17      0.10318601      31.928675
2010    18      0.12807736      37.74083
2010    19      0.1180456       35.14122375
2010    20      0.10564814      32.02848
2010    21      0.07869355      25.64589
2010    22      0.11454883      33.65892625
2010    23      0.13052569      37.67871875
2010    24      0.11160041      33.42142
2010    25      0.11435379      34.1834
2010    26      0.21459462      54.91289625
2010    27      0.36813254      85.47906125
2010    28      0.23687818      61.61189375
2010    29      0.22948882      59.7696975
2010    30      0.15784239      44.00841
2011    1       0.27547539      68.0598425
2011    2       0.27888148      68.87529375
2011    3       0.14688225      41.9520525
2011    4       0.30341774      72.6424675
2011    5       0.44891941      96.42478125
2011    6       0.81221454      145.0105
2011    7       1.09307432      174.3089875
2011    8       1.24501575      187.7396625
2011    9       1.21821712      186.781325
2011    10      1.1183185       178.7872125
2011    11      1.00712142      169.462775
2011    12      0.71985212      137.5501125
2011    13      0.59069032      120.8941125
2011    14      0.67431846      132.565025
2011    15      0.66547841      129.79159
2011    16      0.2962981       72.1006175
2011    17      0.2126168       54.77835625
2011    18      0.1561114       43.06512875
2011    19      0.21068846      54.01727875
2011    20      0.21232446      54.6328125
2011    21      0.21370081      55.2591825
2011    22      0.25143565      62.40797
2011    23      0.19280084      51.17514
2011    24      0.13035         37.41772125
2011    25      0.33865248      77.1066575
2011    26      0.79858048      147.3184
2011    27      0.76050805      141.9010375
2011    28      0.64086361      126.4414625
2011    29      0.46119828      100.06472375
2011    30      0.45484206      97.07532625
2012    1       0.12584949      36.83623125
2012    2       0.14042644      40.24577125
2012    3       0.1906774       50.37316375
2012    4       0.37158528      84.50924
2012    5       0.47294879      101.66793
2012    6       0.66456938      128.8042875
2012    7       0.72265794      137.1247125
2012    8       0.50781315      104.092135
2012    9       0.08772601      27.6518075
2012    10      0.09958031      30.81606625
2012    11      0.10003178      30.82241875
2012    12      0.17321476      45.49909875
2012    13      0.42282064      93.87212375
2012    14      0.38527124      87.20912875
2012    15      0.37952771      85.98461125
2012    16      0.22705619      57.935135
2012    17      0.14776673      41.02461875
2012    18      0.20442669      52.50559625
2012    19      0.28750751      68.508855
2012    20      0.26992656      66.0595375
2012    21      0.13688913      38.71149
2012    22      0.13453638      38.56023875
2012    23      0.08013611      26.13156375
2012    24      0.10175257      31.5799225
2012    25      0.08972671      28.65304
2012    26      0.08717641      27.970285
2012    27      0.07952545      25.8217775
2012    28      0.07847383      25.21283625
2012    29      0.11481611      33.915995
2012    30      0.05714028      20.3941625
2013    1       0.20700031      52.439805
2013    2       0.2459438       61.96042375
2013    3       0.34161114      80.71474375
2013    4       0.2239091       58.37311875
2013    5       0.13730276      39.32218125
2013    6       0.19829415      52.13795875
2013    7       0.17300641      46.7259725
2013    8       0.10543203      32.01123625
2013    9       0.09743348      29.72815625
2013    10      0.08410938      26.63305875
2013    11      0.09306474      29.15867625
2013    12      0.1852966       48.82363125
2013    13      0.43605694      95.15699625
2013    14      0.48362206      102.92717625
2013    15      0.56465857      115.3246375
2013    16      0.51353287      105.27595875
2013    17      0.24181065      61.038305
2013    18      0.18263862      48.771775
2013    19      0.2344598       59.47343125
2013    20      0.23601806      59.63111875
2013    21      0.19390664      51.71638375
2013    22      0.20058144      52.86758625
2013    23      0.15572846      42.95564625
2013    24      0.267603        66.55496
2013    25      0.3309218       78.14941125
2013    26      0.26612535      65.66264125
2013    27      0.24231085      61.21090625
2013    28      0.18908715      50.37176
2013    29      0.42283549      93.1496025
2013    30      0.5731574       118.7640875
2014    1       1.13913618      180.263125
2014    2       0.44296368      94.54397875
2014    3       0.1528606       43.035105
2014    4       0.07337234      24.6034725
2014    5       0.07875633      25.710535
2014    6       0.22225403      55.61527875
2014    7       0.24224042      59.54814125
2014    8       0.12480283      35.61812875
2014    9       0.19251255      51.32345375
2014    10      0.1184608       35.14845875
2014    11      0.2894054       70.35500125
2014    12      0.29242511      70.4380975
2014    13      0.16820133      45.11618125
2014    14      0.1239249       36.23232875
2014    15      0.1224714       35.53891625
2014    16      0.21390882      55.5107725
2014    17      0.12238436      35.73461875
2014    18      0.20930646      52.83235125
2014    19      0.39995792      87.88335125
2014    20      0.51702688      107.48515875
2014    21      0.39892004      88.49450625
2014    22      0.37536855      85.35861125
2014    23      0.38993849      88.38827
2014    24      0.35018792      81.7213625
2014    25      0.29351162      71.33682625
2014    26      0.30459158      71.93902375
2014    27      0.37234771      83.43143125
2014    28      0.44573268      96.81954375
2014    29      0.2062832       54.55232625
2014    30      0.1381879       39.14874
2015    1       0.11634036      34.20224875
2015    2       0.11144256      32.6862375
2015    3       0.2537341       62.655145
2015    4       0.37439709      85.208455
2015    5       0.4498986       97.86220875
2015    6       0.16727204      45.42175625
2015    7       0.24969735      61.33504125
2015    8       0.56180674      113.68980375
2015    9       0.53001642      110.0506825
2015    10      0.43482324      96.0900275
2015    11      0.44983859      98.34111125
2015    12      0.3097763       74.24317375
2015    13      0.39326298      88.9805575
2015    14      0.6933933       131.06609875
2015    15      0.8199585       146.1865125
2015    16      0.36173276      82.26171625
2015    17      0.17087892      46.427945
2015    18      0.16451349      45.45720375
2015    19      0.11369544      34.17489625
2015    20      0.13132182      38.385185
2015    21      0.11984519      35.62737625
2015    22      0.10505125      32.14547375
2015    23      0.22401994      57.4581675
2015    24      0.23422289      60.03856375
2015    25      0.34106104      80.14520625
2015    26      0.3003724       73.628305
2015    27      0.19976366      52.737525
2015    28      0.1396677       39.20529
2015    29      0.09435292      28.9593225
2015    30      0.11763147      34.13326
2016    1       0.10911992      32.84755875
2016    2       0.12959659      37.54411125
2016    3       0.13218158      38.29504
2016    4       0.13615449      39.33139125
2016    5       0.12539009      36.75607
2016    6       0.09996109      30.41516
2016    7       0.07595936      24.919115
2016    8       0.1075651       32.58217375
2016    9       0.1063279       32.5582025
2016    10      0.1468692       42.032545
2016    11      0.09797472      30.5131275
2016    12      0.08216545      26.60966625
2016    13      0.09424155      29.49313375
2016    14      0.10560992      32.373215
2016    15      0.08111257      26.58048125
2016    16      0.08606862      27.46811625
2016    17      0.08228651      26.76403375
2016    18      0.10128523      31.68824875
2016    19      0.12256199      36.4842
2016    20      0.12212262      36.409535
2016    21      0.15496131      43.7853225
2016    22      0.12787621      37.84003125
2016    23      0.14695014      42.07975
2016    24      0.16419189      46.21118875
2016    25      0.19120432      51.86042125
2016    26      0.1217198       36.2444725
2016    27      0.12141911      35.96353125
2016    28      0.13633256      39.27331875
2016    29      0.11151719      33.594785
2016    30      0.10286812      31.44548875
2017    1       0.16471026      44.87483125
2017    2       0.17705034      47.86789375
2017    3       0.19336031      51.79529625
2017    4       0.09498504      29.56336125
2017    5       0.27675352      68.72838
2017    6       0.1917096       51.99771875
2017    7       0.23068591      60.288215
2017    8       0.15452124      43.50366625
2017    9       0.1114515       33.613235
2017    10      0.12545955      36.373835
2017    11      0.20722251      53.25857
2017    12      0.3117278       74.357225
2017    13      0.37847358      86.44932375
2017    14      0.42894324      94.89501125
2017    15      0.2350511       57.2677975
2017    16      0.21063454      55.32586125
2017    17      0.14664204      41.6366575
2017    18      0.15839477      43.31783375
2017    19      0.28417446      69.5709575
2017    20      0.20743216      54.51168
2017    21      0.16695589      46.10517125
2017    22      0.18232856      48.5773825
2017    23      0.2460959       60.3403625
2017    24      0.3642704       81.65542
2017    25      0.37184646      83.4942275
2017    26      0.36711516      84.51539125
2017    27      0.24343091      61.2024025
2017    28      0.34282161      74.63895125
2017    29      0.43376221      93.53798
2017    30      0.87485651      149.2623225
2018    1       0.85920685      153.387875
2018    2       1.26582971      186.13165
2018    3       1.428461        202.9512625
2018    4       1.2924293       192.0248125
2018    5       0.86152235      156.8378
2018    6       1.0003038       170.7583625
2018    7       1.22153675      188.3684625
2018    8       1.19673801      184.2577875
2018    9       1.58735         210.0054
2018    10      0.42015319      87.28875125
2018    11      0.16528129      45.38409125
2018    12      0.24817094      63.04859125
2018    13      0.35366699      82.5392925
2018    14      0.65482374      126.50425
2018    15      1.00286361      166.546625
2018    16      1.02325498      169.6459125
2018    17      0.80759692      147.332225
2018    18      0.55749666      113.90071625
2018    19      0.86244584      149.5902625
2018    20      1.52507688      207.863625
2018    21      0.33432951      73.464485
2018    22      0.2530089       63.15690875
2018    23      0.3458006       80.73161875
2018    24      0.25750906      64.893525
2018    25      0.14671404      41.52160125
2018    26      0.13966719      39.45289875
2018    27      0.22616881      56.703495
2018    28      0.84342399      147.0521
2018    29      0.51019445      106.9681725
2018    30      1.02644867      167.313875
