####################################################################################################
# Month: 03Mar                                                                                     #
# Station: WF                                                                                      #
# Frequency: 230 GHz                                                                               #
# Columns are: year    day     segment         tau     Tb (K)                                      #
####################################################################################################
2009    1       0       0.1863073       48.39399
2009    1       1       0.1641257       43.41221
2009    1       2       0.2307014       58.9339
2009    1       3       0.3003006       72.55427
2009    1       4       0.5236746       109.9018
2009    1       5       0.6958092       135.4581
2009    1       6       0.6645409       132.9514
2009    1       7       0.6002028       124.4581
2009    2       0       0.517466        111.4713
2009    2       1       0.5303557       113.7628
2009    2       2       0.6392874       128.3104
2009    2       3       0.8040764       149.3376
2009    2       4       0.8125029       147.4387
2009    2       5       0.8094774       147.2201
2009    2       6       0.670654        136.6777
2009    2       7       0.5312453       114.2585
2009    3       0       0.3588262       83.75551
2009    3       1       0.3165285       75.12675
2009    3       2       0.3230333       76.24885
2009    3       3       0.3752292       83.75276
2009    3       4       0.3093743       73.01901
2009    3       5       0.3412736       79.98585
2009    3       6       0.2893112       68.49849
2009    3       7       0.2658397       63.926
2009    4       0       0.222596        55.03224
2009    4       1       0.1943383       49.09218
2009    4       2       0.2031239       50.79147
2009    4       3       0.2083451       51.72004
2009    4       4       0.1884196       47.50999
2009    4       5       0.2066667       51.44773
2009    4       6       0.2662143       63.71499
2009    4       7       0.2926584       68.95771
2009    5       0       0.2932428       69.05798
2009    5       1       0.2633558       63.31666
2009    5       2       0.240372        58.77919
2009    5       3       0.2073009       52.26749
2009    5       4       0.1716173       44.94352
2009    5       5       0.1675646       44.17765
2009    5       6       0.2741047       66.39994
2009    5       7       0.3926868       88.48744
2009    6       0       0.4733905       102.0319
2009    6       1       0.6657393       129.454
2009    6       2       0.4939277       106.0882
2009    6       3       0.6775955       133.7439
2009    6       4       1.070025        178.524
2009    6       5       0.7941636       150.5876
2009    6       6       0.8668667       160.1699
2009    6       7       1.045956        179.8572
2009    7       0       1.105819        186.4258
2009    7       1       1.350682        207.1778
2009    7       2       0.8816855       163.9515
2009    7       3       0.831849        156.3998
2009    7       4       0.6698496       134.7001
2009    7       5       0.6066522       125.7764
2009    7       6       0.7460504       145.1741
2009    7       7       0.8169854       153.6414
2009    8       0       0.9511012       167.5521
2009    8       1       1.31483         199.4551
2009    8       2       1.753994        227.7095
2009    8       3       2.181316        245.6377
2009    8       4       1.055274        179.0328
2009    8       5       0.7180748       141.2343
2009    8       6       0.6870772       137.4857
2009    8       7       0.746856        145.3929
2009    9       0       0.6450852       130.2922
2009    9       1       0.4673796       102.1555
2009    9       2       0.5402708       113.5787
2009    9       3       0.8252611       151.3257
2009    9       4       0.9559056       171.4541
2009    9       5       0.9736775       169.3497
2009    9       6       1.172948        183.7282
2009    9       7       0.8486661       153.3354
2009    10      0       0.6170556       124.2144
2009    10      1       0.5748952       118.8075
2009    10      2       0.4704889       103.149
2009    10      3       0.3915423       89.90379
2009    10      4       0.3704315       85.91489
2009    10      5       0.4353847       97.00293
2009    10      6       0.5353944       112.9251
2009    10      7       0.6649003       130.6172
2009    11      0       0.800978        147.6807
2009    11      1       0.829665        151.9015
2009    11      2       0.7940187       147.5556
2009    11      3       1.009975        173.7299
2009    11      4       1.547784        213.7836
2009    11      5       3.31005         265.2041
2009    11      6       2.525644        254.0299
2009    11      7       1.537353        217.58
2009    12      0       0.9124118       164.8531
2009    12      1       0.4900023       109.5593
2009    12      2       0.3961127       93.61145
2009    12      3       0.2855279       71.9563
2009    12      4       0.2764784       69.34915
2009    12      5       0.2691792       67.14066
2009    12      6       0.2952066       70.56445
2009    12      7       0.2977469       70.89089
2009    13      0       0.2600454       63.22725
2009    13      1       0.2297636       56.98162
2009    13      2       0.1898086       49.36814
2009    13      3       0.1797737       46.32624
2009    13      4       0.1554121       41.83263
2009    13      5       0.1909085       49.8094
2009    13      6       0.255155        62.03514
2009    13      7       0.3542517       80.93205
2009    14      0       0.4008974       89.39159
2009    14      1       0.3740079       84.936
2009    14      2       0.357439        82.25959
2009    14      3       0.3326163       78.26894
2009    14      4       0.297457        71.77511
2009    14      5       0.3072619       73.69419
2009    14      6       0.3834886       88.48362
2009    14      7       0.4426781       99.38419
2009    15      0       0.4187371       95.08409
2009    15      1       0.3915983       89.96938
2009    15      2       0.3706149       86.2415
2009    15      3       0.3217097       77.42721
2009    15      4       0.3057484       74.15426
2009    15      5       0.3740954       86.86319
2009    15      6       0.4959613       108.0799
2009    15      7       0.5244321       113.0645
2009    16      0       0.472492        104.512
2009    16      1       0.4622627       102.6648
2009    16      2       0.5451953       115.7293
2009    16      3       0.5981262       123.2446
2009    16      4       0.5894125       121.4469
2009    16      5       0.5952389       122.0006
2009    16      6       0.5449639       114.5408
2009    16      7       0.5802892       119.8809
2009    17      0       0.5203629       111.2241
2009    17      1       0.5347625       113.3172
2009    17      2       0.5397685       113.5565
2009    17      3       0.546952        114.2475
2009    17      4       0.512792        108.9584
2009    17      5       0.4839852       104.3798
2009    17      6       0.5759722       118.8504
2009    17      7       0.6448197       129.2018
2009    18      0       0.6863662       135.6671
2009    18      1       0.6505117       131.6361
2009    18      2       0.6010943       125.0161
2009    18      3       0.5274207       114.1666
2009    18      4       0.6166274       127.0735
2009    18      5       0.8106798       152.7707
2009    18      6       1.228631        193.9355
2009    18      7       1.573698        217.764
2009    19      0       1.561411        217.4347
2009    19      1       1.434537        209.8401
2009    19      2       0.9573385       167.8541
2009    19      3       0.7282185       140.9333
2009    19      4       0.8626885       156.0044
2009    19      5       1.039488        173.3709
2009    19      6       1.06448         176.0222
2009    19      7       0.8498156       155.8541
2009    20      0       0.6642564       133.0836
2009    20      1       0.4138556       92.90152
2009    20      2       0.4341024       95.51109
2009    20      3       0.3976858       89.21737
2009    20      4       0.4043998       89.74445
2009    20      5       0.3708496       83.7193
2009    20      6       0.3258735       75.91845
2009    20      7       0.3150858       74.17775
2009    21      0       0.2960302       70.56992
2009    21      1       0.2938301       69.90713
2009    21      2       0.2922506       69.51813
2009    21      3       0.2896629       69.03602
2009    21      4       0.275863        66.28186
2009    21      5       0.2754493       66.27955
2009    21      6       0.2413946       59.92962
2009    21      7       0.260534        64.06749
2009    22      0       0.2629755       64.58573
2009    22      1       0.272343        66.26581
2009    22      2       0.3061165       72.6004
2009    22      3       0.3563895       81.74336
2009    22      4       0.6385644       125.7245
2009    22      5       0.5905155       120.2512
2009    22      6       0.5258433       110.7144
2009    22      7       0.4522675       97.83959
2009    23      0       0.2947338       69.52146
2009    23      1       0.3004332       70.30999
2009    23      2       0.3617431       81.07592
2009    23      3       0.3369888       76.31025
2009    23      4       0.2627692       62.35161
2009    23      5       0.2472984       59.19567
2009    23      6       0.242308        58.31371
2009    23      7       0.2557572       61.04801
2009    24      0       0.2785768       65.30203
2009    24      1       0.2841822       66.52122
2009    24      2       0.337694        76.90445
2009    24      3       0.3554346       80.3657
2009    24      4       0.3912494       86.79263
2009    24      5       0.4381796       94.99286
2009    24      6       0.4746196       101.7946
2009    24      7       0.4938214       105.4011
2009    25      0       0.4426369       97.22476
2009    25      1       0.422234        94.02884
2009    25      2       0.3539606       82.12258
2009    25      3       0.1857235       48.80911
2009    25      4       0.162126        43.67247
2009    25      5       0.2435567       61.2321
2009    25      6       0.2829513       69.74689
2009    25      7       0.3241714       78.25365
2009    26      0       0.3169259       77.141
2009    26      1       0.3459146       82.89184
2009    26      2       0.3864011       90.34031
2009    26      3       0.3745243       88.14409
2009    26      4       0.3650947       85.82022
2009    26      5       0.5046564       109.363
2009    26      6       0.7378163       142.517
2009    26      7       0.9214888       163.9959
2009    27      0       1.013708        173.9216
2009    27      1       1.571802        214.9575
2009    27      2       1.551549        214.593
2009    27      3       1.636306        220.3176
2009    27      4       0.8928444       162.4973
2009    27      5       0.9128896       164.2693
2009    27      6       0.962304        170.3609
2009    27      7       0.9695413       171.0511
2009    28      0       0.8819889       161.2788
2009    28      1       0.9412244       166.848
2009    28      2       1.101348        181.9908
2009    28      3       1.13156         184.3933
2009    28      4       1.064103        178.9335
2009    28      5       1.096561        182.5902
2009    28      6       1.061597        180.4667
2009    28      7       1.083094        183.6257
2009    29      0       0.9795253       174.0123
2009    29      1       0.8227268       156.0529
2009    29      2       0.8442155       157.2739
2009    29      3       1.349561        201.394
2009    29      4       1.702966        223.6506
2009    29      5       2.638375        256.2089
2009    29      6       3.286316        265.9038
2009    29      7       3.178922        264.4419
2009    30      0       2.828576        259.9956
2009    30      1       3.276286        266.2544
2009    30      2       2.388995        249.6134
2009    30      3       1.304217        199.9752
2009    30      4       0.9623122       168.7822
2009    30      5       1.180104        187.8223
2009    30      6       1.286917        195.3485
2009    30      7       1.09313         180.3165
2009    31      0       0.8892993       160.9029
2009    31      1       0.8374906       154.4463
2009    31      2       0.789393        148.3564
2009    31      3       0.6998661       137.5606
2009    31      4       0.6052985       124.7907
2009    31      5       0.6585517       132.7659
2009    31      6       0.717599        141.4127
2009    31      7       0.7403606       144.8132
2010    1       0       0.7208407       137.1983
2010    1       1       0.90322         158.677
2010    1       2       0.9946411       167.8783
2010    1       3       1.007933        169.5866
2010    1       4       0.9469253       164.1404
2010    1       5       0.9172131       161.2603
2010    1       6       0.9454752       164.6513
2010    1       7       0.9285402       162.2855
2010    2       0       0.8435538       153.3415
2010    2       1       0.7321491       139.872
2010    2       2       0.6995146       135.8159
2010    2       3       0.651009        129.4771
2010    2       4       0.6894663       133.8379
2010    2       5       0.7179227       137.6483
2010    2       6       0.7563647       143.1184
2010    2       7       0.8355745       152.4369
2010    3       0       0.8947638       158.507
2010    3       1       0.8516618       153.7704
2010    3       2       0.8639242       155.1399
2010    3       3       1.36565         198.5238
2010    3       4       1.015748        170.4608
2010    3       5       0.8945709       157.2288
2010    3       6       0.9835014       166.6734
2010    3       7       0.9269977       160.702
2010    4       0       0.8709742       155.1299
2010    4       1       0.892356        157.3043
2010    4       2       0.8255195       150.0684
2010    4       3       0.697801        134.2645
2010    4       4       0.6435526       126.7886
2010    4       5       0.7555483       141.5172
2010    4       6       0.8678055       154.6357
2010    4       7       0.857572        153.217
2010    5       0       0.7625553       142.5158
2010    5       1       0.6617245       129.4963
2010    5       2       0.6800899       131.6925
2010    5       3       0.6140358       122.092
2010    5       4       0.5073264       106.3405
2010    5       5       0.4397124       96.03249
2010    5       6       0.4386966       96.41614
2010    5       7       0.4113712       92.10102
2010    6       0       0.1468235       40.22892
2010    6       1       0.0906113       27.22373
2010    6       2       0.1683518       44.5988
2010    6       3       0.5772415       119.325
2010    6       4       0.2077343       53.36476
2010    6       5       0.2085278       53.38723
2010    6       6       1.244539        192.6697
2010    6       7       0.5784425       120.5046
2010    7       0       0.4222479       95.30982
2010    7       1       0.1484039       40.59987
2010    7       2       0.2165715       55.80467
2010    7       3       0.4504901       100.3023
2010    7       4       0.4468121       99.74564
2010    7       5       0.4557223       100.96
2010    7       6       0.628727        128.0075
2010    7       7       0.7728066       147.9427
2010    8       0       0.7513488       145.2166
2010    8       1       0.6895489       137.3379
2010    8       2       0.5443543       116.1261
2010    8       3       0.5882894       122.6775
2010    8       4       0.5605576       118.076
2010    8       5       0.451107        100.0028
2010    8       6       0.6869382       135.9969
2010    8       7       0.690742        136.872
2010    9       0       0.5744862       120.5464
2010    9       1       0.4536501       100.818
2010    9       2       0.4072845       92.70567
2010    9       3       0.3449092       81.162
2010    9       4       0.3770471       86.56245
2010    9       5       0.4952754       106.1673
2010    9       6       0.4996824       107.2131
2010    9       7       0.4806606       104.4322
2010    10      0       0.4055883       91.88469
2010    10      1       0.3702745       85.57747
2010    10      2       0.3790745       86.88285
2010    10      3       0.3784055       86.6217
2010    10      4       0.3628322       83.98653
2010    10      5       0.3729099       86.06262
2010    10      6       0.4082402       92.91495
2010    10      7       0.4907208       107.4474
2010    11      0       0.491464        107.8412
2010    11      1       0.4786958       105.8604
2010    11      2       0.5311188       113.6428
2010    11      3       0.6224195       126.5715
2010    11      4       0.665017        132.1379
2010    11      5       0.6733324       132.6877
2010    11      6       0.8664743       156.267
2010    11      7       0.9066126       161.0076
2010    12      0       0.9282443       164.0889
2010    12      1       0.9477845       166.563
2010    12      2       0.9841753       170.0425
2010    12      3       1.045636        175.7701
2010    12      4       1.155955        186.152
2010    12      5       1.058542        177.4245
2010    12      6       0.8096514       150.8631
2010    12      7       0.7147039       139.3494
2010    13      0       0.7688432       146.967
2010    13      1       0.6647581       133.4872
2010    13      2       0.3683636       85.35578
2010    13      3       0.3519377       81.43514
2010    13      4       0.363835        83.27629
2010    13      5       0.5265672       111.0525
2010    13      6       0.7986053       148.4559
2010    13      7       0.9287891       163.0396
2010    14      0       1.730373        221.677
2010    14      1       1.4077          203.2479
2010    14      2       1.822736        226.5849
2010    14      3       1.548742        214.0613
2010    14      4       1.450674        207.4755
2010    14      5       1.531145        213.4242
2010    14      6       1.576639        215.1519
2010    14      7       1.480243        208.9974
2010    15      0       1.3919          204.0466
2010    15      1       1.53668         212.9787
2010    15      2       1.547388        213.7573
2010    15      3       1.576114        215.0472
2010    15      4       1.584386        215.3241
2010    15      5       1.640075        217.706
2010    15      6       1.345096        199.1244
2010    15      7       1.06504         176.4628
2010    16      0       0.9110445       161.429
2010    16      1       0.619933        126.0957
2010    16      2       0.494748        106.9422
2010    16      3       0.3326064       78.90011
2010    16      4       0.2221309       56.99113
2010    16      5       0.215955        55.63172
2010    16      6       0.365336        85.76079
2010    16      7       0.4739407       105.0096
2010    17      0       0.452918        101.6258
2010    17      1       0.4077883       93.69941
2010    17      2       0.439272        98.90805
2010    17      3       0.4522253       100.9955
2010    17      4       0.4324599       97.70272
2010    17      5       0.465282        103.8076
2010    17      6       0.5315228       115.4651
2010    17      7       0.6059899       127.3055
2010    18      0       0.6549324       134.2548
2010    18      1       0.7337427       144.0952
2010    18      2       0.7546698       146.9821
2010    18      3       0.6004282       125.4757
2010    18      4       0.5583364       118.9564
2010    18      5       0.9197469       165.3452
2010    18      6       1.128127        185.6989
2010    18      7       1.113255        185.0357
2010    19      0       0.9895994       173.0695
2010    19      1       0.9301975       166.3899
2010    19      2       0.8229654       154.3338
2010    19      3       0.7619952       147.0579
2010    19      4       0.6438272       132.0757
2010    19      5       0.7394933       145.1133
2010    19      6       0.8570589       160.3288
2010    19      7       0.909919        166.5835
2010    20      0       0.8793002       163.1018
2010    20      1       0.8927812       164.4682
2010    20      2       0.8286989       156.5674
2010    20      3       0.7001623       140.4198
2010    20      4       0.7518682       147.6283
2010    20      5       0.922057        167.8456
2010    20      6       1.055117        181.8599
2010    20      7       1.06692         182.9957
2010    21      0       1.047406        180.463
2010    21      1       1.002971        175.1418
2010    21      2       0.8224958       154.2489
2010    21      3       0.7340932       142.5563
2010    21      4       0.7642287       146.1367
2010    21      5       0.7541305       143.9921
2010    21      6       0.8886043       159.6464
2010    21      7       1.030305        174.2145
2010    22      0       1.079139        180.0346
2010    22      1       1.080393        181.1104
2010    22      2       1.046498        178.1916
2010    22      3       1.182605        190.8893
2010    22      4       1.421           208.6153
2010    22      5       1.730055        226.876
2010    22      6       2.135945        243.1005
2010    22      7       1.938756        235.4849
2010    23      0       2.227513        245.3166
2010    23      1       2.889041        260.2743
2010    23      2       2.817871        259.5391
2010    23      3       2.41241         250.5352
2010    23      4       2.155675        243.5423
2010    23      5       1.873785        232.4545
2010    23      6       2.015461        238.2125
2010    23      7       2.647237        255.4542
2010    24      0       1.92479         233.0909
2010    24      1       1.775324        225.9891
2010    24      2       1.658082        219.2876
2010    24      3       1.220883        190.536
2010    24      4       0.9357408       163.4311
2010    24      5       0.9454025       164.0374
2010    24      6       0.7771199       146.2693
2010    24      7       0.646042        129.7697
2010    25      0       0.5718042       119.367
2010    25      1       0.4631456       102.4377
2010    25      2       0.4287548       97.15744
2010    25      3       0.4688353       103.9191
2010    25      4       0.4503257       100.62
2010    25      5       0.460226        100.9447
2010    25      6       0.7438803       142.5947
2010    25      7       0.8205282       152.8313
2010    26      0       1.377688        202.9699
2010    26      1       1.330415        200.5351
2010    26      2       1.315138        198.3279
2010    26      3       1.161651        183.9458
2010    26      4       0.7425648       139.1152
2010    26      5       0.4163161       91.87903
2010    26      6       0.287152        69.41966
2010    26      7       0.301081        72.25327
2010    27      0       0.2718015       66.19402
2010    27      1       0.2374899       59.20077
2010    27      2       0.2173501       56.41644
2010    27      3       0.1946204       51.27724
2010    27      4       0.2016689       52.57086
2010    27      5       0.2410897       61.09232
2010    27      6       0.3091075       73.12234
2010    27      7       0.387116        87.34197
2010    28      0       0.3768636       85.66308
2010    28      1       0.3598233       82.72522
2010    28      2       0.390452        88.24093
2010    28      3       0.3765595       85.69441
2010    28      4       0.4317915       95.52355
2010    28      5       0.5355494       112.5876
2010    28      6       0.6270716       126.5183
2010    28      7       0.6988433       137.1329
2010    29      0       0.8827856       159.3203
2010    29      1       1.102327        180.8696
2010    29      2       1.436689        206.7491
2010    29      3       1.895649        231.0261
2010    29      4       1.730577        224.6316
2010    29      5       2.198998        244.523
2010    29      6       1.971976        236.3961
2010    29      7       1.943876        235.487
2010    30      0       1.956843        236.173
2010    30      1       1.867866        231.5323
2010    30      2       1.544082        215.0383
2010    30      3       1.614374        219.0413
2010    30      4       1.866757        230.8875
2010    30      5       2.137734        242.0
2010    30      6       2.436712        251.1089
2010    30      7       2.133179        241.615
2010    31      0       2.029623        237.8894
2010    31      1       3.515151        267.5514
2010    31      2       2.563926        252.9172
2010    31      3       2.030102        237.2405
2010    31      4       2.182691        242.127
2010    31      5       2.717536        255.1438
2010    31      6       2.276627        244.9008
2010    31      7       1.354129        202.9537
2011    1       0       0.8678571       158.7438
2011    1       1       1.059156        176.0057
2011    1       2       0.7534981       141.0221
2011    1       3       0.4014476       89.58685
2011    1       4       0.2581521       62.41465
2011    1       5       0.1931527       49.1093
2011    1       6       0.2579957       62.53251
2011    1       7       0.2322025       57.64626
2011    2       0       0.1570622       41.74407
2011    2       1       0.1673272       43.77609
2011    2       2       0.2339964       58.16357
2011    2       3       0.3682696       84.05746
2011    2       4       0.3484441       80.49842
2011    2       5       0.5606842       115.0944
2011    2       6       0.8038261       146.6763
2011    2       7       0.5057702       106.368
2011    3       0       0.4426654       94.79512
2011    3       1       0.2753957       64.80951
2011    3       2       0.1944745       48.66349
2011    3       3       0.1551905       40.47104
2011    3       4       0.121475        33.17548
2011    3       5       0.1262938       34.29358
2011    3       6       0.1826168       46.51657
2011    3       7       0.2086271       52.3247
2011    4       0       0.1388062       37.98204
2011    4       1       0.1592348       42.36259
2011    4       2       0.1785306       45.94191
2011    4       3       0.2017304       50.71334
2011    4       4       0.2227463       55.01591
2011    4       5       0.2646696       63.49326
2011    4       6       0.3327656       76.85729
2011    4       7       0.3739599       84.69536
2011    5       0       0.4239209       93.30267
2011    5       1       0.4708586       101.426
2011    5       2       0.8110034       149.0102
2011    5       3       1.106554        179.8657
2011    5       4       1.388663        203.3126
2011    5       5       1.271645        195.6441
2011    5       6       1.293808        197.998
2011    5       7       1.179966        189.2979
2011    6       0       1.101333        182.9634
2011    6       1       1.224233        192.9627
2011    6       2       1.344885        202.3541
2011    6       3       1.288677        199.1998
2011    6       4       1.573583        217.9765
2011    6       5       1.705315        225.0172
2011    6       6       1.7319          225.5537
2011    6       7       1.681066        222.6956
2011    7       0       1.69921         223.8571
2011    7       1       1.786564        228.1932
2011    7       2       1.822195        230.4167
2011    7       3       2.183375        245.3123
2011    7       4       1.888382        234.375
2011    7       5       2.425999        250.3873
2011    7       6       0.5691266       125.0967
2011    7       7       0.3782793       89.71337
2011    8       0       0.3561239       81.79959
2011    8       1       0.2964184       71.26682
2011    8       2       0.2265525       57.16969
2011    8       3       0.1736669       45.93442
2011    8       4       0.1969063       50.45281
2011    8       5       0.2485915       60.78188
2011    8       6       0.3421344       79.08789
2011    8       7       0.3790783       86.26315
2011    9       0       0.2922544       70.38926
2011    9       1       0.2625356       64.69665
2011    9       2       0.9087098       160.2522
2011    9       3       0.2633868       64.87376
2011    9       4       0.3063129       73.12358
2011    9       5       0.4905419       104.6384
2011    9       6       0.6182967       123.5204
2011    9       7       1.015584        169.6807
2011    10      0       0.9362607       161.5686
2011    10      1       0.9600307       164.1699
2011    10      2       1.257432        190.5775
2011    10      3       1.364545        198.5436
2011    10      4       1.135587        181.0707
2011    10      5       1.278297        193.1257
2011    10      6       2.024122        233.2374
2011    10      7       1.802539        225.2333
2011    11      0       1.907925        230.9955
2011    11      1       2.343741        247.0057
2011    11      2       3.185508        264.009
2011    11      3       2.773911        259.4341
2011    11      4       3.121784        266.1946
2011    11      5       2.881184        263.3328
2011    11      6       1.887075        233.9297
2011    11      7       1.536868        215.1744
2011    12      0       1.211012        191.7633
2011    12      1       1.273669        197.0955
2011    12      2       0.9630954       169.5696
2011    12      3       0.6871146       135.3844
2011    12      4       0.7251315       138.7716
2011    12      5       0.68758         134.3992
2011    12      6       0.6406581       129.4184
2011    12      7       0.7811503       147.5584
2011    13      0       0.9987908       170.18
2011    13      1       0.8758302       158.3784
2011    13      2       1.017921        173.0466
2011    13      3       1.029102        174.533
2011    13      4       0.7661491       145.2047
2011    13      5       0.9071477       159.8033
2011    13      6       0.8015251       148.3012
2011    13      7       0.7513356       142.7175
2011    14      0       0.6398475       127.9412
2011    14      1       0.6750196       132.1865
2011    14      2       0.6095522       122.7913
2011    14      3       0.5496304       114.28
2011    14      4       0.5601582       114.8694
2011    14      5       0.6638638       128.6906
2011    14      6       0.6315265       124.5899
2011    14      7       0.5743696       116.9565
2011    15      0       0.5232357       109.7598
2011    15      1       0.4868251       104.2436
2011    15      2       0.4775172       102.6785
2011    15      3       0.4919685       105.1649
2011    15      4       0.4829926       103.8264
2011    15      5       0.599009        121.4045
2011    15      6       0.5901641       121.0422
2011    15      7       0.6286166       127.2468
2011    16      0       0.7007396       137.2598
2011    16      1       0.6925078       135.9806
2011    16      2       0.6338903       127.7227
2011    16      3       0.7232026       138.7653
2011    16      4       0.7679997       145.1023
2011    16      5       1.820253        226.1643
2011    16      6       1.410799        204.8694
2011    16      7       1.561702        215.7636
2011    17      0       1.004223        173.5868
2011    17      1       0.9710389       169.6002
2011    17      2       0.9256878       164.9869
2011    17      3       0.6834343       136.7618
2011    17      4       0.5949382       123.623
2011    17      5       0.6887599       136.2283
2011    17      6       0.8359814       155.3399
2011    17      7       0.9049165       164.1699
2011    18      0       0.8847803       162.3879
2011    18      1       0.8740129       160.6038
2011    18      2       0.8354361       156.6375
2011    18      3       0.9639716       172.1534
2011    18      4       1.175187        194.0695
2011    18      5       1.376405        209.3914
2011    18      6       0.7778048       151.8767
2011    18      7       0.6389184       132.0625
2011    19      0       0.7953639       151.5192
2011    19      1       0.7464162       143.8868
2011    19      2       0.6934718       135.691
2011    19      3       0.60969         124.1718
2011    19      4       0.6303242       125.8539
2011    19      5       0.6292582       125.5149
2011    19      6       0.4783715       103.2832
2011    19      7       0.4166645       93.22561
2011    20      0       0.3959525       89.22484
2011    20      1       0.3721031       84.7098
2011    20      2       0.3374361       78.2802
2011    20      3       0.2649498       64.34774
2011    20      4       0.2739288       66.06585
2011    20      5       0.3318726       77.21321
2011    20      6       0.3021054       72.04367
2011    20      7       0.3149975       74.59868
2011    21      0       0.3376993       78.73139
2011    21      1       0.3888139       87.51318
2011    21      2       0.445968        96.84062
2011    21      3       0.7849875       145.339
2011    21      4       0.5218213       108.9684
2011    21      5       0.8167241       148.2683
2011    21      6       1.079029        175.5969
2011    21      7       3.107038        255.9187
2011    22      0       1.363998        199.6062
2011    22      1       1.527276        210.0208
2011    22      2       0.9609157       166.6658
2011    22      3       0.8711784       157.1627
2011    22      4       0.803208        149.148
2011    22      5       0.7636914       144.3475
2011    22      6       0.6642577       131.5579
2011    22      7       0.6335378       127.2083
2011    23      0       0.5884349       120.7817
2011    23      1       0.558387        116.0243
2011    23      2       0.5400702       113.2843
2011    23      3       0.4471704       98.05609
2011    23      4       0.4405225       96.35826
2011    23      5       0.5230237       109.253
2011    23      6       0.5914613       119.4581
2011    23      7       0.6931727       133.0954
2011    24      0       0.6506868       127.7349
2011    24      1       0.5528929       114.5544
2011    24      2       0.6784085       131.7535
2011    24      3       0.6629186       130.1437
2011    24      4       0.8940144       157.3217
2011    24      5       0.8890597       156.5413
2011    24      6       0.6705352       131.1437
2011    24      7       0.5686498       116.8009
2011    25      0       0.5606362       115.0005
2011    25      1       0.4949013       104.4235
2011    25      2       0.5644459       115.1071
2011    25      3       0.5077284       106.6384
2011    25      4       0.4579658       98.50782
2011    25      5       0.4911962       103.9541
2011    25      6       0.3854371       86.81493
2011    25      7       0.3652826       83.32147
2011    26      0       0.337921        78.10985
2011    26      1       0.3016858       70.88856
2011    26      2       0.2826334       66.8363
2011    26      3       0.3108036       71.83687
2011    26      4       0.322378        73.86965
2011    26      5       0.3236633       74.52062
2011    26      6       0.3156665       73.39746
2011    26      7       0.3277096       75.7456
2011    27      0       0.3378644       77.77043
2011    27      1       0.3337854       77.18975
2011    27      2       0.3031999       71.46335
2011    27      3       0.2720405       65.31584
2011    27      4       0.2230078       55.54432
2011    27      5       0.2351869       58.37674
2011    27      6       0.2576442       63.28804
2011    27      7       0.2844463       68.63931
2011    28      0       0.2739319       66.28487
2011    28      1       0.2834097       67.77858
2011    28      2       0.3378242       77.72161
2011    28      3       0.3511618       80.06485
2011    28      4       0.3837613       85.80071
2011    28      5       0.4286954       94.2173
2011    28      6       0.4970036       105.9341
2011    28      7       0.5275407       110.563
2011    29      0       0.4802649       102.6652
2011    29      1       0.4542317       98.38333
2011    29      2       0.4558691       98.5671
2011    29      3       0.4441321       96.64638
2011    29      4       0.4250263       93.52359
2011    29      5       0.4774712       102.3318
2011    29      6       0.5049743       107.2566
2011    29      7       0.4862517       104.5272
2011    30      0       0.4657847       101.03
2011    30      1       0.4805341       103.2357
2011    30      2       0.473919        102.0808
2011    30      3       0.4849739       103.7932
2011    30      4       0.4672732       101.4164
2011    30      5       0.5136341       109.5289
2011    30      6       0.4882157       106.2686
2011    30      7       0.4738806       104.2805
2011    31      0       0.4629863       102.3795
2011    31      1       0.5096392       109.1534
2011    31      2       0.5751436       118.8712
2011    31      3       0.6706538       132.5312
2011    31      4       0.6944823       135.3671
2011    31      5       0.686185        134.5191
2011    31      6       0.7349079       140.8147
2011    31      7       0.7738763       144.4699
2012    1       0       0.9160104       160.8735
2012    1       1       1.163517        184.525
2012    1       2       1.314778        196.3585
2012    1       3       1.092904        178.2825
2012    1       4       1.341256        197.4697
2012    1       5       1.333763        197.2052
2012    1       6       1.337079        197.157
2012    1       7       1.258829        190.6521
2012    2       0       1.117217        178.0527
2012    2       1       1.041136        171.2202
2012    2       2       0.8277144       149.887
2012    2       3       0.6054676       121.9371
2012    2       4       0.6078331       122.5985
2012    2       5       0.5390059       112.6616
2012    2       6       0.9427346       168.9032
2012    2       7       1.137084        188.7271
2012    3       0       0.9697586       173.0778
2012    3       1       1.248722        190.8402
2012    3       2       1.228928        189.7166
2012    3       3       1.235254        198.6083
2012    3       4       1.723857        222.8136
2012    3       5       1.666254        222.0079
2012    3       6       1.67901         223.3348
2012    3       7       0.7315194       143.1163
2012    4       0       0.6090744       125.8364
2012    4       1       0.4835611       106.0246
2012    4       2       0.5091279       108.9888
2012    4       3       0.5530615       115.3501
2012    4       4       0.670609        131.5373
2012    4       5       0.7702639       143.6946
2012    4       6       0.8055138       147.5336
2012    4       7       0.7670054       142.6504
2012    5       0       0.5822935       119.33
2012    5       1       0.4777758       102.6344
2012    5       2       0.4330025       94.53919
2012    5       3       0.4628161       98.82638
2012    5       4       0.402426        88.30638
2012    5       5       0.3645409       81.75024
2012    5       6       0.3546823       80.16604
2012    5       7       0.3427486       78.10462
2012    6       0       0.2870773       67.72124
2012    6       1       0.2534778       61.12748
2012    6       2       0.2337135       56.99212
2012    6       3       0.1690988       43.63256
2012    6       4       0.131331        35.73307
2012    6       5       0.1588028       41.83426
2012    6       6       0.2302993       57.01394
2012    6       7       0.3397368       78.24454
2012    7       0       0.3394808       78.65575
2012    7       1       0.3556882       81.75704
2012    7       2       0.4523537       98.36305
2012    7       3       0.4753312       102.9612
2012    7       4       0.524606        112.2321
2012    7       5       0.4685588       104.1559
2012    7       6       0.5172882       112.5577
2012    7       7       0.4334474       98.78541
2012    8       0       0.3164155       76.61267
2012    8       1       0.3828497       88.44341
2012    8       2       0.6635101       134.4339
2012    8       3       0.9150224       166.993
2012    8       4       0.9134097       167.1548
2012    8       5       0.9721859       173.3534
2012    8       6       1.426804        211.6144
2012    8       7       1.516622        217.8292
2012    9       0       1.722701        228.6327
2012    9       1       1.731653        228.9995
2012    9       2       1.805818        230.081
2012    9       3       1.014002        170.382
2012    9       4       0.4963285       107.3569
2012    9       5       0.5028561       107.4059
2012    9       6       0.432149        95.16026
2012    9       7       0.382174        86.10234
2012    10      0       0.3701622       83.71576
2012    10      1       0.3897389       86.72947
2012    10      2       0.543294        110.8182
2012    10      3       0.6557057       126.1422
2012    10      4       0.702457        131.9748
2012    10      5       0.4384806       94.1823
2012    10      6       0.4098364       90.15474
2012    10      7       0.4288035       94.30257
2012    11      0       0.4570528       99.0004
2012    11      1       0.4889807       104.1601
2012    11      2       0.4921433       104.943
2012    11      3       0.487575        104.5956
2012    11      4       0.3942806       89.60099
2012    11      5       0.459348        101.8082
2012    11      6       0.6657856       133.5223
2012    11      7       0.747342        145.0453
2012    12      0       0.7020465       139.8863
2012    12      1       0.6031072       126.5968
2012    12      2       0.5456138       118.2081
2012    12      3       0.5789117       123.1275
2012    12      4       0.5778087       122.4881
2012    12      5       0.5977986       125.5852
2012    12      6       0.7967585       152.8593
2012    12      7       0.854633        159.7384
2012    13      0       0.8926232       162.9368
2012    13      1       0.9809357       171.1027
2012    13      2       1.110139        184.08
2012    13      3       0.9356498       168.7869
2012    13      4       0.897172        165.4621
2012    13      5       1.779867        231.4343
2012    13      6       1.764214        231.1451
2012    13      7       1.764311        231.8894
2012    14      0       1.643674        226.0898
2012    14      1       1.235342        198.1117
2012    14      2       1.176626        191.6819
2012    14      3       1.20631         193.8724
2012    14      4       1.46635         211.4691
2012    14      5       1.09417         181.8509
2012    14      6       1.230295        193.0471
2012    14      7       1.374088        203.4492
2012    15      0       1.483747        209.8211
2012    15      1       1.316844        198.1292
2012    15      2       0.8102801       150.9603
2012    15      3       0.7477556       143.5899
2012    15      4       0.8506035       155.8832
2012    15      5       1.077066        178.2689
2012    15      6       0.8921194       160.202
2012    15      7       1.084337        179.332
2012    16      0       1.003759        171.8246
2012    16      1       1.269389        194.2578
2012    16      2       1.445748        206.7653
2012    16      3       1.747343        224.4768
2012    16      4       1.745524        224.6499
2012    16      5       1.742932        223.5603
2012    16      6       2.140878        239.6385
2012    16      7       1.48426         210.1995
2012    17      0       1.2216          194.1943
2012    17      1       1.159288        189.7558
2012    17      2       1.067668        181.6385
2012    17      3       0.971616        171.6551
2012    17      4       0.8855209       161.9348
2012    17      5       0.719777        141.8991
2012    17      6       0.6658228       135.1094
2012    17      7       0.7260044       143.6367
2012    18      0       0.8358186       157.7496
2012    18      1       0.9995039       175.7549
2012    18      2       0.8923511       164.6611
2012    18      3       0.898075        166.1845
2012    18      4       1.149496        192.378
2012    18      5       1.042535        183.1532
2012    18      6       1.048681        183.7994
2012    18      7       1.176795        195.861
2012    19      0       1.106227        189.9042
2012    19      1       1.003446        180.1444
2012    19      2       0.9340651       172.7635
2012    19      3       1.033274        182.6544
2012    19      4       1.300278        205.207
2012    19      5       1.47691         216.9473
2012    19      6       1.503754        217.8251
2012    19      7       1.316392        204.5682
2012    20      0       1.17625         193.566
2012    20      1       1.179486        193.6564
2012    20      2       1.319025        204.5839
2012    20      3       1.555025        220.5883
2012    20      4       1.76785         232.7134
2012    20      5       1.887674        238.7726
2012    20      6       1.856641        237.6072
2012    20      7       1.873733        239.4156
2012    21      0       1.517478        221.7717
2012    21      1       1.319184        208.1148
2012    21      2       1.258854        203.2362
2012    21      3       1.185002        196.8954
2012    21      4       1.103041        189.5128
2012    21      5       1.096037        188.9198
2012    21      6       1.239321        201.9168
2012    21      7       1.270477        204.7197
2012    22      0       1.339614        210.0848
2012    22      1       1.441096        217.1524
2012    22      2       1.569458        224.888
2012    22      3       1.61623         227.3472
2012    22      4       1.530213        222.5507
2012    22      5       1.502418        220.9388
2012    22      6       1.615824        228.0672
2012    22      7       1.574356        225.5739
2012    23      0       1.608902        227.2493
2012    23      1       2.030309        245.8783
2012    23      2       1.597144        223.0782
2012    23      3       0.9472005       169.8791
2012    23      4       0.8270088       155.9733
2012    23      5       0.8149584       155.1077
2012    23      6       0.8717698       162.3229
2012    23      7       0.8294443       156.6806
2012    24      0       0.7032184       139.6867
2012    24      1       0.6488102       131.3923
2012    24      2       0.6211036       126.5005
2012    24      3       0.61282         124.8189
2012    24      4       0.5939733       121.5907
2012    24      5       0.6542422       130.7351
2012    24      6       0.6934482       136.7454
2012    24      7       0.8394593       155.5694
2012    25      0       0.9421587       167.0675
2012    25      1       1.014915        174.1019
2012    25      2       1.202455        190.5238
2012    25      3       1.20268         190.1323
2012    25      4       0.8586333       155.9072
2012    25      5       0.6900039       135.4703
2012    25      6       0.9872064       170.7372
2012    25      7       3.542816        265.0804
2012    26      0       0.9698707       170.9818
2012    26      1       1.034493        178.5034
2012    26      2       1.161178        190.5801
2012    26      3       1.248627        197.6564
2012    26      4       0.8603887       157.3943
2012    26      5       0.4413496       98.1313
2012    26      6       0.3252242       76.34849
2012    26      7       0.3271111       76.15959
2012    27      0       0.3275657       75.9229
2012    27      1       0.3192888       74.31995
2012    27      2       0.2777424       66.60801
2012    27      3       0.2491816       61.00132
2012    27      4       0.2472516       60.33105
2012    27      5       0.2412239       59.35399
2012    27      6       0.2646913       64.67623
2012    27      7       0.3119884       74.28608
2012    28      0       0.3353867       78.47009
2012    28      1       0.381578        85.99177
2012    28      2       0.6426343       126.7711
2012    28      3       0.698901        137.6637
2012    28      4       0.3806951       89.89594
2012    28      5       0.8027348       148.9656
2012    28      6       0.874821        159.2272
2012    28      7       1.244919        194.3032
2012    29      0       1.513761        212.5473
2012    29      1       1.5521          216.1796
2012    29      2       1.356306        202.775
2012    29      3       1.158061        186.1887
2012    29      4       1.354897        200.1869
2012    29      5       1.043651        175.1366
2012    29      6       0.7172355       139.462
2012    29      7       0.680753        134.3111
2012    30      0       0.611217        124.4372
2012    30      1       0.5265064       111.8264
2012    30      2       0.504615        108.0765
2012    30      3       0.4317721       95.88479
2012    30      4       0.4855789       104.3572
2012    30      5       0.5104979       108.5775
2012    30      6       0.3900823       89.05096
2012    30      7       0.4251577       95.2032
2012    31      0       0.474311        103.1112
2012    31      1       0.6034352       121.6816
2012    31      2       0.662223        129.9967
2012    31      3       0.6336677       127.3072
2012    31      4       1.840662        226.4574
2012    31      5       0.8532502       155.2122
2012    31      6       0.72487         140.0939
2012    31      7       0.6017407       124.2621
2013    1       0       0.7528957       142.7182
2013    1       1       0.7862943       146.8524
2013    1       2       0.8330955       151.9065
2013    1       3       0.7390833       140.3878
2013    1       4       0.6589915       130.0592
2013    1       5       0.7929113       146.9987
2013    1       6       0.727696        139.2342
2013    1       7       0.6622056       130.3705
2013    2       0       0.635882        126.5035
2013    2       1       0.5994575       121.0841
2013    2       2       0.6115848       122.5323
2013    2       3       0.6294229       125.0592
2013    2       4       0.6003344       121.0639
2013    2       5       0.6982977       134.5456
2013    2       6       0.7239322       138.0887
2013    2       7       0.6970307       134.6196
2013    3       0       0.5920771       120.1682
2013    3       1       0.6276812       125.1304
2013    3       2       0.7781393       144.3215
2013    3       3       0.9072371       158.6794
2013    3       4       0.9496971       163.3803
2013    3       5       0.8118973       148.2939
2013    3       6       0.7829886       145.2571
2013    3       7       0.7489907       141.0519
2013    4       0       0.6756612       131.0783
2013    4       1       0.5766822       117.0262
2013    4       2       0.5334946       110.7238
2013    4       3       0.502246        106.1283
2013    4       4       0.5013115       105.8116
2013    4       5       0.5117444       107.4179
2013    4       6       0.6229413       123.2219
2013    4       7       0.6026683       120.7789
2013    5       0       0.6026784       120.1305
2013    5       1       0.5296701       110.4409
2013    5       2       0.6025764       121.8529
2013    5       3       0.6766515       132.2081
2013    5       4       0.9050532       159.1382
2013    5       5       1.189757        185.1726
2013    5       6       0.8278298       150.6885
2013    5       7       0.6875278       133.5747
2013    6       0       0.6589798       129.9409
2013    6       1       0.6582719       129.8893
2013    6       2       1.081558        176.5324
2013    6       3       1.43454         202.9431
2013    6       4       1.243105        189.945
2013    6       5       1.00627         169.8062
2013    6       6       0.8921427       158.0436
2013    6       7       0.9027198       158.7706
2013    7       0       0.8705867       155.4458
2013    7       1       0.8695398       155.0074
2013    7       2       1.02041         169.4907
2013    7       3       1.036735        170.7963
2013    7       4       0.9881468       166.2944
2013    7       5       1.083885        175.052
2013    7       6       1.010369        168.4425
2013    7       7       1.000716        167.5667
2013    8       0       1.01354         169.1755
2013    8       1       1.05212         172.9884
2013    8       2       1.034444        171.0221
2013    8       3       0.9166076       159.1551
2013    8       4       1.547056        208.7742
2013    8       5       0.8747936       154.6719
2013    8       6       0.7476746       140.0168
2013    8       7       0.612438        123.8146
2013    9       0       0.6397754       128.2316
2013    9       1       0.392372        89.46326
2013    9       2       0.2325453       58.65259
2013    9       3       0.1959877       51.02802
2013    9       4       0.08291718      24.9811
2013    9       5       0.2126016       54.91083
2013    9       6       0.4220183       95.11205
2013    9       7       0.4927711       107.1602
2013    10      0       0.4363712       97.92329
2013    10      1       0.4112065       93.88821
2013    10      2       0.4436717       99.43448
2013    10      3       0.3676709       85.86778
2013    10      4       0.2913361       71.08548
2013    10      5       0.3266109       77.75989
2013    10      6       0.4914657       106.4412
2013    10      7       0.4962812       107.5041
2013    11      0       0.5340896       113.3195
2013    11      1       0.6639232       132.2306
2013    11      2       0.461217        101.5294
2013    11      3       0.3498503       81.61821
2013    11      4       0.3436239       80.29477
2013    11      5       0.4828773       105.4325
2013    11      6       0.6777801       135.0458
2013    11      7       0.7768165       147.1876
2013    12      0       0.4408005       97.51064
2013    12      1       0.33621         79.50168
2013    12      2       0.5529468       117.2872
2013    12      3       1.603574        218.2581
2013    12      4       1.770133        226.6069
2013    12      5       1.671259        222.4634
2013    12      6       1.771091        227.6011
2013    12      7       1.901145        234.0991
2013    13      0       2.079249        241.6368
2013    13      1       2.836902        260.7169
2013    13      2       1.644703        221.3288
2013    13      3       0.8995331       162.7191
2013    13      4       0.6701052       133.8853
2013    13      5       0.6654323       132.6695
2013    13      6       0.6436149       129.4574
2013    13      7       0.6024577       123.1919
2013    14      0       0.5044282       107.6509
2013    14      1       0.4712944       101.6523
2013    14      2       0.4882929       103.8841
2013    14      3       0.5307714       109.9891
2013    14      4       0.4760839       101.4089
2013    14      5       0.4778936       101.9936
2013    14      6       0.4206979       92.38642
2013    14      7       0.4469866       96.04935
2013    15      0       0.3509954       79.07418
2013    15      1       0.3129525       72.1628
2013    15      2       0.29106         68.21215
2013    15      3       0.2789926       66.07242
2013    15      4       0.296136        69.02613
2013    15      5       0.3241373       74.36146
2013    15      6       0.3452668       79.00335
2013    15      7       0.4409417       95.913
2013    16      0       0.6423715       125.6088
2013    16      1       0.6065199       120.8724
2013    16      2       0.4497175       97.39757
2013    16      3       0.7913722       144.9697
2013    16      4       0.5921789       119.278
2013    16      5       0.6147888       121.5738
2013    16      6       0.5612942       114.2253
2013    16      7       0.4294349       94.34846
2013    17      0       0.4186453       92.4129
2013    17      1       0.3496938       80.57291
2013    17      2       0.2957399       70.84693
2013    17      3       0.294817        70.38607
2013    17      4       0.2512045       61.46857
2013    17      5       0.3012321       71.21681
2013    17      6       0.2522501       61.8508
2013    17      7       0.2240966       55.9899
2013    18      0       0.2066169       52.33732
2013    18      1       0.1811888       46.94164
2013    18      2       0.1770056       46.01054
2013    18      3       0.1718398       44.99366
2013    18      4       0.1520003       41.73971
2013    18      5       0.173849        46.48542
2013    18      6       0.201218        51.63302
2013    18      7       0.2942721       69.66659
2013    19      0       0.4719962       99.98637
2013    19      1       0.6323503       124.3197
2013    19      2       0.8032749       148.696
2013    19      3       0.9171438       162.9144
2013    19      4       1.03813         178.7667
2013    19      5       1.196763        195.0261
2013    19      6       1.386252        201.648
2013    19      7       0.9784762       167.4039
2013    20      0       1.250612        191.1534
2013    20      1       0.7294613       137.7989
2013    20      2       0.4502441       96.90068
2013    20      3       0.4267895       92.86926
2013    20      4       0.3709908       83.30693
2013    20      5       0.4936615       103.5804
2013    20      6       0.4854148       102.4222
2013    20      7       0.4617923       98.85854
2013    21      0       0.4066426       89.73973
2013    21      1       0.4285886       93.29354
2013    21      2       0.3604374       81.72061
2013    21      3       0.2918872       68.94558
2013    21      4       0.313728        72.54089
2013    21      5       0.3935401       86.84229
2013    21      6       0.46394         98.97843
2013    21      7       0.5116969       106.7284
2013    22      0       0.5227464       108.2623
2013    22      1       0.4520343       97.33866
2013    22      2       0.4936474       103.5209
2013    22      3       0.4565085       97.67939
2013    22      4       0.4088768       89.70083
2013    22      5       0.4052918       89.14343
2013    22      6       0.4198522       91.94176
2013    22      7       0.4979312       104.6725
2013    23      0       0.4978151       104.5749
2013    23      1       0.4394949       95.08796
2013    23      2       0.4621553       98.62075
2013    23      3       0.4832781       102.1761
2013    23      4       0.4522626       97.27881
2013    23      5       0.5437951       111.6235
2013    23      6       0.5097569       107.2925
2013    23      7       0.5205918       109.6957
2013    24      0       0.4957856       105.7109
2013    24      1       0.5119984       108.0955
2013    24      2       0.5307702       110.9558
2013    24      3       0.5226124       109.9541
2013    24      4       0.5119047       107.9749
2013    24      5       0.5895717       119.8013
2013    24      6       0.5661161       117.6036
2013    24      7       0.5412401       114.375
2013    25      0       0.4542448       100.4097
2013    25      1       0.4004816       91.10015
2013    25      2       0.4421842       98.00616
2013    25      3       0.4580645       100.5247
2013    25      4       0.5079343       108.3871
2013    25      5       0.6299313       126.1746
2013    25      6       0.7155989       137.5781
2013    25      7       0.6154601       123.8439
2013    26      0       0.5644517       116.2063
2013    26      1       0.6449325       127.6734
2013    26      2       0.908905        159.3665
2013    26      3       0.5428264       112.3984
2013    26      4       0.5476299       113.1358
2013    26      5       0.4827326       103.3381
2013    26      6       0.459578        99.99705
2013    26      7       0.4907927       105.3363
2013    27      0       0.487939        104.671
2013    27      1       0.4877694       104.3332
2013    27      2       0.5420157       112.853
2013    27      3       0.524232        110.3083
2013    27      4       0.4733167       102.2739
2013    27      5       0.5764455       118.3096
2013    27      6       0.6104401       123.7469
2013    27      7       0.7001098       135.5744
2013    28      0       0.7302977       138.4938
2013    28      1       0.8422593       151.8126
2013    28      2       0.9083762       159.1472
2013    28      3       0.7656988       142.7075
2013    28      4       0.6265491       124.8732
2013    28      5       0.5856431       119.7422
2013    28      6       0.6862727       134.0577
2013    28      7       0.744351        141.6559
2013    29      0       0.6984485       135.8399
2013    29      1       0.6849984       134.208
2013    29      2       0.7038013       136.8577
2013    29      3       0.7156018       138.502
2013    29      4       0.5866841       120.3434
2013    29      5       0.6420492       127.9519
2013    29      6       0.6944523       135.2445
2013    29      7       0.8218805       150.3498
2013    30      0       0.7471119       140.9412
2013    30      1       0.6598778       129.5199
2013    30      2       0.7017857       135.0186
2013    30      3       0.5865064       119.3473
2013    30      4       0.4341873       95.56561
2013    30      5       0.4318906       95.21205
2013    30      6       0.4063471       91.37506
2013    30      7       0.4339888       96.4152
2013    31      0       0.3871358       88.3849
2013    31      1       0.3384369       79.57955
2013    31      2       0.3273039       77.43051
2013    31      3       0.3378649       79.68648
2013    31      4       0.3656          84.94967
2013    31      5       0.4262677       95.81347
2013    31      6       0.502649        108.7769
2013    31      7       0.6297759       127.0427
2014    1       0       0.2097836       53.15423
2014    1       1       0.2034763       52.23171
2014    1       2       0.2437464       60.80499
2014    1       3       0.2906865       69.98959
2014    1       4       0.3151443       74.67078
2014    1       5       0.3010781       72.18953
2014    1       6       0.4269993       95.00717
2014    1       7       0.5928571       119.0543
2014    2       0       0.5420022       112.6401
2014    2       1       0.4064936       91.70528
2014    2       2       0.884858        158.4667
2014    2       3       0.926609        161.3015
2014    2       4       0.7767323       143.9162
2014    2       5       0.7559723       141.1507
2014    2       6       0.7678189       144.7416
2014    2       7       0.5365941       114.4403
2014    3       0       0.3947434       90.66929
2014    3       1       0.3505504       82.40938
2014    3       2       0.3350174       79.3719
2014    3       3       0.3344342       76.92719
2014    3       4       0.238067        58.19514
2014    3       5       0.2405298       58.23997
2014    3       6       0.2705389       63.88767
2014    3       7       0.2473378       59.6799
2014    4       0       0.1845329       47.07713
2014    4       1       0.1340196       36.20113
2014    4       2       0.1231968       33.77432
2014    4       3       0.1276824       34.76797
2014    4       4       0.1573702       41.11453
2014    4       5       0.2077875       51.49703
2014    4       6       0.2549845       60.97573
2014    4       7       0.4424177       94.5539
2014    5       0       0.4837055       101.2888
2014    5       1       0.4972647       103.5638
2014    5       2       0.4666711       99.06664
2014    5       3       0.4544697       96.68687
2014    5       4       0.8497334       149.7289
2014    5       5       0.6192407       121.4443
2014    5       6       0.6005722       118.7824
2014    5       7       0.4584957       97.73789
2014    6       0       0.2756647       65.60205
2014    6       1       0.2122685       53.03477
2014    6       2       0.1658927       43.22922
2014    6       3       0.1281083       35.05307
2014    6       4       0.1146941       32.05909
2014    6       5       0.1219826       33.6643
2014    6       6       0.1586377       41.88233
2014    6       7       0.1641211       43.2941
2014    7       0       0.1408035       38.37845
2014    7       1       0.1149708       32.59756
2014    7       2       0.08447976      25.46643
2014    7       3       0.08348726      25.26913
2014    7       4       0.1189928       33.69284
2014    7       5       0.1896191       49.48793
2014    7       6       0.337308        79.08175
2014    7       7       0.4048542       91.71567
2014    8       0       0.4425473       98.58167
2014    8       1       0.5970474       123.4732
2014    8       2       0.6592065       132.4778
2014    8       3       0.6292125       128.3743
2014    8       4       0.607487        124.3164
2014    8       5       0.636377        128.5559
2014    8       6       0.6652837       132.8152
2014    8       7       0.7517881       143.7098
2014    9       0       0.6011768       123.3689
2014    9       1       0.4483863       98.41935
2014    9       2       0.4169663       92.4463
2014    9       3       0.3369478       78.14168
2014    9       4       0.300425        71.15626
2014    9       5       0.3240442       75.3584
2014    9       6       0.3290019       76.48086
2014    9       7       0.3578724       82.0078
2014    10      0       0.3769701       84.91137
2014    10      1       0.4492849       96.68549
2014    10      2       0.8438077       150.2514
2014    10      3       0.5561127       113.6447
2014    10      4       0.5551992       114.574
2014    10      5       0.6209867       124.7816
2014    10      6       0.5744646       118.6681
2014    10      7       0.591157        121.4835
2014    11      0       0.7124739       137.5746
2014    11      1       0.9867818       167.8439
2014    11      2       1.029407        172.8753
2014    11      3       1.009899        172.8454
2014    11      4       0.9320426       165.5697
2014    11      5       0.9111552       162.3566
2014    11      6       0.8218886       153.5777
2014    11      7       0.7856005       149.4917
2014    12      0       0.7711804       146.6446
2014    12      1       0.7826552       147.6965
2014    12      2       0.8601151       156.7454
2014    12      3       0.9946621       170.658
2014    12      4       0.9913824       170.8575
2014    12      5       1.171879        186.6793
2014    12      6       1.498068        209.9968
2014    12      7       2.023192        237.3289
2014    13      0       1.997091        237.2447
2014    13      1       1.855081        230.7077
2014    13      2       0.8596638       154.9686
2014    13      3       0.3962818       92.40214
2014    13      4       0.402643        90.3776
2014    13      5       0.4079033       89.35471
2014    13      6       0.3975195       86.7302
2014    13      7       0.3515577       78.2714
2014    14      0       0.2890749       67.10771
2014    14      1       0.2394746       57.73079
2014    14      2       0.1825841       46.50645
2014    14      3       0.1407814       37.65714
2014    14      4       0.1570653       41.33826
2014    14      5       0.2484138       60.48153
2014    14      6       0.4041794       89.85726
2014    14      7       0.557124        114.9588
2014    15      0       0.5858698       119.7522
2014    15      1       0.5549103       115.2445
2014    15      2       0.7280552       138.9298
2014    15      3       0.9022421       159.7332
2014    15      4       1.168341        185.1047
2014    15      5       0.8929551       160.3735
2014    15      6       0.9030144       160.8054
2014    15      7       0.7991534       147.9717
2014    16      0       0.6968301       135.4441
2014    16      1       0.6131501       123.9322
2014    16      2       0.4883632       104.8173
2014    16      3       0.5262039       109.9453
2014    16      4       0.4192011       92.03266
2014    16      5       0.2712708       65.15993
2014    16      6       0.2313404       57.33182
2014    16      7       0.2356301       58.01623
2014    17      0       0.2235307       55.32718
2014    17      1       0.1837513       46.98313
2014    17      2       0.1755811       45.59607
2014    17      3       0.1927001       49.22949
2014    17      4       0.182372        47.20287
2014    17      5       0.1940873       49.94314
2014    17      6       0.1924488       50.23615
2014    17      7       0.2284308       57.00049
2014    18      0       0.2532517       61.7643
2014    18      1       0.2219642       55.44204
2014    18      2       0.1796943       46.63017
2014    18      3       0.1450533       39.04886
2014    18      4       0.161809        43.05781
2014    18      5       0.2213008       56.4132
2014    18      6       0.229934        57.82938
2014    18      7       0.2610318       64.27128
2014    19      0       0.2402761       60.3727
2014    19      1       0.2408895       60.6081
2014    19      2       0.2306037       58.48832
2014    19      3       0.2196539       56.05341
2014    19      4       0.2117044       53.83204
2014    19      5       0.4299507       95.2082
2014    19      6       0.5275592       111.2007
2014    19      7       0.5886641       120.6928
2014    20      0       0.7702649       144.1517
2014    20      1       1.83663         226.427
2014    20      2       1.205059        189.2323
2014    20      3       1.799378        226.7903
2014    20      4       2.194861        241.8722
2014    20      5       0.9570649       167.8913
2014    20      6       0.8699275       157.6645
2014    20      7       0.6398841       128.1483
2014    21      0       0.6331926       126.4452
2014    21      1       0.5787207       118.2802
2014    21      2       0.6036652       121.4
2014    21      3       0.5615067       115.3439
2014    21      4       0.5459811       112.8787
2014    21      5       0.5863129       119.0849
2014    21      6       0.5262132       110.4731
2014    21      7       0.5202981       109.1988
2014    22      0       0.4517602       98.55058
2014    22      1       0.4096544       91.72806
2014    22      2       0.3824261       87.08134
2014    22      3       0.4042631       90.49414
2014    22      4       0.5660525       115.5486
2014    22      5       0.5016634       106.2124
2014    22      6       1.026424        172.6497
2014    22      7       0.6638343       131.7953
2014    23      0       0.5435712       113.5616
2014    23      1       0.4831479       103.8234
2014    23      2       0.5574031       115.0546
2014    23      3       0.5481664       113.1467
2014    23      4       0.6729261       129.8639
2014    23      5       0.5669332       115.6397
2014    23      6       0.355564        80.90782
2014    23      7       0.3485485       79.08107
2014    24      0       0.2857513       67.24593
2014    24      1       0.219272        54.0677
2014    24      2       0.2101288       51.87375
2014    24      3       0.1817687       45.99218
2014    24      4       0.1744177       44.37304
2014    24      5       0.1951289       48.68555
2014    24      6       0.2086736       51.75493
2014    24      7       0.2295491       56.13044
2014    25      0       0.2181588       53.86691
2014    25      1       0.2044637       51.02258
2014    25      2       0.2087817       51.885
2014    25      3       0.1991966       49.97388
2014    25      4       0.2065639       51.50426
2014    25      5       0.2468947       59.72364
2014    25      6       0.2932728       68.73463
2014    25      7       0.3313648       76.0005
2014    26      0       0.341664        77.88819
2014    26      1       0.3598473       81.10062
2014    26      2       0.4103436       89.79427
2014    26      3       0.4658426       98.45279
2014    26      4       0.3727659       82.79773
2014    26      5       0.4114145       89.31948
2014    26      6       0.4712554       99.74952
2014    26      7       0.4123509       90.01708
2014    27      0       0.3437417       78.16673
2014    27      1       0.2676799       64.20722
2014    27      2       0.2327149       57.11501
2014    27      3       0.2169082       53.88429
2014    27      4       0.2060367       52.34123
2014    27      5       0.347743        79.88988
2014    27      6       0.3626382       82.8367
2014    27      7       0.4489296       98.17238
2014    28      0       0.5633398       115.5724
2014    28      1       0.6372227       125.7218
2014    28      2       0.5712862       117.8368
2014    28      3       0.7735171       145.2629
2014    28      4       0.726334        140.7199
2014    28      5       1.088751        180.6667
2014    28      6       1.357899        202.6363
2014    28      7       1.669363        222.541
2014    29      0       1.709661        225.5379
2014    29      1       1.364059        205.8939
2014    29      2       0.9494986       169.2416
2014    29      3       0.7241367       142.5454
2014    29      4       0.6124484       126.8476
2014    29      5       0.7361215       143.1128
2014    29      6       1.001158        171.3948
2014    29      7       1.264619        193.9379
2014    30      0       1.464184        208.2198
2014    30      1       1.707283        222.1856
2014    30      2       1.973571        234.9372
2014    30      3       2.153108        242.5456
2014    30      4       2.521378        255.6372
2014    30      5       2.546805        256.12
2014    30      6       2.959231        262.7408
2014    30      7       2.628146        255.9345
2014    31      0       2.797765        257.1627
2014    31      1       2.082924        238.3911
2014    31      2       0.8607138       162.0524
2014    31      3       0.7944816       152.6414
2014    31      4       0.8573584       161.5573
2014    31      5       0.9494829       170.3297
2014    31      6       1.062062        183.4076
2014    31      7       0.7968428       154.4884
2015    1       0       0.2633244       63.41855
2015    1       1       0.2308851       57.13679
2015    1       2       0.2206274       55.09619
2015    1       3       0.1957787       49.91598
2015    1       4       0.2455053       59.4654
2015    1       5       0.3017242       69.9309
2015    1       6       0.397358        87.80465
2015    1       7       0.6905814       131.4183
2015    2       0       0.7017236       133.446
2015    2       1       0.8346661       149.2661
2015    2       2       0.6525073       128.7643
2015    2       3       0.5271644       111.1871
2015    2       4       0.5721183       116.5095
2015    2       5       0.4617881       98.35416
2015    2       6       0.4975276       103.8204
2015    2       7       0.3407477       78.00962
2015    3       0       0.275626        66.36614
2015    3       1       0.24292         59.57593
2015    3       2       0.1881174       48.12659
2015    3       3       0.1763731       45.55165
2015    3       4       0.2470287       60.12221
2015    3       5       0.1205834       33.36023
2015    3       6       0.167354        43.74885
2015    3       7       0.3643616       82.63426
2015    4       0       0.6851029       133.502
2015    4       1       1.037487        178.4048
2015    4       2       1.172598        191.729
2015    4       3       0.9435658       165.6812
2015    4       4       0.9635847       166.7355
2015    4       5       1.0414          173.6867
2015    4       6       0.8477874       154.5473
2015    4       7       0.8511057       154.8857
2015    5       0       0.8703729       156.5781
2015    5       1       0.9863594       168.1014
2015    5       2       0.8642752       154.5677
2015    5       3       0.7647144       143.9286
2015    5       4       0.5974632       121.0952
2015    5       5       0.7567479       142.6408
2015    5       6       0.5424686       110.8031
2015    5       7       0.6050484       119.5549
2015    6       0       0.4712013       98.73101
2015    6       1       0.2589539       61.47139
2015    6       2       0.09972756      28.49398
2015    6       3       0.09206611      26.70931
2015    6       4       0.09239174      26.92613
2015    6       5       0.09468416      27.76181
2015    6       6       0.1500527       40.44817
2015    6       7       0.2945786       70.87381
2015    7       0       0.2840042       67.53181
2015    7       1       0.2865049       67.96628
2015    7       2       0.2863021       67.74096
2015    7       3       0.2807054       66.49769
2015    7       4       0.2690749       64.20952
2015    7       5       0.2244194       55.5623
2015    7       6       0.4105858       90.54294
2015    7       7       0.5385405       111.2661
2015    8       0       0.5351891       110.3405
2015    8       1       0.4903502       103.5755
2015    8       2       0.4447753       96.69117
2015    8       3       0.4350044       95.39499
2015    8       4       0.4472473       97.66591
2015    8       5       0.5021446       105.6972
2015    8       6       0.5776435       117.4538
2015    8       7       0.4836107       103.2567
2015    9       0       0.4150623       92.00198
2015    9       1       0.4187284       92.41503
2015    9       2       0.3607732       81.91172
2015    9       3       0.3796561       85.25932
2015    9       4       0.5864877       118.7871
2015    9       5       0.5838943       118.5913
2015    9       6       0.6628895       129.9489
2015    9       7       0.586918        119.6609
2015    10      0       0.4418834       97.2487
2015    10      1       0.2679946       65.62742
2015    10      2       0.3055644       73.22361
2015    10      3       0.4653218       101.6203
2015    10      4       0.5017784       107.4757
2015    10      5       0.4210578       94.0246
2015    10      6       0.4930443       106.4323
2015    10      7       0.644435        129.435
2015    11      0       0.9390467       164.1399
2015    11      1       1.492172        210.0824
2015    11      2       1.473613        209.579
2015    11      3       1.096948        183.8267
2015    11      4       0.8575811       159.9362
2015    11      5       0.8056866       153.4289
2015    11      6       0.7220604       142.3977
2015    11      7       0.6656498       134.3189
2015    12      0       0.6034869       124.7634
2015    12      1       0.6036214       124.0532
2015    12      2       0.535279        113.8155
2015    12      3       0.501927        107.5632
2015    12      4       0.4399027       96.30973
2015    12      5       0.2935519       70.03799
2015    12      6       0.2993202       71.25655
2015    12      7       0.2617684       64.11
2015    13      0       0.2604404       64.05848
2015    13      1       0.21669         54.5039
2015    13      2       0.1767687       46.22939
2015    13      3       0.2012276       51.18428
2015    13      4       0.2238609       55.40975
2015    13      5       0.3124305       72.67282
2015    13      6       0.3631935       82.39457
2015    13      7       0.4561279       98.73668
2015    14      0       0.470304        101.1594
2015    14      1       0.5229826       108.8704
2015    14      2       0.5207102       109.0548
2015    14      3       0.5965761       121.2797
2015    14      4       0.7129421       138.3476
2015    14      5       0.972363        168.326
2015    14      6       1.8239          227.2535
2015    14      7       1.872903        229.794
2015    15      0       2.086834        239.2104
2015    15      1       2.112224        240.2449
2015    15      2       2.116388        239.5545
2015    15      3       0.9457936       165.882
2015    15      4       0.7108394       137.1176
2015    15      5       0.811471        148.921
2015    15      6       0.7924787       146.4862
2015    15      7       0.7368962       137.6597
2015    16      0       0.5087568       106.6521
2015    16      1       0.465918        100.1297
2015    16      2       0.1777131       46.54583
2015    16      3       0.07535802      23.45906
2015    16      4       0.07652814      23.59005
2015    16      5       0.1723538       45.57314
2015    16      6       0.3938686       88.49558
2015    16      7       0.4822408       104.1194
2015    17      0       0.4856435       105.1251
2015    17      1       0.537514        113.37
2015    17      2       0.6867728       134.5003
2015    17      3       1.04285         175.4223
2015    17      4       1.430741        206.4391
2015    17      5       1.517369        211.8268
2015    17      6       1.064435        178.8829
2015    17      7       0.4863881       104.719
2015    18      0       0.3137894       73.51595
2015    18      1       0.2776854       66.04074
2015    18      2       0.2628349       62.83843
2015    18      3       0.2439633       58.82954
2015    18      4       0.2114328       52.23175
2015    18      5       0.2187727       53.72096
2015    18      6       0.2169136       53.39578
2015    18      7       0.199475        49.87368
2015    19      0       0.1886099       47.67745
2015    19      1       0.1883046       47.68902
2015    19      2       0.1881061       47.69863
2015    19      3       0.1971753       49.61066
2015    19      4       0.1812303       46.34457
2015    19      5       0.1819039       46.62916
2015    19      6       0.197743        50.25394
2015    19      7       0.2240134       55.98235
2015    20      0       0.2334378       58.05
2015    20      1       0.2377807       58.91843
2015    20      2       0.2255972       56.20548
2015    20      3       0.2215549       55.15095
2015    20      4       0.2827333       66.85905
2015    20      5       0.3796451       84.19886
2015    20      6       0.4910352       102.5339
2015    20      7       0.5610518       113.3339
2015    21      0       0.5932774       118.9964
2015    21      1       0.5669614       116.5175
2015    21      2       0.5659454       116.6029
2015    21      3       0.6915892       133.4292
2015    21      4       0.7828053       144.2056
2015    21      5       0.8063349       146.9726
2015    21      6       0.9365544       162.2496
2015    21      7       0.7952254       147.1048
2015    22      0       0.7943494       147.5365
2015    22      1       0.6666127       131.3908
2015    22      2       0.484319        103.3896
2015    22      3       0.2590679       62.68754
2015    22      4       0.1854666       47.51435
2015    22      5       0.1596207       41.9005
2015    22      6       0.153874        40.84639
2015    22      7       0.1660762       43.50919
2015    23      0       0.166335        43.41148
2015    23      1       0.1693339       44.06871
2015    23      2       0.2004895       50.77213
2015    23      3       0.1938193       49.34749
2015    23      4       0.1338734       36.45117
2015    23      5       0.1483492       39.4823
2015    23      6       0.2223384       55.27514
2015    23      7       0.2825732       67.51616
2015    24      0       0.2884318       68.58087
2015    24      1       0.2675779       64.80586
2015    24      2       0.2724149       65.77355
2015    24      3       0.2951849       70.0616
2015    24      4       0.3061196       72.14892
2015    24      5       0.3126345       73.2659
2015    24      6       0.3392462       78.49825
2015    24      7       0.3693297       84.1808
2015    25      0       0.3627765       83.36444
2015    25      1       0.3799409       86.4043
2015    25      2       0.3208238       75.60005
2015    25      3       0.3281613       76.98631
2015    25      4       0.3036523       72.68788
2015    25      5       0.3313249       78.2417
2015    25      6       0.3824151       88.32882
2015    25      7       0.4514273       100.7675
2015    26      0       0.7391875       139.9407
2015    26      1       0.9104382       162.7283
2015    26      2       1.320703        200.4176
2015    26      3       1.256005        196.7212
2015    26      4       1.198289        192.4906
2015    26      5       0.8609632       159.0586
2015    26      6       1.520884        215.3868
2015    26      7       1.911011        235.2632
2015    27      0       1.800928        229.8117
2015    27      1       1.526979        214.3858
2015    27      2       1.080202        179.5643
2015    27      3       1.068709        177.7276
2015    27      4       1.05914         175.9422
2015    27      5       0.996595        170.3885
2015    27      6       0.9838131       168.8042
2015    27      7       0.9782126       167.8897
2015    28      0       0.8163495       151.1865
2015    28      1       0.7765187       145.3752
2015    28      2       0.7421108       141.2994
2015    28      3       0.7169455       138.1776
2015    28      4       0.645332        127.6395
2015    28      5       0.7243521       136.3096
2015    28      6       0.7268058       136.3534
2015    28      7       0.5954319       118.9439
2015    29      0       0.5144434       107.0053
2015    29      1       0.379431        84.79561
2015    29      2       0.2854515       67.56059
2015    29      3       0.1982281       50.19651
2015    29      4       0.143428        38.67872
2015    29      5       0.2086188       52.59014
2015    29      6       0.2135267       54.15785
2015    29      7       0.2716726       66.04299
2015    30      0       0.2980337       71.23031
2015    30      1       0.3265426       76.6491
2015    30      2       0.3612109       83.0339
2015    30      3       0.4127238       91.38807
2015    30      4       0.5828771       118.0961
2015    30      5       0.9136854       160.393
2015    30      6       1.017739        171.6362
2015    30      7       0.7435579       141.752
2015    31      0       0.63408         126.7281
2015    31      1       0.6212759       124.1902
2015    31      2       0.6489333       127.6368
2015    31      3       0.6436361       126.8491
2015    31      4       0.6121977       123.117
2015    31      5       0.5059253       107.9059
2015    31      6       0.4401028       97.68404
2015    31      7       0.4771315       103.2961
2016    1       0       0.6121267       125.3531
2016    1       1       0.5366985       114.4144
2016    1       2       0.6025974       123.7045
2016    1       3       0.3239127       78.56918
2016    1       4       0.2418651       60.14544
2016    1       5       0.2846668       69.73167
2016    1       6       0.3786968       85.4598
2016    1       7       0.5092159       108.2171
2016    2       0       0.4061875       91.5418
2016    2       1       0.4372352       97.00409
2016    2       2       0.9726402       168.3887
2016    2       3       3.02092         261.6673
2016    2       4       2.023292        239.1664
2016    2       5       1.201993        190.2992
2016    2       6       0.3946853       89.87627
2016    2       7       0.3115678       73.93158
2016    3       0       0.2473936       61.93804
2016    3       1       0.2731953       65.43573
2016    3       2       0.2543047       61.23046
2016    3       3       0.2020356       50.67382
2016    3       4       0.1774282       45.44423
2016    3       5       0.1648492       42.79759
2016    3       6       0.1801245       46.21638
2016    3       7       0.2122628       52.95622
2016    4       0       0.2164136       53.67204
2016    4       1       0.2256256       55.4861
2016    4       2       0.2662679       63.39059
2016    4       3       0.3463552       78.35639
2016    4       4       0.5056742       104.6899
2016    4       5       0.7131139       133.9496
2016    4       6       1.052204        170.8665
2016    4       7       0.9891997       165.4412
2016    5       0       0.7870973       144.7768
2016    5       1       0.5380859       111.6619
2016    5       2       0.3574163       81.70675
2016    5       3       0.284337        68.16289
2016    5       4       0.2412923       59.47507
2016    5       5       0.2475473       61.75368
2016    5       6       0.3010111       70.86987
2016    5       7       0.4237462       91.78235
2016    6       0       0.4239781       91.85663
2016    6       1       0.3780955       84.27881
2016    6       2       0.3682583       82.65185
2016    6       3       0.3796917       84.46562
2016    6       4       0.3774929       83.86971
2016    6       5       0.3378312       77.16851
2016    6       6       0.3214517       74.7527
2016    6       7       0.3473429       79.95365
2016    7       0       0.3309323       77.26422
2016    7       1       0.320959        75.42873
2016    7       2       0.3702805       84.22948
2016    7       3       0.4312069       94.8162
2016    7       4       0.4435732       97.39706
2016    7       5       0.6728089       131.4803
2016    7       6       1.860529        228.4534
2016    7       7       0.7762617       147.8408
2016    8       0       0.8052886       152.0267
2016    8       1       0.788197        149.7755
2016    8       2       0.770771        147.3099
2016    8       3       0.72689         141.624
2016    8       4       0.6246287       127.9586
2016    8       5       0.6686138       133.8349
2016    8       6       0.7406111       143.5772
2016    8       7       0.8479262       156.7828
2016    9       0       0.8657499       159.6637
2016    9       1       0.9942899       174.4305
2016    9       2       1.35002         204.9718
2016    9       3       0.9361505       170.045
2016    9       4       1.198784        196.6622
2016    9       5       1.140014        191.5456
2016    9       6       1.210148        197.5845
2016    9       7       1.4524          216.5776
2016    10      0       1.333468        207.4444
2016    10      1       1.180426        195.4504
2016    10      2       1.60296         224.3982
2016    10      3       1.957563        240.753
2016    10      4       1.916548        237.6479
2016    10      5       2.004338        239.9062
2016    10      6       2.306382        250.1141
2016    10      7       2.351478        251.4978
2016    11      0       2.239542        248.6273
2016    11      1       2.205154        246.955
2016    11      2       2.176105        245.0875
2016    11      3       1.671973        221.7405
2016    11      4       0.9691054       169.9457
2016    11      5       0.8566155       156.708
2016    11      6       0.6799709       135.4466
2016    11      7       0.6063394       125.4407
2016    12      0       0.43601         98.19648
2016    12      1       0.2649518       66.53301
2016    12      2       0.2829149       70.09779
2016    12      3       0.3228409       77.76632
2016    12      4       0.3217933       77.63739
2016    12      5       0.4178132       95.20052
2016    12      6       0.5297777       114.6871
2016    12      7       0.6349524       131.1342
2016    13      0       0.6960935       139.9823
2016    13      1       0.4541599       103.8407
2016    13      2       0.787997        152.5694
2016    13      3       0.5838115       123.3924
2016    13      4       0.191337        50.81206
2016    13      5       0.3031382       74.1428
2016    13      6       0.4394618       99.50719
2016    13      7       0.5022479       109.8969
2016    14      0       0.4725686       104.7043
2016    14      1       0.4527536       100.8759
2016    14      2       0.4146484       93.17471
2016    14      3       0.3794276       86.37784
2016    14      4       0.4732232       102.3842
2016    14      5       0.7799716       147.716
2016    14      6       0.875679        159.2938
2016    14      7       0.9678509       169.9648
2016    15      0       1.003896        175.7186
2016    15      1       1.373059        203.1499
2016    15      2       1.817271        228.3173
2016    15      3       1.700139        222.7102
2016    15      4       1.965855        234.8421
2016    15      5       2.096882        240.1902
2016    15      6       2.359003        248.1636
2016    15      7       2.682242        255.4049
2016    16      0       3.029582        261.1541
2016    16      1       3.080515        262.1228
2016    16      2       3.140979        262.7677
2016    16      3       2.425238        250.008
2016    16      4       2.273561        245.9542
2016    16      5       2.332996        247.6015
2016    16      6       2.236433        245.3296
2016    16      7       2.17135         244.1656
2016    17      0       2.208465        244.2215
2016    17      1       1.586729        217.8888
2016    17      2       1.679275        221.9733
2016    17      3       1.081119        180.842
2016    17      4       0.8730548       159.4564
2016    17      5       0.7842077       147.9244
2016    17      6       0.9125025       162.7808
2016    17      7       0.8285243       153.2772
2016    18      0       0.8001452       149.9109
2016    18      1       0.6316965       127.0644
2016    18      2       0.7341407       140.7564
2016    18      3       0.8567076       154.073
2016    18      4       0.7680331       143.7319
2016    18      5       0.8198733       150.2082
2016    18      6       0.6944982       135.0094
2016    18      7       0.5419579       113.106
2016    19      0       0.383197        86.83808
2016    19      1       0.2856975       68.39843
2016    19      2       0.2653605       64.23122
2016    19      3       0.27918         66.8302
2016    19      4       0.3393734       78.1343
2016    19      5       0.3343565       77.7267
2016    19      6       0.2864257       69.12022
2016    19      7       0.2828097       68.37703
2016    20      0       0.2436951       60.36764
2016    20      1       0.1905697       49.37433
2016    20      2       0.133649        36.95615
2016    20      3       0.1290636       36.50787
2016    20      4       0.1759146       47.40871
2016    20      5       0.2577009       64.80682
2016    20      6       1.226844        187.5025
2016    20      7       0.45158         98.17004
2016    21      0       0.4803625       102.6741
2016    21      1       0.6094056       121.947
2016    21      2       0.7507574       140.5326
2016    21      3       0.7790704       143.8444
2016    21      4       0.7722335       142.1185
2016    21      5       0.7606595       141.52
2016    21      6       0.5329934       110.766
2016    21      7       0.4373831       95.81081
2016    22      0       0.3279731       76.29309
2016    22      1       0.3549664       81.10206
2016    22      2       0.597311        119.747
2016    22      3       0.3058629       71.8676
2016    22      4       0.2991716       70.51275
2016    22      5       0.3652038       82.94791
2016    22      6       0.4184082       92.83619
2016    22      7       0.4974916       106.2414
2016    23      0       0.5430785       113.6127
2016    23      1       0.6407845       128.3598
2016    23      2       0.8748574       157.5926
2016    23      3       0.9791212       170.0318
2016    23      4       1.002646        172.9535
2016    23      5       1.197919        190.1314
2016    23      6       1.290447        197.3338
2016    23      7       1.209918        189.1905
2016    24      0       0.8988723       160.0832
2016    24      1       0.8012362       148.4372
2016    24      2       0.7087297       137.3286
2016    24      3       0.6475879       130.352
2016    24      4       0.6839289       136.9486
2016    24      5       1.246823        201.3003
2016    24      6       1.358729        211.8251
2016    24      7       1.346531        209.5683
2016    25      0       1.459159        208.6091
2016    25      1       1.967847        245.7734
2016    25      2       2.986285        259.9496
2016    25      3       3.722422        270.8847
2016    25      4       3.083255        265.9082
2016    25      5       2.515169        256.1511
2016    25      6       2.723787        260.546
2016    25      7       2.309919        250.3912
2016    26      0       0.7838196       150.9108
2016    26      1       0.6085175       125.7538
2016    26      2       0.5312921       113.7218
2016    26      3       0.4749067       104.7327
2016    26      4       0.4186716       95.09644
2016    26      5       0.426992        96.2739
2016    26      6       0.4210244       95.55999
2016    26      7       0.464687        102.98
2016    27      0       0.4198376       95.41949
2016    27      1       0.4263167       96.57033
2016    27      2       0.4574252       101.5493
2016    27      3       0.5169763       111.4747
2016    27      4       0.5831295       121.6059
2016    27      5       0.6056808       124.6194
2016    27      6       0.6240763       127.5938
2016    27      7       0.6608704       133.1996
2016    28      0       0.7055037       140.019
2016    28      1       0.7047982       140.2651
2016    28      2       0.6648132       134.9597
2016    28      3       0.7344181       143.647
2016    28      4       1.165192        186.4397
2016    28      5       1.476844        209.4807
2016    28      6       1.930823        232.9641
2016    28      7       2.37917         248.8774
2016    29      0       1.036134        176.5562
2016    29      1       1.186345        189.3298
2016    29      2       1.011836        172.5
2016    29      3       0.8005357       148.9603
2016    29      4       0.724723        139.5043
2016    29      5       0.7152293       137.5712
2016    29      6       0.6401809       127.3848
2016    29      7       0.5124936       108.9326
2016    30      0       0.4055205       90.96499
2016    30      1       0.3827844       86.89939
2016    30      2       0.2770418       67.51402
2016    30      3       0.2214017       56.44851
2016    30      4       0.2236538       56.65639
2016    30      5       0.3252252       77.00222
2016    30      6       0.4321139       96.97394
2016    30      7       0.5948205       122.7931
2016    31      0       0.6799835       134.0647
2016    31      1       0.6985467       137.5217
2016    31      2       0.7375318       143.9322
2016    31      3       0.8241843       155.7261
2016    31      4       0.7999537       153.9831
2016    31      5       1.2279          196.7467
2016    31      6       1.381489        209.7664
2016    31      7       1.385133        210.3566
2017    1       0       1.214221        191.7333
2017    1       1       2.625679        255.1796
2017    1       2       1.906778        235.403
2017    1       3       2.10467         243.4257
2017    1       4       2.262993        248.4707
2017    1       5       2.395966        253.2987
2017    1       6       2.579898        258.4916
2017    1       7       2.453542        256.7325
2017    2       0       2.261757        251.5861
2017    2       1       1.752173        233.1545
2017    2       2       2.110764        245.8799
2017    2       3       1.249552        197.1997
2017    2       4       0.6763425       135.1979
2017    2       5       0.4128918       93.10759
2017    2       6       0.3227775       76.2361
2017    2       7       0.3510674       80.67543
2017    3       0       0.2997995       70.67215
2017    3       1       0.2798198       66.56576
2017    3       2       0.2814932       66.5443
2017    3       3       0.2880711       67.97487
2017    3       4       0.2764237       65.35004
2017    3       5       0.2604164       62.17499
2017    3       6       0.2314974       56.6487
2017    3       7       0.2415686       58.57814
2017    4       0       0.3308776       75.45812
2017    4       1       0.2740375       64.3096
2017    4       2       0.1808289       45.60562
2017    4       3       0.1756994       44.42326
2017    4       4       0.1692864       42.93889
2017    4       5       0.1749059       43.95593
2017    4       6       0.1324118       35.07269
2017    4       7       0.1517416       39.30227
2017    5       0       0.1631318       41.71886
2017    5       1       0.1684254       42.88572
2017    5       2       0.1763889       44.61053
2017    5       3       0.1714351       43.72141
2017    5       4       0.151194        39.65795
2017    5       5       0.1608126       42.0773
2017    5       6       0.1793224       46.50878
2017    5       7       0.1887076       48.78096
2017    6       0       0.1451911       39.094
2017    6       1       0.09990821      28.89867
2017    6       2       0.09190435      27.00974
2017    6       3       0.09332179      27.25435
2017    6       4       0.1027276       29.33598
2017    6       5       0.1455077       38.98514
2017    6       6       0.2345225       58.02894
2017    6       7       0.2845941       68.37247
2017    7       0       0.3207619       75.30803
2017    7       1       0.3427178       79.49543
2017    7       2       0.4670507       100.2619
2017    7       3       0.4807431       103.4465
2017    7       4       0.5767667       119.4683
2017    7       5       0.9250487       163.4575
2017    7       6       1.835824        228.1931
2017    7       7       2.90743         259.1453
2017    8       0       1.737959        227.1235
2017    8       1       1.743552        227.515
2017    8       2       1.837997        233.0444
2017    8       3       1.931622        236.6388
2017    8       4       2.024224        239.9822
2017    8       5       1.10127         182.6821
2017    8       6       0.6553643       132.1283
2017    8       7       0.46499         102.3183
2017    9       0       0.5656067       117.3795
2017    9       1       0.5817148       119.8596
2017    9       2       0.612078        124.2952
2017    9       3       0.5176463       110.2069
2017    9       4       0.4133582       92.73432
2017    9       5       0.389497        88.05363
2017    9       6       0.3459876       80.1422
2017    9       7       0.3611968       82.73564
2017    10      0       0.3632503       82.66251
2017    10      1       0.3461648       79.61817
2017    10      2       0.3750816       84.74493
2017    10      3       0.504954        105.2953
2017    10      4       0.6006738       119.0461
2017    10      5       0.6459511       124.816
2017    10      6       0.6075856       119.6772
2017    10      7       0.543458        110.5981
2017    11      0       0.5178947       106.2829
2017    11      1       0.280256        65.59709
2017    11      2       0.222572        54.04081
2017    11      3       0.1838847       45.86667
2017    11      4       0.1477837       38.28411
2017    11      5       0.136489        35.88145
2017    11      6       0.1411635       36.97991
2017    11      7       0.1577615       40.48949
2017    12      0       0.1722893       43.64054
2017    12      1       0.1744535       44.11677
2017    12      2       0.1583443       40.68552
2017    12      3       0.15337         39.66739
2017    12      4       0.1383758       37.25813
2017    12      5       0.1608426       41.46462
2017    12      6       0.1825839       46.21557
2017    12      7       0.19743         49.29144
2017    13      0       0.1877041       47.1416
2017    13      1       0.1780513       45.1335
2017    13      2       0.1841913       46.31197
2017    13      3       0.1594744       41.27845
2017    13      4       0.1653801       42.80998
2017    13      5       0.2123837       53.4606
2017    13      6       0.2947068       69.29709
2017    13      7       0.3252939       75.2452
2017    14      0       0.2560377       62.40846
2017    14      1       0.28099         67.50285
2017    14      2       0.4072647       90.27742
2017    14      3       0.6305792       123.5791
2017    14      4       0.7831101       143.2799
2017    14      5       1.072111        179.028
2017    14      6       1.068648        174.9635
2017    14      7       1.198285        187.8121
2017    15      0       1.545121        213.3062
2017    15      1       0.6895333       140.7116
2017    15      2       0.4172859       93.16119
2017    15      3       0.3483771       80.27287
2017    15      4       0.3054285       71.77636
2017    15      5       0.3873738       86.22947
2017    15      6       0.4288446       93.16356
2017    15      7       0.4231018       91.41371
2017    16      0       0.4122008       88.94754
2017    16      1       0.3521991       78.98765
2017    16      2       0.3484183       78.71529
2017    16      3       0.3368805       76.82644
2017    16      4       0.3105149       72.02244
2017    16      5       0.3703481       82.79913
2017    16      6       0.3820993       85.03694
2017    16      7       0.4062178       89.27643
2017    17      0       0.3618588       81.42696
2017    17      1       0.3134785       72.74131
2017    17      2       0.2829933       67.34091
2017    17      3       0.2913066       68.98265
2017    17      4       0.2863219       68.04162
2017    17      5       0.3266599       75.67369
2017    17      6       0.3909393       87.63077
2017    17      7       0.4317139       94.73473
2017    18      0       0.3755173       85.08506
2017    18      1       0.3228051       75.38802
2017    18      2       0.2966533       70.50053
2017    18      3       0.2813709       67.69
2017    18      4       0.25593         62.82265
2017    18      5       0.2879579       69.04541
2017    18      6       0.3673903       83.84181
2017    18      7       0.425859        93.97362
2017    19      0       0.49422         104.5645
2017    19      1       0.5721654       116.231
2017    19      2       0.6386489       126.3277
2017    19      3       0.6641978       130.028
2017    19      4       0.5859793       119.3702
2017    19      5       0.6100003       122.6709
2017    19      6       0.6052867       122.3587
2017    19      7       0.5638677       116.5371
2017    20      0       0.4888229       105.3692
2017    20      1       0.4382727       97.51446
2017    20      2       0.3917828       89.91136
2017    20      3       0.3633705       85.20941
2017    20      4       0.3260982       78.33331
2017    20      5       0.2715809       69.74036
2017    20      6       0.3449649       81.97648
2017    20      7       0.4954769       108.176
2017    21      0       0.5550773       117.1883
2017    21      1       0.5161339       111.1209
2017    21      2       0.4037492       91.99609
2017    21      3       0.5914988       121.7226
2017    21      4       0.7059166       138.0746
2017    21      5       0.788048        148.7785
2017    21      6       0.8007873       150.5654
2017    21      7       0.8169052       152.6783
2017    22      0       0.7600573       145.1942
2017    22      1       0.5243562       111.6529
2017    22      2       0.4691793       102.3779
2017    22      3       0.6643991       130.581
2017    22      4       0.4371467       94.99618
2017    22      5       0.2620313       62.95534
2017    22      6       0.2064276       51.39513
2017    22      7       0.1849841       46.90333
2017    23      0       0.1839437       46.64835
2017    23      1       0.2036768       50.57734
2017    23      2       0.21666         53.03909
2017    23      3       0.1885696       47.34141
2017    23      4       0.1611508       41.71392
2017    23      5       0.1969478       49.39391
2017    23      6       0.2194989       54.4552
2017    23      7       0.2526253       61.50843
2017    24      0       0.2681033       64.74414
2017    24      1       0.3298941       76.15673
2017    24      2       0.3624021       82.54198
2017    24      3       0.4114573       91.31962
2017    24      4       0.4426707       97.05252
2017    24      5       0.8508476       154.2619
2017    24      6       1.07994         180.7712
2017    24      7       1.083224        184.3352
2017    25      0       1.131069        184.5928
2017    25      1       1.260491        196.6998
2017    25      2       1.448001        209.243
2017    25      3       1.219156        191.7907
2017    25      4       1.089563        179.4502
2017    25      5       1.039504        173.5746
2017    25      6       1.240299        190.9544
2017    25      7       0.9399309       164.6042
2017    26      0       0.6282358       128.34
2017    26      1       0.3567389       84.10869
2017    26      2       0.3226615       80.30132
2017    26      3       0.3382819       83.28649
2017    26      4       0.3345287       81.33292
2017    26      5       0.4012127       92.96022
2017    26      6       0.4926024       108.8245
2017    26      7       0.6623766       134.1556
2017    27      0       0.6889935       137.4027
2017    27      1       0.855082        158.0644
2017    27      2       0.6588971       134.9581
2017    27      3       1.949352        232.6186
2017    27      4       2.921295        257.301
2017    27      5       2.105354        239.724
2017    27      6       1.502975        211.7722
2017    27      7       2.539597        252.5305
2017    28      0       2.866599        258.5595
2017    28      1       2.759424        257.0865
2017    28      2       2.722156        256.6531
2017    28      3       2.633512        255.3408
2017    28      4       2.896695        260.4156
2017    28      5       3.254521        264.2313
2017    28      6       2.710715        256.7991
2017    28      7       1.960649        235.5487
2017    29      0       1.599823        217.1211
2017    29      1       1.494358        210.7605
2017    29      2       1.322774        199.4483
2017    29      3       0.9909862       171.2
2017    29      4       0.7638844       145.5234
2017    29      5       0.6535916       131.1271
2017    29      6       0.6597455       132.342
2017    29      7       0.5799768       120.1499
2017    30      0       0.4898708       105.3972
2017    30      1       0.4817651       103.9436
2017    30      2       0.4604503       100.7546
2017    30      3       0.5498747       114.9722
2017    30      4       0.4553118       99.95194
2017    30      5       0.4555162       100.0231
2017    30      6       0.4817247       104.6936
2017    30      7       0.5262022       111.9197
2017    31      0       0.5372777       113.2275
2017    31      1       0.6372105       126.9029
2017    31      2       0.7663206       143.2654
2017    31      3       0.7237131       138.2648
2017    31      4       0.6425227       129.8846
2017    31      5       0.8448311       154.9402
2017    31      6       0.9793865       169.9602
2017    31      7       0.9855877       171.713
2018    1       0       0.8441775       156.0109
2018    1       1       0.7884225       149.4106
2018    1       2       1.146332        186.5979
2018    1       3       1.117042        184.2672
2018    1       4       1.040238        177.4867
2018    1       5       0.9752585       170.5185
2018    1       6       0.7046455       138.7397
2018    1       7       0.6302885       127.8686
2018    2       0       0.6345822       128.1376
2018    2       1       0.9007709       160.2588
2018    2       2       1.303192        195.515
2018    2       3       2.106023        236.9349
2018    2       4       1.741223        222.7504
2018    2       5       1.552418        212.568
2018    2       6       1.695415        220.1591
2018    2       7       1.46153         206.6665
2018    3       0       1.074432        176.2652
2018    3       1       0.9265288       161.2631
2018    3       2       0.8116939       148.428
2018    3       3       0.7554402       142.7974
2018    3       4       1.004154        171.3005
2018    3       5       1.062412        176.9745
2018    3       6       0.7243913       140.547
2018    3       7       0.6198463       126.2018
2018    4       0       0.5578189       116.8471
2018    4       1       0.5164597       110.4529
2018    4       2       0.761276        144.1605
2018    4       3       0.8746699       156.6025
2018    4       4       0.7094284       136.7813
2018    4       5       0.732658        140.0231
2018    4       6       0.6007895       122.6362
2018    4       7       0.5614785       116.52
2018    5       0       0.5831664       119.1053
2018    5       1       0.6334293       125.2919
2018    5       2       0.9496482       161.3685
2018    5       3       0.9592601       162.645
2018    5       4       0.6820953       132.1274
2018    5       5       0.6337612       126.2007
2018    5       6       0.5833739       119.9134
2018    5       7       0.5185287       110.3639
2018    6       0       0.4893619       105.6167
2018    6       1       0.469699        102.156
2018    6       2       0.5367534       112.4199
2018    6       3       0.601531        121.6866
2018    6       4       0.7409617       139.8774
2018    6       5       0.6519801       128.9018
2018    6       6       0.586247        120.2467
2018    6       7       0.5665841       117.664
2018    7       0       0.5482633       114.9302
2018    7       1       0.5831157       119.9981
2018    7       2       0.6086073       123.5304
2018    7       3       0.7203249       138.2733
2018    7       4       0.9036439       159.3346
2018    7       5       1.332027        195.9804
2018    7       6       1.230684        189.8692
2018    7       7       1.288444        193.63
2018    8       0       1.480909        207.0972
2018    8       1       1.158461        182.0624
2018    8       2       1.106548        178.0674
2018    8       3       1.069111        174.9311
2018    8       4       1.118968        179.1023
2018    8       5       0.7836511       144.5477
2018    8       6       0.8004281       145.9999
2018    8       7       0.6686391       130.3551
2018    9       0       0.5374214       112.2094
2018    9       1       0.4870787       104.216
2018    9       2       0.4839872       103.3842
2018    9       3       0.4872141       103.5358
2018    9       4       0.4935904       103.9499
2018    9       5       0.5924624       118.3483
2018    9       6       0.6273385       122.9296
2018    9       7       0.5936138       118.4385
2018    10      0       0.588981        118.0043
2018    10      1       0.6113637       121.4812
2018    10      2       0.5933331       119.1212
2018    10      3       0.5750686       116.1727
2018    10      4       0.5225363       108.646
2018    10      5       0.581708        117.6586
2018    10      6       0.5805169       117.662
2018    10      7       0.6040808       120.9336
2018    11      0       0.6057695       121.0326
2018    11      1       0.6190791       122.6712
2018    11      2       0.6358415       124.7278
2018    11      3       0.6115692       121.6632
2018    11      4       0.5821943       117.6273
2018    11      5       0.6218963       123.3208
2018    11      6       0.6350057       125.5622
2018    11      7       0.6360927       125.9933
2018    12      0       0.5792758       118.0546
2018    12      1       0.5407015       112.3292
2018    12      2       0.5274502       110.5597
2018    12      3       0.4996871       106.6134
2018    12      4       0.4944854       105.9393
2018    12      5       0.5557515       115.4643
2018    12      6       0.6103729       123.5951
2018    12      7       0.6798462       132.7305
2018    13      0       0.8540153       153.0347
2018    13      1       0.9538916       163.3782
2018    13      2       1.315687        194.9026
2018    13      3       1.183263        184.6972
2018    13      4       1.119446        178.659
2018    13      5       0.9536464       162.6132
2018    13      6       0.9797083       165.1588
2018    13      7       0.9344478       160.451
2018    14      0       0.8539672       152.0447
2018    14      1       0.7743804       143.0259
2018    14      2       0.7959651       145.1515
2018    14      3       0.7545951       140.1266
2018    14      4       0.6856311       131.3374
2018    14      5       0.7421146       138.2762
2018    14      6       0.7192156       135.526
2018    14      7       0.6561056       127.8509
2018    15      0       0.6333997       124.7568
2018    15      1       0.686339        131.1727
2018    15      2       0.7287571       136.0785
2018    15      3       0.7333734       136.9004
2018    15      4       0.6312369       124.0055
2018    15      5       0.6632613       128.7007
2018    15      6       0.7174319       136.1005
2018    15      7       0.6840949       131.8033
2018    16      0       0.64623         126.6134
2018    16      1       0.5926505       119.0055
2018    16      2       0.5546501       113.4215
2018    16      3       0.579268        116.7331
2018    16      4       0.606671        119.9105
2018    16      5       0.6481332       125.7012
2018    16      6       0.5108973       106.1103
2018    16      7       0.4522787       96.82333
2018    17      0       0.3622427       81.78883
2018    17      1       0.3334983       76.78863
2018    17      2       0.2953069       69.59514
2018    17      3       0.3105307       72.41185
2018    17      4       0.3785534       84.77386
2018    17      5       0.4210744       92.75725
2018    17      6       0.374047        84.80432
2018    17      7       0.2506727       61.21803
2018    18      0       0.2015388       51.35221
2018    18      1       0.1842576       47.40582
2018    18      2       0.2088501       52.48327
2018    18      3       0.2066999       52.10647
2018    18      4       0.1555711       41.24157
2018    18      5       0.1787117       46.07431
2018    18      6       0.2466372       59.94082
2018    18      7       0.283414        67.17675
2018    19      0       0.260678        62.9478
2018    19      1       0.2416559       59.36655
2018    19      2       0.2217331       55.21657
2018    19      3       0.1862358       47.86786
2018    19      4       0.1260297       34.7228
2018    19      5       0.2061942       51.9812
2018    19      6       0.3135833       73.36281
2018    19      7       0.3632269       82.60298
2018    20      0       0.3326749       76.8763
2018    20      1       0.3013008       71.0926
2018    20      2       0.248441        61.09148
2018    20      3       0.2133989       54.23169
2018    20      4       0.187809        49.02607
2018    20      5       0.2045282       52.58737
2018    20      6       0.307977        73.59014
2018    20      7       0.3588074       83.35424
2018    21      0       0.370698        85.60298
2018    21      1       0.3809546       87.54682
2018    21      2       0.4286133       95.81834
2018    21      3       0.4240972       95.08519
2018    21      4       0.4192214       96.74543
2018    21      5       0.4858668       107.2799
2018    21      6       0.6796079       131.5975
2018    21      7       0.8210939       149.1329
2018    22      0       0.9590568       164.349
2018    22      1       0.9907201       167.6028
2018    22      2       1.004828        168.8491
2018    22      3       0.9392866       162.0907
2018    22      4       0.7971708       146.7108
2018    22      5       0.6746269       131.7629
2018    22      6       0.7222442       138.6865
2018    22      7       0.7482351       141.8918
2018    23      0       0.7441933       140.8714
2018    23      1       0.640565        127.3296
2018    23      2       0.5702439       117.4
2018    23      3       0.432673        95.44956
2018    23      4       0.3708325       84.41423
2018    23      5       0.4883512       104.3694
2018    23      6       0.5540122       114.4714
2018    23      7       0.6196027       123.6022
2018    24      0       0.6115963       122.6353
2018    24      1       0.5667095       116.2293
2018    24      2       0.5924836       119.8909
2018    24      3       0.6192161       123.4283
2018    24      4       0.5980938       120.1542
2018    24      5       0.6438797       126.2356
2018    24      6       0.7487446       139.4845
2018    24      7       0.7947885       144.6709
2018    25      0       0.7233083       135.6728
2018    25      1       0.9057868       156.8258
2018    25      2       1.205169        183.9635
2018    25      3       1.250509        186.9587
2018    25      4       1.162828        179.6733
2018    25      5       0.7014047       132.8003
2018    25      6       0.537534        110.6032
2018    25      7       0.5130377       107.184
2018    26      0       0.5227758       109.0763
2018    26      1       0.4932168       104.9426
2018    26      2       0.4265859       94.3484
2018    26      3       0.39545         89.12511
2018    26      4       0.3454776       80.30331
2018    26      5       0.3280675       77.31584
2018    26      6       0.3154479       75.26817
2018    26      7       0.3453938       81.00226
2018    27      0       0.3175747       76.03091
2018    27      1       0.2892891       70.61295
2018    27      2       0.276973        68.11947
2018    27      3       0.2387297       60.38327
2018    27      4       0.2165473       55.7883
2018    27      5       0.2644687       65.83978
2018    27      6       0.2603146       65.20946
2018    27      7       0.2499511       62.29031
2018    28      0       0.233           57.81818
2018    28      1       0.3952516       88.52975
2018    28      2       0.6621774       130.6056
2018    28      3       0.8448155       153.4191
2018    28      4       0.8792128       158.2886
2018    28      5       0.774902        147.5134
2018    28      6       0.9006848       163.6929
2018    28      7       0.9962788       174.7418
2018    29      0       0.9471228       169.8339
2018    29      1       0.898203        164.4543
2018    29      2       0.8876227       163.0416
2018    29      3       0.902587        164.0334
2018    29      4       0.9731812       170.9509
2018    29      5       1.052064        178.5164
2018    29      6       1.284209        199.0786
2018    29      7       1.500815        214.1525
2018    30      0       1.986319        237.7971
2018    30      1       2.54347         255.523
2018    30      2       2.416666        253.7277
2018    30      3       2.199595        249.5215
2018    30      4       2.363346        253.5234
2018    30      5       2.202724        246.6265
2018    30      6       1.461373        215.3244
2018    30      7       1.210116        195.8608
2018    31      0       1.103417        184.6267
2018    31      1       1.053849        178.3146
2018    31      2       0.7041483       136.3149
2018    31      3       0.3317183       76.66428
2018    31      4       0.2844811       68.03143
2018    31      5       0.3872153       87.85301
2018    31      6       0.4009593       91.68034
2018    31      7       0.4214174       95.79869
