####################################################################################################
# Month: 03Mar                                                                                     #
# Station: FUJI                                                                                    #
# Frequency: 345 GHz                                                                               #
# Columns are: year    day     tau     Tb (K)                                                      #
####################################################################################################
2009    1       0.1832822       45.89297375
2009    2       0.27539451      60.72730875
2009    3       0.40415341      87.65031375
2009    4       0.38024851      78.8141575
2009    5       0.59160669      113.0705
2009    6       0.74813196      132.1358325
2009    7       0.34620924      75.46299
2009    8       0.39058185      84.1799075
2009    9       0.78212955      138.82114375
2009    10      0.08145689      25.4249775
2009    11      0.06736564      22.04107875
2009    12      0.30774312      68.24935375
2009    13      0.95693265      161.808
2009    14      0.37568703      64.47587
2009    15      0.10957083      31.96275
2009    16      0.11619794      33.2853525
2009    17      0.15240414      41.19226375
2009    18      0.24281735      60.2822225
2009    19      0.48291146      102.07385125
2009    20      0.21765738      52.65553625
2009    21      0.45777044      95.097405
2009    22      0.8132728       135.1750525
2009    23      0.46551011      96.6059025
2009    24      0.15473463      41.02775125
2009    25      0.23235378      52.6758975
2009    26      0.13310707      36.684765
2009    27      0.22660109      54.549735
2009    28      0.17923178      46.37831375
2009    29      0.33487016      75.24345625
2009    30      0.15649375      41.50852
2009    31      0.39018295      85.27543625
2010    1       0.59781418      109.75752875
2010    2       0.27000001      65.60468375
2010    3       0.56693872      108.37919625
2010    4       0.94495976      154.32853375
2010    5       0.54214708      95.8723675
2010    6       0.81658396      143.4866775
2010    7       0.6746397       122.73489375
2010    8       0.224659        54.85715375
2010    9       0.83210402      139.53146
2010    10      0.08381753      26.106995
2010    11      0.0854013       26.53559125
2010    12      0.20812334      52.17321875
2010    13      0.25857121      61.7801625
2010    14      0.10966926      32.48516375
2010    15      0.88337654      149.33538875
2010    16      0.29079331      65.6965175
2010    17      0.31570511      73.61077375
2010    18      0.28668835      65.15652125
2010    19      0.37523917      82.10708125
2010    20      0.4282526       90.0094675
2010    21      0.12797388      35.93652
2010    22      0.73697644      136.1712475
2010    23      1.07027675      172.7670875
2010    24      1.32421892      192.9139625
2010    25      1.00307263      144.93859875
2010    26      0.10733986      31.243105
2010    27      0.33799816      73.4360475
2010    28      0.30243016      69.32311125
2010    29      0.09070064      27.28567875
2010    30      0.28114359      66.1405375
2010    31      0.67925785      128.23671875
2011    1       0.44426448      90.1644225
2011    2       0.0732379       23.73800125
2011    3       0.14483955      38.25065875
2011    4       0.06981388      22.75754625
2011    5       0.13471553      37.0331
2011    6       0.6251133       118.90091875
2011    7       0.31069379      62.99058
2011    8       0.07785553      24.575935
2011    9       0.08100639      25.28249375
2011    10      0.08315588      25.74032375
2011    11      0.09107282      27.5868
2011    12      0.23859128      57.83096
2011    13      0.10189635      30.090405
2011    14      0.31791446      70.04148125
2011    15      0.4151518       88.06887125
2011    16      0.10434398      30.51183625
2011    17      0.06381132      21.447565
2011    18      0.34236594      76.42794625
2011    19      0.28607129      67.315795
2011    20      0.66749912      125.82674
2011    21      1.19775425      184.14555
2011    22      0.64357258      117.20101625
2011    23      0.14713421      39.164725
2011    24      0.15945202      40.9804975
2011    25      0.13246548      36.082355
2011    26      0.06252346      21.14728625
2011    27      0.09681421      28.94110875
2011    28      0.09922202      29.62744375
2011    29      0.16081407      42.42997875
2011    30      0.11382565      32.7865925
2011    31      0.10582113      31.06451875
2012    1       0.4890256       102.58487125
2012    2       0.55931374      109.21551125
2012    3       0.18009873      46.27704875
2012    4       0.7316202       131.660245
2012    5       1.19561662      183.78635
2012    6       0.27849242      58.9325
2012    7       0.70195845      130.897175
2012    8       0.64130416      122.87276875
2012    9       0.82155964      145.7419875
2012    10      0.3144463       66.4256475
2012    11      0.06416375      21.7230375
2012    12      0.05762054      20.04357
2012    13      0.06244672      21.038055
2012    14      0.08402351      25.932775
2012    15      0.07280321      23.49111375
2012    16      0.43032931      91.56932875
2012    17      0.55554402      111.5306725
2012    18      0.47913958      90.075125
2012    19      0.29035689      68.63639875
2012    20      0.18903149      47.92442
2012    21      0.13463661      36.53961375
2012    22      0.97616114      159.47425125
2012    23      1.32114314      193.0382875
2012    24      0.14532239      37.47710625
2012    25      0.07486028      24.14071375
2012    26      0.08664665      26.62755125
2012    27      0.07760715      24.58250125
2012    28      0.14051115      37.81709625
2012    29      0.15303863      40.77804625
2012    30      0.68662589      130.167405
2012    31      0.41043443      75.5147525
2013    1       0.52698061      98.79953875
2013    2       0.08541624      26.186475
2013    3       0.12707625      35.88553125
2013    4       0.11209472      32.38969
2013    5       0.10295846      30.53529625
2013    6       0.22387194      55.810755
2013    7       0.15697007      42.04312625
2013    8       0.22633464      54.81143
2013    9       0.22250831      56.775905
2013    10      0.20331808      48.8703075
2013    11      0.09817864      29.849275
2013    12      0.13418614      36.728055
2013    13      0.81190431      137.8352925
2013    14      0.17589403      41.9040575
2013    15      0.12092974      34.465875
2013    16      0.11483292      33.06006125
2013    17      0.36970703      79.90163875
2013    18      0.6056986       114.43980875
2013    19      0.26699558      61.57306125
2013    20      0.52249338      97.333625
2013    21      0.08962319      28.142135
2013    22      0.29332571      63.69749625
2013    23      0.2430612       58.5577325
2013    24      0.68765339      128.000725
2013    25      0.30132546      61.37572375
2013    26      0.25044882      60.02318875
2013    27      0.46494219      96.22905625
2013    28      0.18812549      48.33947
2013    29      0.28619149      67.1669375
2013    30      0.38299428      83.1755125
2013    31      0.28187056      63.0737525
2014    1       0.65673841      122.8189825
2014    2       0.49055508      99.7748675
2014    3       0.11655672      33.02631625
2014    4       0.34568598      75.59108375
2014    5       0.30138594      63.87870125
2014    6       0.11927598      33.3646425
2014    7       0.0629173       21.1056825
2014    8       0.2936977       67.229085
2014    9       0.12138428      34.16075625
2014    10      0.0569944       19.74825
2014    11      0.17028428      44.36504
2014    12      0.3392794       71.929455
2014    13      0.58706433      108.20987375
2014    14      0.10393405      30.7344225
2014    15      0.10726455      31.70927
2014    16      0.12046366      34.3370975
2014    17      0.22430297      55.8799275
2014    18      0.2416758       58.05184125
2014    19      0.52345094      107.37844125
2014    20      0.62256795      110.5965725
2014    21      0.09365142      28.2434
2014    22      0.08991055      27.43592875
2014    23      0.10552626      30.7328975
2014    24      0.27183361      61.058185
2014    25      0.44648036      91.82926625
2014    26      0.71098832      133.7939625
2014    27      0.2297739       56.38142125
2014    28      0.17261292      45.21770875
2014    29      0.94065769      158.520425
2014    30      0.54635916      94.99117875
2014    31      0.21017262      51.873635
2015    1       0.61020494      104.93869125
2015    2       0.09297556      27.99520625
2015    3       0.61267012      116.7901975
2015    4       0.21704362      53.51786875
2015    5       0.41274196      89.050855
2015    6       0.37002182      81.9378175
2015    7       0.49646294      100.5071025
2015    8       0.1996453       49.38060375
2015    9       0.55194073      104.53006625
2015    10      0.04985143      18.3099475
2015    11      0.06142421      20.901395
2015    12      0.08926254      27.18311375
2015    13      0.16187246      42.86477125
2015    14      0.22076335      53.137445
2015    15      0.30015704      69.63822125
2015    16      0.44371824      88.64703
2015    17      0.21766278      55.2591925
2015    18      0.93389908      151.20493375
2015    19      0.63209578      109.12093625
2015    20      0.46174442      96.62688875
2015    21      0.2366777       57.17486125
2015    22      0.14266503      38.44930375
2015    23      0.06034122      20.6791925
2015    24      0.06673671      21.9321875
2015    25      0.06148147      20.81654
2015    26      0.10136968      30.00094625
2015    27      0.18242344      47.70317625
2015    28      0.29995242      70.3351975
2015    29      0.38143609      77.11171
2015    30      0.14925017      40.91129125
2015    31      0.4555452       92.82359625
2016    1       0.15228642      40.92255375
2016    2       0.12918933      36.2809625
2016    3       0.12748388      35.7469425
2016    4       0.16648351      43.40078375
2016    5       0.17661755      46.95796125
2016    6       0.63212368      118.0563825
2016    7       0.38461881      79.71678125
2016    8       0.24325318      60.122425
2016    9       0.74124454      129.16875875
2016    10      0.59751098      115.17039875
2016    11      0.08941309      27.14525375
2016    12      0.11334891      31.60525375
2016    13      0.60860704      118.30594875
2016    14      0.61634627      110.75395875
2016    15      0.08722113      26.666675
2016    16      0.40241907      86.5695875
2016    17      0.11567629      32.967405
2016    18      0.81945781      142.68029625
2016    19      0.45299309      94.65804375
2016    20      0.10462557      31.1082925
2016    21      0.10797182      31.4967275
2016    22      0.25932219      61.61213625
2016    23      0.29919805      69.76975625
2016    24      0.12429376      35.18616875
2016    25      0.19208245      49.15391125
2016    26      0.15152934      41.24526
2016    27      0.27754306      64.81065375
2016    28      0.28111285      66.0916525
2016    29      0.33036561      74.4185875
2016    30      0.15174879      40.86543
2016    31      0.23591728      57.421075
2017    1       0.38251021      80.7787975
2017    2       0.30709223      69.95438375
2017    3       0.12756191      35.55786125
2017    4       0.23250888      57.07013
2017    5       0.41908412      87.88810625
2017    6       0.47781265      89.48830625
2017    7       0.08333199      25.8746875
2017    8       0.10716265      31.29535625
2017    9       0.09408896      28.5341
2017    10      0.07160713      23.38702875
2017    11      0.10137268      29.5769925
2017    12      0.30808164      70.21282375
2017    13      0.40182114      85.56953625
2017    14      0.28179828      63.78294125
2017    15      0.19241607      48.22125
2017    16      0.10215256      30.03541375
2017    17      0.10468952      30.62062625
2017    18      0.29987804      67.4633825
2017    19      0.08856634      27.23913
2017    20      0.54145471      101.98162
2017    21      0.44441227      86.96714375
2017    22      0.15455049      40.60344375
2017    23      0.33656258      74.40142375
2017    24      0.09251582      27.652425
2017    25      0.2541589       60.54891
2017    26      0.36898969      81.80539875
2017    27      0.17896095      45.932455
2017    28      0.16494679      43.1069525
2017    29      0.19179039      47.78788875
2017    30      0.32182014      71.45609
2017    31      1.0561852       169.9796125
2018    1       0.18558504      48.66868875
2018    2       0.12015785      34.33919
2018    3       0.22449385      55.24810625
2018    4       0.2222709       56.3553625
2018    5       0.9660607       156.4631
2018    6       0.16875495      44.8151725
2018    7       0.47932429      99.32000375
2018    8       0.97087946      159.95303875
2018    9       0.58551228      102.25367375
2018    10      0.12293282      35.126265
2018    11      0.17914574      47.031765
2018    12      0.11773547      34.00903875
2018    13      0.17749092      46.72415375
2018    14      0.15998459      43.47837125
2018    15      0.5081941       98.00294625
2018    16      0.57349481      101.04646875
2018    17      0.26478265      62.84798125
2018    18      0.42890286      90.0539175
2018    19      1.096049        174.4423
2018    20      1.20044888      183.677075
2018    21      0.62667255      110.86636875
2018    22      0.14508667      40.4497175
2018    23      0.15002952      40.69490375
2018    24      0.2139571       53.649295
2018    25      0.10657414      31.72144625
2018    26      0.28417035      66.58946875
2018    27      0.51932314      104.96161875
2018    28      0.0890978       27.95669625
2018    29      0.36428379      79.683085
2018    30      0.12967519      36.71981625
2018    31      0.30564472      73.32982125
