####################################################################################################
# Month: 05May                                                                                     #
# Station: HAN                                                                                     #
# Frequency: 345 GHz                                                                               #
# Columns are: year    day     segment         tau     Tb (K)                                      #
####################################################################################################
2009    1       0       0.2564387       64.66605
2009    1       1       0.2084289       54.51896
2009    1       2       0.1967495       51.65094
2009    1       3       0.2391877       59.86036
2009    1       4       0.3806318       86.3255
2009    1       5       0.5674834       116.4877
2009    1       6       0.5619083       116.1006
2009    1       7       0.4954882       106.2901
2009    2       0       0.4911561       105.376
2009    2       1       0.4687891       101.0523
2009    2       2       0.4734809       101.6226
2009    2       3       0.4961152       105.3838
2009    2       4       0.5219807       109.4677
2009    2       5       0.5367243       111.7097
2009    2       6       0.5914078       119.6134
2009    2       7       0.6072361       121.8431
2009    3       0       0.5154384       108.723
2009    3       1       0.4821582       102.8589
2009    3       2       0.4364342       95.50328
2009    3       3       0.4784852       102.4562
2009    3       4       0.6071455       121.9416
2009    3       5       0.6630998       129.3932
2009    3       6       0.6886006       132.5774
2009    3       7       0.6907797       132.7269
2009    4       0       0.6608926       128.8816
2009    4       1       0.615434        122.6457
2009    4       2       0.501599        106.3499
2009    4       3       0.5016211       106.317
2009    4       4       0.6295231       124.9189
2009    4       5       0.6090904       121.7734
2009    4       6       0.6078694       121.7361
2009    4       7       0.5082013       108.0591
2009    5       0       0.4631792       100.6178
2009    5       1       0.4886939       104.032
2009    5       2       0.468907        101.1408
2009    5       3       0.7228139       136.502
2009    5       4       0.6877629       132.3231
2009    5       5       0.581008        117.9242
2009    5       6       0.7028788       133.6674
2009    5       7       0.8443175       150.1519
2009    6       0       0.5361304       110.7284
2009    6       1       0.4202845       92.34944
2009    6       2       0.3514112       80.50349
2009    6       3       0.3963219       88.52153
2009    6       4       0.3773578       85.74815
2009    6       5       0.3744727       85.44121
2009    6       6       0.3770005       86.01232
2009    6       7       0.3889579       87.87578
2009    7       0       0.3536021       81.76708
2009    7       1       0.3502606       80.78847
2009    7       2       0.4118275       90.69405
2009    7       3       0.5128519       106.9886
2009    7       4       0.5578468       113.8646
2009    7       5       0.5317083       110.2016
2009    7       6       0.5463229       112.6567
2009    7       7       0.5340553       110.8736
2009    8       0       0.4368445       96.02311
2009    8       1       0.3257016       76.71589
2009    8       2       0.3196748       75.12345
2009    8       3       0.4159131       91.54952
2009    8       4       0.5306605       109.7816
2009    8       5       0.510927        106.871
2009    8       6       0.5439601       112.176
2009    8       7       0.5803021       116.9872
2009    9       0       0.5881728       117.9829
2009    9       1       0.5810462       116.1923
2009    9       2       0.4818508       101.977
2009    9       3       0.4276061       93.53153
2009    9       4       0.4184601       92.19513
2009    9       5       0.4820126       102.4376
2009    9       6       0.477255        101.811
2009    9       7       0.5248183       108.6843
2009    10      0       0.520775        107.585
2009    10      1       0.4968115       104.11
2009    10      2       0.579094        116.2046
2009    10      3       0.4953195       104.1176
2009    10      4       0.6880208       131.2263
2009    10      5       0.8442333       149.4973
2009    10      6       0.8190504       146.578
2009    10      7       0.5578042       113.1137
2009    11      0       0.4295584       94.0115
2009    11      1       0.3254267       75.63219
2009    11      2       0.3222811       74.89087
2009    11      3       0.3666268       82.75534
2009    11      4       0.3960031       88.11278
2009    11      5       0.4391988       95.19097
2009    11      6       0.446723        96.14509
2009    11      7       0.4555741       97.44662
2009    12      0       0.4166386       91.28078
2009    12      1       0.3956579       87.71026
2009    12      2       0.3475571       79.75264
2009    12      3       0.3676901       83.67026
2009    12      4       0.3357937       78.0816
2009    12      5       0.2997002       71.43511
2009    12      6       0.2699234       65.94785
2009    12      7       0.2534271       62.56602
2009    13      0       0.2433765       60.65185
2009    13      1       0.2356838       59.07976
2009    13      2       0.2172571       55.53698
2009    13      3       0.2360891       59.46083
2009    13      4       0.3476507       80.17173
2009    13      5       0.4822945       102.5226
2009    13      6       0.419639        93.11122
2009    13      7       0.3030274       72.82448
2009    14      0       0.3273398       77.14958
2009    14      1       0.4500601       97.01684
2009    14      2       0.4455164       96.94119
2009    14      3       0.4706153       101.4599
2009    14      4       0.56343         115.2869
2009    14      5       0.6009588       120.8308
2009    14      6       0.6680214       130.3559
2009    14      7       0.6906179       132.4686
2009    15      0       0.5672368       116.1696
2009    15      1       0.4943608       104.8087
2009    15      2       0.4227214       93.39473
2009    15      3       0.5693025       116.0924
2009    15      4       0.622163        123.717
2009    15      5       0.5700873       116.7775
2009    15      6       0.4928987       105.7193
2009    15      7       0.4218253       94.46201
2009    16      0       0.3162103       76.03
2009    16      1       0.2860301       70.07606
2009    16      2       0.2474408       62.63004
2009    16      3       0.3065633       74.30884
2009    16      4       0.3896915       89.30521
2009    16      5       0.4384566       97.37667
2009    16      6       0.4385226       97.25757
2009    16      7       0.4376955       97.03462
2009    17      0       0.4308035       95.71806
2009    17      1       0.4468068       97.90259
2009    17      2       0.3538708       82.46774
2009    17      3       0.3097818       74.89825
2009    17      4       0.3113961       75.30356
2009    17      5       0.3042547       74.03349
2009    17      6       0.2640375       66.43251
2009    17      7       0.2576054       65.15422
2009    18      0       0.238411        61.20912
2009    18      1       0.2066804       54.58794
2009    18      2       0.2023889       53.37773
2009    18      3       0.2263018       58.12194
2009    18      4       0.3172629       75.65778
2009    18      5       0.4411215       97.82876
2009    18      6       0.4561142       100.5612
2009    18      7       0.352446        83.25054
2009    19      0       0.2918967       72.19242
2009    19      1       0.2771615       68.96602
2009    19      2       0.2412406       61.62533
2009    19      3       0.2493328       63.217
2009    19      4       0.3737976       86.64855
2009    19      5       0.4657223       102.4855
2009    19      6       0.4786278       104.2462
2009    19      7       0.4749189       103.2754
2009    20      0       0.4648133       101.7546
2009    20      1       0.4682792       102.4173
2009    20      2       0.513721        109.5461
2009    20      3       0.7903673       146.2963
2009    20      4       1.032009        171.6191
2009    20      5       0.802006        148.0764
2009    20      6       0.6098178       123.9537
2009    20      7       0.6174609       124.6981
2009    21      0       0.7050352       135.7869
2009    21      1       0.7086682       135.8552
2009    21      2       0.572355        117.891
2009    21      3       0.487291        105.2284
2009    21      4       0.5737272       117.6849
2009    21      5       0.6166905       123.9433
2009    21      6       0.7395922       139.304
2009    21      7       0.6484498       127.9422
2009    22      0       0.6004718       121.484
2009    22      1       0.6959016       133.3523
2009    22      2       0.5490816       114.0621
2009    22      3       0.4715567       102.2612
2009    22      4       0.5904023       119.5099
2009    22      5       0.5981874       120.5947
2009    22      6       0.6160502       123.3624
2009    22      7       0.5385283       112.1467
2009    23      0       0.5036057       106.8599
2009    23      1       0.5794959       117.6102
2009    23      2       0.5210099       109.3559
2009    23      3       0.5146344       108.4785
2009    23      4       0.5496389       113.5892
2009    23      5       0.564731        115.9257
2009    23      6       0.598981        120.7573
2009    23      7       0.6611161       128.8463
2009    24      0       0.6882061       132.2253
2009    24      1       0.6999766       133.6236
2009    24      2       0.6860996       132.372
2009    24      3       0.7086521       135.6317
2009    24      4       0.7185887       136.4444
2009    24      5       0.6269087       124.9922
2009    24      6       0.6304472       125.5956
2009    24      7       0.6530155       127.6829
2009    25      0       0.6275962       124.1283
2009    25      1       0.6145433       122.1628
2009    25      2       0.493932        104.8292
2009    25      3       0.4639804       100.6769
2009    25      4       0.6295085       125.3157
2009    25      5       0.7186005       136.4675
2009    25      6       0.7406308       138.7845
2009    25      7       0.6722244       130.344
2009    26      0       0.7487271       139.5604
2009    26      1       0.6157388       122.1018
2009    26      2       0.5146435       107.8418
2009    26      3       0.4323515       95.32012
2009    26      4       0.4151228       92.66275
2009    26      5       0.4517057       98.38751
2009    26      6       0.461066        99.32437
2009    26      7       0.4302281       93.85612
2009    27      0       0.4610581       98.7848
2009    27      1       0.4692391       100.5608
2009    27      2       0.5286203       110.1537
2009    27      3       0.5972614       120.5948
2009    27      4       0.7521386       141.0409
2009    27      5       0.7573783       141.6716
2009    27      6       0.6963715       134.0104
2009    27      7       0.6537409       127.7114
2009    28      0       0.6121779       121.6185
2009    28      1       0.5484174       112.4926
2009    28      2       0.5061727       106.6644
2009    28      3       0.5204602       109.2325
2009    28      4       0.5145306       108.3532
2009    28      5       0.4912448       104.5051
2009    28      6       0.543642        111.9943
2009    28      7       0.5323879       109.5237
2009    29      0       0.5163212       106.702
2009    29      1       0.5401323       110.2925
2009    29      2       0.5493901       112.297
2009    29      3       0.5523975       113.4372
2009    29      4       0.5421964       112.2748
2009    29      5       0.4813799       103.04
2009    29      6       0.5114066       107.3667
2009    29      7       0.5898179       118.1517
2009    30      0       0.5851847       116.9248
2009    30      1       0.6059046       119.6543
2009    30      2       0.6306455       123.4556
2009    30      3       0.6474938       126.3813
2009    30      4       0.5874952       118.7046
2009    30      5       0.6220307       123.4054
2009    30      6       0.5461468       113.0855
2009    30      7       0.4603832       100.1015
2009    31      0       0.3776172       86.76362
2009    31      1       0.3130119       75.16782
2009    31      2       0.2646764       66.13231
2009    31      3       0.2584909       64.9694
2009    31      4       0.2852215       69.78673
2009    31      5       0.2972843       71.99468
2009    31      6       0.2971843       71.987
2009    31      7       0.2929619       71.18312
2010    1       0       0.6396411       125.348
2010    1       1       0.5799919       117.0395
2010    1       2       0.452507        98.32609
2010    1       3       0.5343157       110.6657
2010    1       4       0.6236616       123.4733
2010    1       5       0.5524503       113.5739
2010    1       6       0.5762958       116.9182
2010    1       7       0.6490826       126.5902
2010    2       0       0.6183057       122.5254
2010    2       1       0.5312061       110.4247
2010    2       2       0.4017781       90.32682
2010    2       3       0.3332508       78.14354
2010    2       4       0.2859197       69.02739
2010    2       5       0.2528464       62.63245
2010    2       6       0.2847722       69.05613
2010    2       7       0.2811681       68.37776
2010    3       0       0.2423836       60.94644
2010    3       1       0.2454787       62.07191
2010    3       2       0.2591381       64.42449
2010    3       3       0.2279311       58.45553
2010    3       4       0.235858        59.82035
2010    3       5       0.2541252       63.79095
2010    3       6       0.2370216       60.81831
2010    3       7       0.2632015       65.74907
2010    4       0       0.2439293       61.81419
2010    4       1       0.2915163       70.83147
2010    4       2       0.2754401       68.14942
2010    4       3       0.2600989       65.53942
2010    4       4       0.2859089       70.75135
2010    4       5       0.3648958       85.97805
2010    4       6       0.4150049       95.04267
2010    4       7       0.4663848       103.5367
2010    5       0       0.523471        112.5892
2010    5       1       0.465277        102.9339
2010    5       2       0.4482129       98.83765
2010    5       3       0.4951254       105.968
2010    5       4       0.7893911       146.9553
2010    5       5       0.979164        166.4439
2010    5       6       0.8963993       158.0551
2010    5       7       0.7501176       141.6154
2010    6       0       0.7362835       139.6839
2010    6       1       0.6289565       125.549
2010    6       2       0.7211412       137.7849
2010    6       3       0.8836897       157.0858
2010    6       4       1.098491        177.1658
2010    6       5       1.004572        169.1155
2010    6       6       0.7841822       146.1126
2010    6       7       0.7823523       145.6986
2010    7       0       0.875591        155.5909
2010    7       1       0.9580009       163.3172
2010    7       2       0.8644155       153.8005
2010    7       3       0.9345163       161.1427
2010    7       4       1.008636        167.9984
2010    7       5       0.9485629       162.6724
2010    7       6       1.075016        174.3257
2010    7       7       0.9539533       163.0537
2010    8       0       0.6678302       130.723
2010    8       1       0.4091873       91.89131
2010    8       2       0.2590016       65.00808
2010    8       3       0.2528879       63.9529
2010    8       4       0.3242947       77.48026
2010    8       5       0.4349529       96.30022
2010    8       6       0.4702521       102.0885
2010    8       7       0.4708758       102.146
2010    9       0       0.4613207       100.4631
2010    9       1       0.4417849       96.96284
2010    9       2       0.4346318       96.12464
2010    9       3       0.4951677       106.0955
2010    9       4       0.5832192       118.9176
2010    9       5       0.5838025       118.8864
2010    9       6       0.6443567       127.4991
2010    9       7       0.5238397       110.1852
2010    10      0       0.4662346       101.3622
2010    10      1       0.3802618       87.02407
2010    10      2       0.2134164       55.26649
2010    10      3       0.2108324       54.75139
2010    10      4       0.4011233       90.17405
2010    10      5       0.5110434       107.8165
2010    10      6       0.5415918       112.5528
2010    10      7       0.5109675       107.9718
2010    11      0       0.4684483       101.1247
2010    11      1       0.4088628       91.03916
2010    11      2       0.3802486       86.02321
2010    11      3       0.5046759       106.2285
2010    11      4       0.6284496       124.1704
2010    11      5       0.5304857       110.3623
2010    11      6       0.496934        105.6937
2010    11      7       0.4284656       94.38768
2010    12      0       0.4052743       90.45959
2010    12      1       0.3882672       87.44827
2010    12      2       0.3473918       80.27768
2010    12      3       0.2548017       62.8804
2010    12      4       0.3519258       80.77715
2010    12      5       0.4780435       102.0011
2010    12      6       0.5774122       117.1868
2010    12      7       0.6090948       121.0319
2010    13      0       0.6546007       126.7592
2010    13      1       0.5639467       114.0959
2010    13      2       0.4058043       90.0986
2010    13      3       0.3918794       87.96406
2010    13      4       0.5166229       107.8751
2010    13      5       0.7540733       139.9321
2010    13      6       0.7539206       139.0827
2010    13      7       0.6353213       124.5672
2010    14      0       0.5606633       114.337
2010    14      1       0.5440553       111.0463
2010    14      2       0.491034        103.2879
2010    14      3       0.5500583       112.2413
2010    14      4       0.6055867       120.4233
2010    14      5       0.6197656       122.3112
2010    14      6       0.5567819       113.2424
2010    14      7       0.4396807       95.65846
2010    15      0       0.3595827       82.32085
2010    15      1       0.3841124       86.8036
2010    15      2       0.2797271       68.14948
2010    15      3       0.3267169       76.87421
2010    15      4       0.4862413       103.5565
2010    15      5       0.5853898       118.1502
2010    15      6       0.4175961       93.06307
2010    15      7       0.3093278       74.04644
2010    16      0       0.3524965       82.25908
2010    16      1       0.3849895       87.67267
2010    16      2       0.4397989       96.44089
2010    16      3       0.5332178       110.9054
2010    16      4       0.5954223       119.6155
2010    16      5       0.7207936       135.7783
2010    16      6       0.6513572       127.4761
2010    16      7       0.5477415       113.1752
2010    17      0       0.4499119       98.14002
2010    17      1       0.6126218       122.0086
2010    17      2       0.7996725       144.8272
2010    17      3       0.7294262       138.0767
2010    17      4       0.9074691       158.6754
2010    17      5       0.900096        158.4872
2010    17      6       0.7670044       143.1507
2010    17      7       0.6728238       130.2764
2010    18      0       0.7255653       136.9854
2010    18      1       0.9189486       158.5059
2010    18      2       0.7620391       141.7356
2010    18      3       0.7474057       140.1076
2010    18      4       0.6417717       127.0344
2010    18      5       0.6178573       123.8697
2010    18      6       0.7920689       145.11
2010    18      7       0.8676407       153.1989
2010    19      0       0.7562905       140.7265
2010    19      1       0.7284377       136.7518
2010    19      2       0.5992032       120.2738
2010    19      3       0.6047882       121.4708
2010    19      4       0.7119644       135.079
2010    19      5       0.6408486       125.7372
2010    19      6       0.5152838       108.0292
2010    19      7       0.4492047       97.45058
2010    20      0       0.3528242       81.16777
2010    20      1       0.364446        82.89419
2010    20      2       0.3669814       83.16618
2010    20      3       0.3908354       87.34257
2010    20      4       0.4949025       104.2845
2010    20      5       0.3842217       86.98253
2010    20      6       0.2846278       69.49449
2010    20      7       0.2230462       57.43931
2010    21      0       0.1915688       50.85782
2010    21      1       0.1920964       50.91184
2010    21      2       0.1813484       48.95072
2010    21      3       0.2005161       52.92164
2010    21      4       0.2533205       63.37621
2010    21      5       0.3209836       76.84928
2010    21      6       0.2795342       69.66077
2010    21      7       0.2553088       64.80729
2010    22      0       0.2138456       56.51218
2010    22      1       0.2535233       64.32357
2010    22      2       0.2952313       71.86687
2010    22      3       0.4466763       98.42865
2010    22      4       0.6718978       130.9609
2010    22      5       0.7846563       145.4861
2010    22      6       0.8255498       150.295
2010    22      7       0.5659691       117.1871
2010    23      0       0.5995352       121.485
2010    23      1       0.8733786       154.0652
2010    23      2       0.7728137       143.3481
2010    23      3       0.7023372       135.0895
2010    23      4       0.6917225       133.6421
2010    23      5       0.7390725       139.5781
2010    23      6       0.7113172       135.7793
2010    23      7       0.5156271       109.4766
2010    24      0       0.3178506       76.54634
2010    24      1       0.2611342       65.28802
2010    24      2       0.2158574       56.02024
2010    24      3       0.2773355       68.25624
2010    24      4       0.4469835       97.68051
2010    24      5       0.5268929       110.245
2010    24      6       0.6860131       131.7841
2010    24      7       0.7592439       140.5102
2010    25      0       0.5626048       115.3711
2010    25      1       0.4347921       95.60695
2010    25      2       0.3065523       73.50016
2010    25      3       0.2829472       69.16209
2010    25      4       0.298594        72.20959
2010    25      5       0.2716145       67.17533
2010    25      6       0.2440981       61.83087
2010    25      7       0.1867781       50.11731
2010    26      0       0.1704866       46.7068
2010    26      1       0.1703966       46.61788
2010    26      2       0.1801925       48.50987
2010    26      3       0.2129669       54.99074
2010    26      4       0.3067577       73.14893
2010    26      5       0.357526        82.55139
2010    26      6       0.401027        90.51121
2010    26      7       0.3744014       86.1246
2010    27      0       0.3374929       79.57067
2010    27      1       0.3035497       72.95112
2010    27      2       0.3356588       78.5387
2010    27      3       0.514691        108.1772
2010    27      4       0.7474055       140.1483
2010    27      5       0.6918308       133.3439
2010    27      6       0.7648673       142.6701
2010    27      7       1.053535        172.1947
2010    28      0       1.223198        187.0203
2010    28      1       0.9243439       158.8906
2010    28      2       0.8020752       146.7618
2010    28      3       0.73365         138.3907
2010    28      4       0.7815221       144.0127
2010    28      5       0.7316011       138.193
2010    28      6       0.8753113       154.3611
2010    28      7       0.9246095       159.5369
2010    29      0       0.7763861       142.6651
2010    29      1       0.5387172       111.5694
2010    29      2       0.5351369       111.0275
2010    29      3       0.5941648       119.9689
2010    29      4       0.7907274       145.1077
2010    29      5       0.9245114       159.3246
2010    29      6       0.8701135       153.1712
2010    29      7       0.6934326       132.1614
2010    30      0       0.5354251       110.5469
2010    30      1       0.4479366       97.00148
2010    30      2       0.4439024       96.34374
2010    30      3       0.4776215       101.9868
2010    30      4       0.4929618       104.5338
2010    30      5       0.4103755       91.53075
2010    30      6       0.3724186       85.14736
2010    30      7       0.3051235       73.12845
2010    31      0       0.1828134       49.0825
2010    31      1       0.156483        43.37509
2010    31      2       0.1425506       40.22851
2010    31      3       0.1529828       42.46041
2010    31      4       0.1818478       48.55534
2010    31      5       0.2249234       57.39974
2010    31      6       0.2735323       67.0008
2010    31      7       0.2906091       70.16246
2011    1       0       0.7192425       135.0556
2011    1       1       0.7419135       137.4226
2011    1       2       0.65616         127.3128
2011    1       3       0.6672085       129.3113
2011    1       4       0.8066618       146.2092
2011    1       5       0.8072534       146.2196
2011    1       6       0.5796818       117.317
2011    1       7       0.5123963       106.7946
2011    2       0       0.3889289       86.52678
2011    2       1       0.2794621       66.68082
2011    2       2       0.2689869       65.06382
2011    2       3       0.2817077       67.74204
2011    2       4       0.2597718       63.6476
2011    2       5       0.3433216       79.11656
2011    2       6       0.1999176       52.00208
2011    2       7       0.1338172       38.18185
2011    3       0       0.1055274       31.97489
2011    3       1       0.113428        33.76578
2011    3       2       0.1248396       36.2497
2011    3       3       0.138867        39.29166
2011    3       4       0.1507602       41.76451
2011    3       5       0.1470168       41.04503
2011    3       6       0.1414518       39.89937
2011    3       7       0.1375887       39.02487
2011    4       0       0.1372814       38.92614
2011    4       1       0.1445016       40.48169
2011    4       2       0.1619525       44.24396
2011    4       3       0.1882259       49.75936
2011    4       4       0.2307886       58.50303
2011    4       5       0.2581029       64.02208
2011    4       6       0.3224087       76.08515
2011    4       7       0.3535802       81.63263
2011    5       0       0.3729484       85.02547
2011    5       1       0.3816874       86.54209
2011    5       2       0.4143504       92.50549
2011    5       3       0.5466182       113.8637
2011    5       4       0.7403224       139.9615
2011    5       5       0.7599294       142.3215
2011    5       6       0.746552        140.504
2011    5       7       0.766077        142.7559
2011    6       0       0.7022691       134.7239
2011    6       1       0.6011563       121.1036
2011    6       2       0.5087916       107.5471
2011    6       3       0.7175641       136.2247
2011    6       4       0.9711859       164.0557
2011    6       5       1.034497        169.5482
2011    6       6       0.9475994       160.6518
2011    6       7       0.7877523       143.8058
2011    7       0       0.7019744       133.5926
2011    7       1       0.7570208       139.8696
2011    7       2       0.7824801       143.4661
2011    7       3       0.7462695       139.0928
2011    7       4       0.5994015       119.8984
2011    7       5       0.4676376       100.5694
2011    7       6       0.4375976       96.23385
2011    7       7       0.3960945       89.40296
2011    8       0       0.3939941       88.89322
2011    8       1       0.4040734       89.72914
2011    8       2       0.35611         81.76053
2011    8       3       0.3365096       78.48375
2011    8       4       0.361113        82.78254
2011    8       5       0.3407538       79.32224
2011    8       6       0.2814176       68.70265
2011    8       7       0.2616635       65.28506
2011    9       0       0.2379968       60.37562
2011    9       1       0.2338518       59.25848
2011    9       2       0.2435795       61.18264
2011    9       3       0.2571697       63.89709
2011    9       4       0.2973848       71.5437
2011    9       5       0.374276        86.24685
2011    9       6       0.4635177       101.3254
2011    9       7       0.4909009       105.7241
2011    10      0       0.4036857       91.41473
2011    10      1       0.3672178       84.63932
2011    10      2       0.3496676       81.28544
2011    10      3       0.3908442       88.84921
2011    10      4       0.5330734       111.1442
2011    10      5       0.6033596       121.3084
2011    10      6       0.5544234       114.5656
2011    10      7       0.5677989       116.3426
2011    11      0       0.5624873       115.4912
2011    11      1       0.4892511       104.622
2011    11      2       0.4684325       101.3619
2011    11      3       0.4172809       93.34065
2011    11      4       0.4638411       100.7964
2011    11      5       0.5228243       110.1478
2011    11      6       0.5436262       113.4121
2011    11      7       0.5791029       118.4887
2011    12      0       0.5850937       119.6019
2011    12      1       0.4938508       105.9749
2011    12      2       0.3171963       76.02173
2011    12      3       0.2583844       64.42454
2011    12      4       0.4106273       91.79093
2011    12      5       0.472611        101.8612
2011    12      6       0.4353954       96.25749
2011    12      7       0.3808594       86.91969
2011    13      0       0.3396696       79.54989
2011    13      1       0.3278694       77.31269
2011    13      2       0.3263675       76.90373
2011    13      3       0.3925415       88.37833
2011    13      4       0.469831        101.1013
2011    13      5       0.4785042       102.3411
2011    13      6       0.4624261       99.82977
2011    13      7       0.4505723       97.62375
2011    14      0       0.3766702       85.24765
2011    14      1       0.2711837       66.12841
2011    14      2       0.2220741       56.67329
2011    14      3       0.1739186       46.74941
2011    14      4       0.1219383       35.50017
2011    14      5       0.08673862      27.51615
2011    14      6       0.07376118      24.41714
2011    14      7       0.07348775      24.33461
2011    15      0       0.07957534      25.81432
2011    15      1       0.08641347      27.4085
2011    15      2       0.09539097      29.54413
2011    15      3       0.1069393       32.2781
2011    15      4       0.1175049       34.5171
2011    15      5       0.115899        34.11881
2011    15      6       0.1223973       35.54754
2011    15      7       0.1299269       37.18086
2011    16      0       0.1380439       39.08259
2011    16      1       0.1492242       41.55626
2011    16      2       0.1625041       44.57129
2011    16      3       0.1821783       48.68656
2011    16      4       0.1807343       48.28956
2011    16      5       0.1709224       46.19282
2011    16      6       0.1711727       46.19868
2011    16      7       0.185957        49.0758
2011    17      0       0.1930468       50.41667
2011    17      1       0.1985826       51.60913
2011    17      2       0.2159784       55.35479
2011    17      3       0.2511394       62.52825
2011    17      4       0.2934162       70.76532
2011    17      5       0.3100851       74.01129
2011    17      6       0.3125165       74.35865
2011    17      7       0.3356533       78.6204
2011    18      0       0.3420014       79.57303
2011    18      1       0.3374778       78.75406
2011    18      2       0.3425295       79.83226
2011    18      3       0.390154        88.43644
2011    18      4       0.5145777       108.7578
2011    18      5       0.6117151       123.8511
2011    18      6       0.5540533       115.4174
2011    18      7       0.5111953       108.4702
2011    19      0       0.4807338       103.5429
2011    19      1       0.4928544       105.1969
2011    19      2       0.512419        108.0341
2011    19      3       0.3910097       89.66932
2011    19      4       0.4123016       92.78957
2011    19      5       0.53983         112.9905
2011    19      6       0.4645377       101.2804
2011    19      7       0.4550437       99.76424
2011    20      0       0.5009343       107.2041
2011    20      1       0.4528511       99.31885
2011    20      2       0.3163574       75.97077
2011    20      3       0.4034837       91.35461
2011    20      4       0.6117789       122.5216
2011    20      5       0.6793311       132.0152
2011    20      6       0.9891287       165.7425
2011    20      7       0.8135373       147.6285
2011    21      0       0.5957756       120.8618
2011    21      1       0.6201847       123.2452
2011    21      2       0.4590422       99.86147
2011    21      3       0.3417981       80.00039
2011    21      4       0.5579631       114.5011
2011    21      5       0.7074746       135.3735
2011    21      6       0.9001745       156.3325
2011    21      7       0.749799        138.8187
2011    22      0       0.7793265       141.7565
2011    22      1       0.3502446       81.01406
2011    22      2       0.2662926       65.71417
2011    22      3       0.3101033       74.23026
2011    22      4       0.4378316       95.76843
2011    22      5       0.4279801       94.36663
2011    22      6       0.4108157       91.40094
2011    22      7       0.3510698       81.15451
2011    23      0       0.2595238       64.45958
2011    23      1       0.2389169       60.25614
2011    23      2       0.2203706       56.49869
2011    23      3       0.1901674       50.5029
2011    23      4       0.1811064       48.55781
2011    23      5       0.194764        51.67525
2011    23      6       0.2032001       53.56464
2011    23      7       0.2050575       53.92302
2011    24      0       0.2211553       57.17624
2011    24      1       0.2238854       57.72709
2011    24      2       0.234736        59.79376
2011    24      3       0.284902        69.77765
2011    24      4       0.4375229       96.42699
2011    24      5       0.6213739       124.1606
2011    24      6       0.5918162       121.118
2011    24      7       0.4106432       93.22721
2011    25      0       0.3114999       75.44829
2011    25      1       0.3486652       81.72799
2011    25      2       0.407666        91.46248
2011    25      3       0.5923219       120.0062
2011    25      4       0.6773325       132.3381
2011    25      5       0.6524244       129.521
2011    25      6       0.6340571       127.1458
2011    25      7       0.5995207       122.255
2011    26      0       0.5710556       117.9445
2011    26      1       0.5511332       114.7198
2011    26      2       0.5101262       108.8722
2011    26      3       0.5536354       115.2638
2011    26      4       0.6411697       127.3847
2011    26      5       0.6927574       134.3825
2011    26      6       0.6872001       133.9772
2011    26      7       0.7165203       136.9999
2011    27      0       0.6543836       128.6399
2011    27      1       0.629365        125.0347
2011    27      2       0.5826233       118.6824
2011    27      3       0.5210237       110.1042
2011    27      4       0.5223536       110.6062
2011    27      5       0.5758084       118.5457
2011    27      6       0.6018895       122.3571
2011    27      7       0.5270796       111.2928
2011    28      0       0.4465346       98.12504
2011    28      1       0.4763045       102.5745
2011    28      2       0.4926674       105.3281
2011    28      3       0.6293101       125.4782
2011    28      4       0.83641         151.3684
2011    28      5       0.7802217       144.5672
2011    28      6       0.7342262       138.4265
2011    28      7       0.7026038       134.4802
2011    29      0       0.6082476       122.4545
2011    29      1       0.5886659       119.9079
2011    29      2       0.5822415       119.2749
2011    29      3       0.6173836       123.7749
2011    29      4       0.6986427       134.7881
2011    29      5       0.5690679       116.9292
2011    29      6       0.5559511       114.1019
2011    29      7       0.56479         115.1006
2011    30      0       0.631162        124.504
2011    30      1       0.6801861       131.684
2011    30      2       0.6794549       132.4334
2011    30      3       0.6422391       127.5431
2011    30      4       0.6779731       132.3191
2011    30      5       0.6972955       134.4423
2011    30      6       0.6356814       126.2815
2011    30      7       0.6516508       128.1665
2011    31      0       0.6747412       130.975
2011    31      1       0.6425299       126.9273
2011    31      2       0.5757373       118.0946
2011    31      3       0.4794443       103.9649
2011    31      4       0.5016431       107.169
2011    31      5       0.491362        105.657
2011    31      6       0.6089584       122.4629
2011    31      7       0.7200217       137.1956
2012    1       0       0.3831694       84.92762
2012    1       1       0.238871        59.00138
2012    1       2       0.1868521       48.76606
2012    1       3       0.2993573       70.46361
2012    1       4       0.504227        104.4547
2012    1       5       0.5651697       112.9203
2012    1       6       0.5584533       111.8467
2012    1       7       0.5179979       105.7279
2012    2       0       0.5127002       104.9095
2012    2       1       0.4663446       98.03602
2012    2       2       0.4094104       89.15041
2012    2       3       0.4253972       92.03172
2012    2       4       0.4507106       96.43903
2012    2       5       0.4025831       88.75737
2012    2       6       0.3821099       85.36692
2012    2       7       0.3606059       81.60593
2012    3       0       0.3496316       79.60558
2012    3       1       0.3636986       81.77263
2012    3       2       0.3578525       80.71545
2012    3       3       0.3365072       77.16866
2012    3       4       0.3743342       83.84005
2012    3       5       0.44441         95.67212
2012    3       6       0.4283268       93.49885
2012    3       7       0.4080156       90.22359
2012    4       0       0.3787958       85.25913
2012    4       1       0.3585817       81.49391
2012    4       2       0.3735586       83.86367
2012    4       3       0.4404803       95.10764
2012    4       4       0.554243        112.7571
2012    4       5       0.5923617       118.4117
2012    4       6       0.5759027       116.2042
2012    4       7       0.6042681       119.8639
2012    5       0       0.6013232       119.274
2012    5       1       0.5604556       113.4104
2012    5       2       0.5195733       107.3109
2012    5       3       0.4469292       96.53672
2012    5       4       0.3662428       83.30111
2012    5       5       0.3431444       79.59915
2012    5       6       0.3621444       83.22144
2012    5       7       0.4002658       90.07961
2012    6       0       0.4051467       90.54209
2012    6       1       0.4726374       101.4505
2012    6       2       0.4823976       102.7132
2012    6       3       0.5658495       115.1978
2012    6       4       0.6951634       133.266
2012    6       5       0.5770652       117.7072
2012    6       6       0.4883824       104.7023
2012    6       7       0.4690798       101.6749
2012    7       0       0.4241126       94.37691
2012    7       1       0.3917818       88.79711
2012    7       2       0.3440405       80.35555
2012    7       3       0.374229        85.36359
2012    7       4       0.5797065       117.6537
2012    7       5       0.7490984       140.0425
2012    7       6       0.6471839       128.0066
2012    7       7       0.7017118       135.0258
2012    8       0       0.6064906       122.6386
2012    8       1       0.422387        94.72357
2012    8       2       0.343948        80.45351
2012    8       3       0.3780527       86.6011
2012    8       4       0.4943203       105.6121
2012    8       5       0.5286094       111.0514
2012    8       6       0.5408043       113.0343
2012    8       7       0.5581268       115.5049
2012    9       0       0.4042424       91.8473
2012    9       1       0.3489057       81.58074
2012    9       2       0.3052274       73.52069
2012    9       3       0.3118695       74.70318
2012    9       4       0.4708164       102.0397
2012    9       5       0.5430084       113.7713
2012    9       6       0.509135        108.9364
2012    9       7       0.4625721       101.8703
2012    10      0       0.4995393       107.1587
2012    10      1       0.4608719       100.2761
2012    10      2       0.4808272       103.0252
2012    10      3       0.5538516       114.1389
2012    10      4       0.6665911       130.2459
2012    10      5       0.69367         133.8329
2012    10      6       0.6529146       128.8879
2012    10      7       0.5184961       110.2151
2012    11      0       0.4759532       103.424
2012    11      1       0.4139578       92.64955
2012    11      2       0.4495407       97.93934
2012    11      3       0.5554115       114.6271
2012    11      4       0.8103226       147.3344
2012    11      5       1.011834        167.3859
2012    11      6       0.7422379       139.0838
2012    11      7       0.5485181       113.8348
2012    12      0       0.3875365       88.42421
2012    12      1       0.3184936       75.49644
2012    12      2       0.2873512       69.30893
2012    12      3       0.4030837       90.04341
2012    12      4       0.4518101       98.19047
2012    12      5       0.431837        95.25958
2012    12      6       0.2996665       72.6835
2012    12      7       0.2460674       62.07153
2012    13      0       0.2537443       63.29717
2012    13      1       0.2745629       67.08399
2012    13      2       0.2569064       63.72264
2012    13      3       0.3436618       79.92112
2012    13      4       0.4716674       101.2989
2012    13      5       0.5203288       108.9772
2012    13      6       0.5419191       112.2678
2012    13      7       0.5306801       110.9932
2012    14      0       0.4888961       104.7933
2012    14      1       0.5550867       113.8195
2012    14      2       0.5279296       110.3058
2012    14      3       0.5414659       111.9278
2012    14      4       0.5842429       117.9482
2012    14      5       0.5601288       114.7935
2012    14      6       0.5913425       118.953
2012    14      7       0.5718793       116.3784
2012    15      0       0.5032487       106.4372
2012    15      1       0.4834768       102.5569
2012    15      2       0.4651426       99.66514
2012    15      3       0.5006446       105.488
2012    15      4       0.5365024       111.0376
2012    15      5       0.5154394       108.1361
2012    15      6       0.469845        101.1135
2012    15      7       0.4705361       101.289
2012    16      0       0.4435128       96.92646
2012    16      1       0.4792485       102.2614
2012    16      2       0.4465986       97.46264
2012    16      3       0.3386125       79.41352
2012    16      4       0.3115449       74.40209
2012    16      5       0.3283478       77.59914
2012    16      6       0.3386128       79.43353
2012    16      7       0.3469697       80.85638
2012    17      0       0.3207161       76.31158
2012    17      1       0.3459622       80.70148
2012    17      2       0.4373353       96.27126
2012    17      3       0.6676184       129.4231
2012    17      4       0.7832188       144.137
2012    17      5       0.7505916       140.816
2012    17      6       0.8040963       146.7972
2012    17      7       0.7202679       136.5815
2012    18      0       0.483641        104.3312
2012    18      1       0.392173        88.63553
2012    18      2       0.3323207       78.12373
2012    18      3       0.3949996       89.1189
2012    18      4       0.5487125       112.846
2012    18      5       0.5881858       118.5786
2012    18      6       0.5604864       114.5353
2012    18      7       0.4845563       103.3828
2012    19      0       0.4784118       102.2565
2012    19      1       0.3624276       83.12733
2012    19      2       0.2432997       61.07338
2012    19      3       0.268215        65.7871
2012    19      4       0.4201559       92.38635
2012    19      5       0.4894261       103.6073
2012    19      6       0.4776229       101.8753
2012    19      7       0.4439895       96.74439
2012    20      0       0.3770831       85.78988
2012    20      1       0.3095361       73.63953
2012    20      2       0.239411        60.20403
2012    20      3       0.2743939       67.03221
2012    20      4       0.4213101       92.99127
2012    20      5       0.5581164       114.4613
2012    20      6       0.7194471       135.5231
2012    20      7       0.6972882       132.6556
2012    21      0       0.4706229       101.3906
2012    21      1       0.292538        70.81931
2012    21      2       0.3063263       72.81335
2012    21      3       0.456302        98.73382
2012    21      4       0.5112601       107.3112
2012    21      5       0.5406474       112.074
2012    21      6       0.382253        87.07639
2012    21      7       0.2183173       56.51733
2012    22      0       0.1804476       48.45065
2012    22      1       0.2527829       62.51056
2012    22      2       0.3120249       73.94641
2012    22      3       0.4179571       92.44533
2012    22      4       0.5118936       107.4716
2012    22      5       0.516464        108.4198
2012    22      6       0.468733        101.5057
2012    22      7       0.4956223       105.3697
2012    23      0       0.481089        102.9272
2012    23      1       0.3835246       86.90967
2012    23      2       0.2412109       60.97597
2012    23      3       0.2354561       59.96911
2012    23      4       0.3132361       74.95453
2012    23      5       0.3734712       85.81699
2012    23      6       0.3248541       77.05574
2012    23      7       0.251098        63.05024
2012    24      0       0.2018162       53.16579
2012    24      1       0.1772175       48.05385
2012    24      2       0.1602358       44.34994
2012    24      3       0.1707584       46.56875
2012    24      4       0.2032844       53.50577
2012    24      5       0.2086751       54.7455
2012    24      6       0.1894996       50.81791
2012    24      7       0.1648638       45.46865
2012    25      0       0.1658245       45.4253
2012    25      1       0.2010287       52.94506
2012    25      2       0.2186966       57.0345
2012    25      3       0.2813043       69.85053
2012    25      4       0.3592927       84.51181
2012    25      5       0.3747542       87.39326
2012    25      6       0.3373989       80.46376
2012    25      7       0.4624374       101.416
2012    26      0       0.4909209       105.8644
2012    26      1       0.4247275       95.24153
2012    26      2       0.4011179       91.39797
2012    26      3       0.554984        115.2497
2012    26      4       0.7604969       141.8995
2012    26      5       0.7424028       140.2484
2012    26      6       0.7620043       141.9192
2012    26      7       0.5690237       116.808
2012    27      0       0.4471846       98.36452
2012    27      1       0.342712        80.62238
2012    27      2       0.2636061       66.00923
2012    27      3       0.2606211       65.55987
2012    27      4       0.3356179       79.7085
2012    27      5       0.3968706       90.4093
2012    27      6       0.4076811       92.43403
2012    27      7       0.4200111       94.43899
2012    28      0       0.4216702       94.78727
2012    28      1       0.4261212       95.50076
2012    28      2       0.449991        99.42395
2012    28      3       0.4692734       102.759
2012    28      4       0.5877584       120.4922
2012    28      5       0.6573643       130.2241
2012    28      6       0.5792476       119.7323
2012    28      7       0.5584323       116.651
2012    29      0       0.5786858       119.2429
2012    29      1       0.6097869       122.6597
2012    29      2       0.5303854       111.2707
2012    29      3       0.5452708       113.5087
2012    29      4       0.7587643       142.0723
2012    29      5       0.6588516       129.3258
2012    29      6       0.5908179       120.0285
2012    29      7       0.4753711       102.9699
2012    30      0       0.3616124       84.29984
2012    30      1       0.3146923       75.80325
2012    30      2       0.2709502       67.34452
2012    30      3       0.2351361       60.31018
2012    30      4       0.2453749       62.14025
2012    30      5       0.2916329       71.30207
2012    30      6       0.3216342       77.24739
2012    30      7       0.3122844       75.58793
2012    31      0       0.2927342       71.85964
2012    31      1       0.3214765       76.90333
2012    31      2       0.3435667       80.84551
2012    31      3       0.4556378       100.1864
2012    31      4       0.6319838       126.3015
2012    31      5       0.7197102       138.0285
2012    31      6       0.6692063       131.8058
2012    31      7       0.593731        121.3859
2013    1       0       0.6387773       124.3081
2013    1       1       0.5887866       117.6184
2013    1       2       0.5076389       106.0625
2013    1       3       0.5657029       114.7502
2013    1       4       0.6564243       127.2754
2013    1       5       0.4412886       96.08587
2013    1       6       0.4491859       97.34374
2013    1       7       0.443408        96.14786
2013    2       0       0.41294         90.9576
2013    2       1       0.3724777       83.90421
2013    2       2       0.4091689       89.71921
2013    2       3       0.4883852       102.5713
2013    2       4       0.4801597       101.5196
2013    2       5       0.35319         80.81908
2013    2       6       0.366285        83.46424
2013    2       7       0.4353055       95.2507
2013    3       0       0.4596143       99.36893
2013    3       1       0.3729596       84.83509
2013    3       2       0.2882972       69.64427
2013    3       3       0.2801852       67.89461
2013    3       4       0.4255997       93.50708
2013    3       5       0.6054135       121.0055
2013    3       6       0.6996828       133.1194
2013    3       7       0.7359318       136.7338
2013    4       0       0.6508066       125.9256
2013    4       1       0.5614943       113.6873
2013    4       2       0.4749851       101.0035
2013    4       3       0.5077121       106.1615
2013    4       4       0.5544773       113.1185
2013    4       5       0.6147862       121.3255
2013    4       6       0.5173729       107.3015
2013    4       7       0.4298422       94.02955
2013    5       0       0.4617416       98.67048
2013    5       1       0.4596823       98.24903
2013    5       2       0.6021279       119.2515
2013    5       3       0.6751493       129.422
2013    5       4       0.777653        142.3491
2013    5       5       0.8483556       150.3405
2013    5       6       0.7776427       142.1773
2013    5       7       0.6370749       124.52
2013    6       0       0.7127571       133.9468
2013    6       1       0.7116225       133.7137
2013    6       2       0.6825603       130.2724
2013    6       3       0.6857538       131.0045
2013    6       4       0.7735919       141.7222
2013    6       5       0.7748471       141.9287
2013    6       6       0.6861152       131.1879
2013    6       7       0.5699681       116.0263
2013    7       0       0.4698771       101.4153
2013    7       1       0.3743622       85.34006
2013    7       2       0.273438        66.80215
2013    7       3       0.3246368       76.17439
2013    7       4       0.4986161       105.004
2013    7       5       0.5430112       111.8957
2013    7       6       0.5643167       115.1933
2013    7       7       0.4800738       102.6761
2013    8       0       0.3987535       89.46127
2013    8       1       0.3947262       88.6462
2013    8       2       0.4703996       100.3539
2013    8       3       0.5469708       112.399
2013    8       4       0.5295252       109.9034
2013    8       5       0.5335446       110.6084
2013    8       6       0.5267048       109.8781
2013    8       7       0.4583546       99.53429
2013    9       0       0.3484037       81.34035
2013    9       1       0.2473749       61.87617
2013    9       2       0.1775843       47.60833
2013    9       3       0.2471846       61.76321
2013    9       4       0.4345461       95.00308
2013    9       5       0.5131131       107.4911
2013    9       6       0.5704494       115.831
2013    9       7       0.627466        123.6958
2013    10      0       0.5535548       113.6408
2013    10      1       0.5513853       112.9828
2013    10      2       0.3932732       88.29103
2013    10      3       0.3942247       88.35311
2013    10      4       0.6326383       124.6229
2013    10      5       0.6805129       130.7946
2013    10      6       0.5776657       116.7667
2013    10      7       0.4615388       99.71595
2013    11      0       0.4496271       97.84804
2013    11      1       0.5919692       118.671
2013    11      2       0.642267        125.5286
2013    11      3       0.5977966       119.886
2013    11      4       0.698675        133.0639
2013    11      5       0.9118693       157.3364
2013    11      6       0.8749826       153.8306
2013    11      7       0.896449        155.4003
2013    12      0       0.6727801       129.2738
2013    12      1       0.4988018       104.4658
2013    12      2       0.4046561       89.72998
2013    12      3       0.5930897       118.7141
2013    12      4       0.8163016       146.8082
2013    12      5       0.896932        155.8559
2013    12      6       0.7579247       140.379
2013    12      7       0.7480832       139.2756
2013    13      0       0.5323216       111.0513
2013    13      1       0.4299244       95.25188
2013    13      2       0.3109464       74.54193
2013    13      3       0.2992367       72.19536
2013    13      4       0.4496961       98.18719
2013    13      5       0.6301867       125.2221
2013    13      6       0.7005054       134.6879
2013    13      7       0.6330906       125.738
2013    14      0       0.5260219       110.6232
2013    14      1       0.4620112       100.3226
2013    14      2       0.3966937       89.10768
2013    14      3       0.4913939       104.3227
2013    14      4       0.69587         133.1583
2013    14      5       0.808048        146.4768
2013    14      6       0.6906771       131.9662
2013    14      7       0.5612926       114.8756
2013    15      0       0.5062576       107.0221
2013    15      1       0.4771293       101.8476
2013    15      2       0.4002053       89.44011
2013    15      3       0.3858814       87.22673
2013    15      4       0.4622943       99.51584
2013    15      5       0.4495945       97.77628
2013    15      6       0.4334202       95.17741
2013    15      7       0.4114829       91.54744
2013    16      0       0.4605543       99.19497
2013    16      1       0.5355182       110.3678
2013    16      2       0.5589657       114.234
2013    16      3       0.6069449       121.5949
2013    16      4       0.7269957       137.4211
2013    16      5       0.693571        133.4776
2013    16      6       0.6190094       123.4157
2013    16      7       0.6288553       124.458
2013    17      0       0.6375832       125.4799
2013    17      1       0.5748129       116.8629
2013    17      2       0.3555228       82.59018
2013    17      3       0.2810869       69.0674
2013    17      4       0.329777        78.18886
2013    17      5       0.3552471       82.25898
2013    17      6       0.4038787       90.62458
2013    17      7       0.4136174       92.46311
2013    18      0       0.4207418       93.80675
2013    18      1       0.4536175       99.07298
2013    18      2       0.4554623       99.41335
2013    18      3       0.3990533       90.60513
2013    18      4       0.3545002       82.79662
2013    18      5       0.3353479       79.45514
2013    18      6       0.3521667       82.64497
2013    18      7       0.3872827       89.37807
2013    19      0       0.3878161       89.56719
2013    19      1       0.383993        88.63195
2013    19      2       0.3572062       84.0232
2013    19      3       0.3736776       87.18755
2013    19      4       0.4675102       103.0851
2013    19      5       0.4497819       100.2309
2013    19      6       0.4321003       97.66794
2013    19      7       0.4551625       101.0929
2013    20      0       0.3953848       90.44013
2013    20      1       0.3676622       85.56375
2013    20      2       0.3496714       82.61816
2013    20      3       0.3731962       86.93011
2013    20      4       0.4519961       100.1902
2013    20      5       0.5072376       108.9556
2013    20      6       0.4540247       101.021
2013    20      7       0.403591        92.58626
2013    21      0       0.2567225       65.11377
2013    21      1       0.2772602       68.94447
2013    21      2       0.2740105       67.89236
2013    21      3       0.276046        68.09692
2013    21      4       0.4235319       94.99722
2013    21      5       0.4763819       104.102
2013    21      6       0.4010354       92.11998
2013    21      7       0.3572154       84.3818
2013    22      0       0.3069722       75.0863
2013    22      1       0.3202266       77.23221
2013    22      2       0.2865121       70.67401
2013    22      3       0.3020095       73.62571
2013    22      4       0.4700841       102.8882
2013    22      5       0.5330806       112.7021
2013    22      6       0.596272        121.3521
2013    22      7       0.5865331       119.7893
2013    23      0       0.5485341       114.6039
2013    23      1       0.5091817       108.4388
2013    23      2       0.4074393       92.24703
2013    23      3       0.3637178       84.46301
2013    23      4       0.3687529       85.51826
2013    23      5       0.3269342       78.27343
2013    23      6       0.3164869       76.62743
2013    23      7       0.334924        80.07901
2013    24      0       0.3610367       84.74855
2013    24      1       0.3635588       84.59893
2013    24      2       0.3654537       85.21618
2013    24      3       0.4168916       94.84311
2013    24      4       0.4587975       101.8767
2013    24      5       0.5287203       113.322
2013    24      6       0.515368        111.5335
2013    24      7       0.3932576       91.26242
2013    25      0       0.3467875       82.79225
2013    25      1       0.3481597       82.78332
2013    25      2       0.363145        85.05727
2013    25      3       0.516357        110.5294
2013    25      4       0.6677981       132.0008
2013    25      5       0.683277        134.737
2013    25      6       0.6409205       128.8849
2013    25      7       0.8045552       149.0031
2013    26      0       0.7395991       140.982
2013    26      1       0.5405078       113.9978
2013    26      2       0.5015318       107.8323
2013    26      3       0.6022677       122.1301
2013    26      4       0.6875241       133.0227
2013    26      5       0.6363879       127.5695
2013    26      6       0.6743429       132.3143
2013    26      7       0.6934459       134.8348
2013    27      0       0.7319475       138.748
2013    27      1       0.7388073       138.6619
2013    27      2       0.7373009       138.7823
2013    27      3       0.7720872       143.8091
2013    27      4       0.8255976       149.3581
2013    27      5       0.7447778       140.6036
2013    27      6       0.7262587       138.0554
2013    27      7       0.649265        127.7245
2013    28      0       0.5311348       111.0471
2013    28      1       0.4739778       101.9161
2013    28      2       0.4941516       105.0614
2013    28      3       0.5302777       110.938
2013    28      4       0.6508701       127.8373
2013    28      5       0.7896914       145.0018
2013    28      6       0.6360363       125.7857
2013    28      7       0.4298565       94.90915
2013    29      0       0.3535901       81.897
2013    29      1       0.3657832       83.67136
2013    29      2       0.3956883       89.00474
2013    29      3       0.5066941       106.9359
2013    29      4       0.6194034       123.123
2013    29      5       0.6100829       121.7759
2013    29      6       0.5760445       116.849
2013    29      7       0.5371423       111.1676
2013    30      0       0.536018        110.8657
2013    30      1       0.51202         107.3685
2013    30      2       0.493767        105.188
2013    30      3       0.5196191       109.826
2013    30      4       0.618784        124.4388
2013    30      5       0.6104942       123.6286
2013    30      6       0.5732933       118.5809
2013    30      7       0.5844969       119.732
2013    31      0       0.5077654       108.4457
2013    31      1       0.46975         102.9364
2013    31      2       0.4398073       98.74196
2013    31      3       0.4264144       97.00681
2013    31      4       0.3823399       89.71303
2013    31      5       0.3656388       86.51817
2013    31      6       0.3237923       78.71289
2013    31      7       0.2747289       69.23172
2014    1       0       0.5526724       114.0853
2014    1       1       0.5440618       112.3875
2014    1       2       0.5571345       114.0801
2014    1       3       0.5894386       118.863
2014    1       4       0.6455423       126.9265
2014    1       5       0.640469        126.6535
2014    1       6       0.5801734       118.2417
2014    1       7       0.5621427       115.6872
2014    2       0       0.5509203       114.0214
2014    2       1       0.5299883       110.9361
2014    2       2       0.5457561       113.3148
2014    2       3       0.5535166       114.3972
2014    2       4       0.5573527       115.1332
2014    2       5       0.6237007       124.7275
2014    2       6       0.8182307       148.8683
2014    2       7       1.023613        169.311
2014    3       0       0.8684865       153.8093
2014    3       1       0.7055189       134.4268
2014    3       2       0.6605113       129.0004
2014    3       3       0.6007093       121.3394
2014    3       4       0.584318        119.0427
2014    3       5       0.6292618       125.4629
2014    3       6       0.6813942       132.2486
2014    3       7       0.7043908       135.2661
2014    4       0       0.7600487       142.3437
2014    4       1       0.8729721       154.2862
2014    4       2       0.7942366       146.2623
2014    4       3       0.77854         145.5795
2014    4       4       0.776635        145.504
2014    4       5       0.922536        161.4654
2014    4       6       1.08922         177.2056
2014    4       7       1.051231        173.795
2014    5       0       0.9408901       163.2455
2014    5       1       0.8901213       157.0817
2014    5       2       0.8193083       150.299
2014    5       3       0.8375475       152.4746
2014    5       4       1.069266        174.9881
2014    5       5       0.9899949       166.9127
2014    5       6       0.8662318       154.1597
2014    5       7       0.8429315       151.5783
2014    6       0       0.842795        151.7203
2014    6       1       0.9560782       162.9764
2014    6       2       0.8910456       156.1093
2014    6       3       0.9911268       165.8692
2014    6       4       1.082783        174.246
2014    6       5       0.9072975       158.3916
2014    6       6       0.8660417       154.238
2014    6       7       0.907376        158.4339
2014    7       0       0.9102781       158.6708
2014    7       1       0.8928883       156.8633
2014    7       2       0.8015307       147.3101
2014    7       3       0.8242959       149.9804
2014    7       4       0.8721953       155.5481
2014    7       5       0.8989844       158.2684
2014    7       6       0.8382019       151.7912
2014    7       7       0.829311        150.6969
2014    8       0       0.8142495       148.8358
2014    8       1       0.8031498       147.3939
2014    8       2       0.7011323       134.6421
2014    8       3       0.5070435       107.5374
2014    8       4       0.4760926       102.5184
2014    8       5       0.5422245       112.5678
2014    8       6       0.6153347       122.512
2014    8       7       0.6967276       132.766
2014    9       0       0.755063        139.8572
2014    9       1       0.7333497       137.5664
2014    9       2       0.715033        135.6241
2014    9       3       0.7175818       136.3252
2014    9       4       0.7649964       142.2995
2014    9       5       0.7492261       140.2502
2014    9       6       0.8357655       149.9877
2014    9       7       0.8704122       153.4987
2014    10      0       0.7165132       136.0186
2014    10      1       0.5665852       115.9573
2014    10      2       0.4252048       93.28545
2014    10      3       0.452176        97.98538
2014    10      4       0.6013838       120.2436
2014    10      5       0.7049663       134.749
2014    10      6       0.8604835       152.6837
2014    10      7       0.9149804       156.7095
2014    11      0       0.7817978       143.3628
2014    11      1       0.5449339       112.3199
2014    11      2       0.4274017       93.9977
2014    11      3       0.5378303       111.2446
2014    11      4       0.7259472       136.8824
2014    11      5       0.7995256       145.3231
2014    11      6       0.6513183       127.037
2014    11      7       0.685541        131.5984
2014    12      0       0.7673976       141.7868
2014    12      1       0.7425356       138.2544
2014    12      2       0.7208916       136.0456
2014    12      3       0.7794502       143.2442
2014    12      4       0.9480631       161.1949
2014    12      5       0.9315933       159.1357
2014    12      6       0.9203364       157.8379
2014    12      7       0.8930065       154.9342
2014    13      0       0.8963268       155.1024
2014    13      1       0.80099         144.9425
2014    13      2       0.7641092       140.8319
2014    13      3       0.7441598       138.7908
2014    13      4       0.7213718       135.7426
2014    13      5       0.6785538       129.9281
2014    13      6       0.7400137       137.0779
2014    13      7       0.8381576       148.9098
2014    14      0       0.5943044       118.8782
2014    14      1       0.351726        80.69988
2014    14      2       0.2902436       69.61507
2014    14      3       0.3677603       83.32285
2014    14      4       0.4890719       102.9644
2014    14      5       0.5856691       117.1939
2014    14      6       0.5833639       116.9696
2014    14      7       0.5295885       109.0646
2014    15      0       0.3634488       82.67242
2014    15      1       0.3102369       73.13806
2014    15      2       0.2872624       69.14522
2014    15      3       0.2861616       69.07966
2014    15      4       0.4289485       93.93374
2014    15      5       0.4960304       104.7592
2014    15      6       0.4873382       103.4863
2014    15      7       0.4612915       99.40929
2014    16      0       0.4007755       89.95879
2014    16      1       0.3884501       87.68148
2014    16      2       0.3108454       74.20874
2014    16      3       0.363586        83.82166
2014    16      4       0.5228372       109.0905
2014    16      5       0.5627338       114.7181
2014    16      6       0.589448        118.0264
2014    16      7       0.6344258       124.203
2014    17      0       0.6312072       124.2298
2014    17      1       0.7515686       139.1072
2014    17      2       0.7973161       144.3366
2014    17      3       0.6840761       131.8033
2014    17      4       0.6607005       128.7393
2014    17      5       0.6076899       122.1038
2014    17      6       0.518911        109.4422
2014    17      7       0.4468139       98.36684
2014    18      0       0.3688308       85.13996
2014    18      1       0.3241074       76.88023
2014    18      2       0.3201615       75.68714
2014    18      3       0.4469609       97.45027
2014    18      4       0.6473815       126.6519
2014    18      5       0.5812415       118.6681
2014    18      6       0.5146964       108.8956
2014    18      7       0.4600493       100.1967
2014    19      0       0.3695119       84.80206
2014    19      1       0.3398591       79.40706
2014    19      2       0.368084        84.63244
2014    19      3       0.5157326       108.5074
2014    19      4       0.6610488       128.5368
2014    19      5       0.6010638       121.0683
2014    19      6       0.5268345       110.673
2014    19      7       0.4148328       93.04955
2014    20      0       0.3585349       83.08945
2014    20      1       0.3437033       79.93878
2014    20      2       0.4131849       91.7081
2014    20      3       0.5033975       106.1633
2014    20      4       0.6330031       125.1305
2014    20      5       0.9170856       158.0998
2014    20      6       1.070206        172.7112
2014    20      7       0.7638405       140.8038
2014    21      0       0.5206725       108.4197
2014    21      1       0.4042602       90.27656
2014    21      2       0.3843192       86.82191
2014    21      3       0.4583537       99.11753
2014    21      4       0.5608232       114.7063
2014    21      5       0.5685837       116.205
2014    21      6       0.4631177       100.5107
2014    21      7       0.3311871       78.55702
2014    22      0       0.2443846       61.58273
2014    22      1       0.2734365       67.46972
2014    22      2       0.3329152       78.12147
2014    22      3       0.5742127       116.9886
2014    22      4       0.6245055       123.8135
2014    22      5       0.6290299       125.1701
2014    22      6       0.5865907       118.8201
2014    22      7       0.6409021       126.0879
2014    23      0       0.7675618       140.9674
2014    23      1       0.7707246       141.1807
2014    23      2       0.7587104       140.8947
2014    23      3       0.8843205       155.59
2014    23      4       0.7235504       137.0594
2014    23      5       0.6325604       125.0927
2014    23      6       0.5966605       119.9337
2014    23      7       0.5716239       116.1127
2014    24      0       0.798722        144.8478
2014    24      1       0.8328895       148.2069
2014    24      2       0.7659079       141.2454
2014    24      3       0.7594618       141.009
2014    24      4       0.6847033       131.6366
2014    24      5       0.8366928       149.4884
2014    24      6       0.7168561       135.4707
2014    24      7       0.5496052       113.2277
2014    25      0       0.484329        103.6804
2014    25      1       0.4443666       96.75316
2014    25      2       0.3966462       88.89311
2014    25      3       0.391653        88.08961
2014    25      4       0.4264213       94.18082
2014    25      5       0.6592538       128.1818
2014    25      6       0.8467215       150.6893
2014    25      7       0.7403244       138.5697
2014    26      0       0.6840666       131.5348
2014    26      1       0.6132218       121.9557
2014    26      2       0.5667114       115.6109
2014    26      3       0.5953125       119.9452
2014    26      4       0.6891745       132.7007
2014    26      5       0.7331155       138.1904
2014    26      6       0.646651        127.2487
2014    26      7       0.592673        120.2682
2014    27      0       0.6089188       122.6112
2014    27      1       0.6124062       122.1688
2014    27      2       0.636283        125.7498
2014    27      3       0.7323283       138.5865
2014    27      4       0.8147713       148.5953
2014    27      5       0.6433057       127.307
2014    27      6       0.6277228       125.0911
2014    27      7       0.6621103       129.7205
2014    28      0       0.6620716       129.8901
2014    28      1       0.6055105       121.9719
2014    28      2       0.5407893       112.5698
2014    28      3       0.4533701       99.25599
2014    28      4       0.4380403       96.89026
2014    28      5       0.4140033       92.97786
2014    28      6       0.4276512       95.58952
2014    28      7       0.4101855       92.52245
2014    29      0       0.3838104       88.07002
2014    29      1       0.3044035       73.62213
2014    29      2       0.2741011       67.67662
2014    29      3       0.3413913       79.95417
2014    29      4       0.4965363       105.9776
2014    29      5       0.6699254       131.1277
2014    29      6       0.6989792       135.3321
2014    29      7       0.7807633       144.6107
2014    30      0       0.8383292       150.8267
2014    30      1       0.7899035       145.2856
2014    30      2       0.693446        133.8327
2014    30      3       0.5880624       120.3882
2014    30      4       0.6006594       122.2539
2014    30      5       0.5295115       112.2481
2014    30      6       0.5421747       113.8181
2014    30      7       0.5452509       114.599
2014    31      0       0.6067376       123.0095
2014    31      1       0.5398235       113.4401
2014    31      2       0.5844057       119.7178
2014    31      3       0.6047094       122.8299
2014    31      4       0.6168037       123.7837
2014    31      5       0.5963387       121.2208
2014    31      6       0.6224589       125.0127
2014    31      7       0.6439887       127.7318
2015    1       0       0.4605758       99.02049
2015    1       1       0.2577323       63.59533
2015    1       2       0.2092962       54.03566
2015    1       3       0.3100183       73.39277
2015    1       4       0.4641322       99.3178
2015    1       5       0.6066548       120.2949
2015    1       6       0.641871        124.7082
2015    1       7       0.4097933       90.3439
2015    2       0       0.2541475       62.30077
2015    2       1       0.2548571       62.40141
2015    2       2       0.2590849       63.13704
2015    2       3       0.3054126       71.69669
2015    2       4       0.3755885       84.01145
2015    2       5       0.398685        88.26959
2015    2       6       0.4115415       90.50296
2015    2       7       0.4955274       103.9717
2015    3       0       0.5120305       105.8179
2015    3       1       0.4244734       92.35118
2015    3       2       0.3873726       86.06044
2015    3       3       0.3496152       79.81083
2015    3       4       0.3025969       71.61666
2015    3       5       0.2744149       66.37215
2015    3       6       0.2505135       61.94534
2015    3       7       0.1981834       51.69436
2015    4       0       0.1735182       46.51633
2015    4       1       0.18175         48.10233
2015    4       2       0.1932413       50.51911
2015    4       3       0.2279747       57.59763
2015    4       4       0.2374659       59.93508
2015    4       5       0.3178572       74.79549
2015    4       6       0.284029        69.0577
2015    4       7       0.2139812       55.4575
2015    5       0       0.2738593       67.18677
2015    5       1       0.3948072       88.41296
2015    5       2       0.4958163       104.2032
2015    5       3       0.4496793       97.74048
2015    5       4       0.3623569       83.46638
2015    5       5       0.3111529       74.29444
2015    5       6       0.3239817       76.34897
2015    5       7       0.3994543       89.22105
2015    6       0       0.4471713       96.99367
2015    6       1       0.4773682       101.6212
2015    6       2       0.4694396       100.4038
2015    6       3       0.545631        112.2459
2015    6       4       0.5651681       115.4759
2015    6       5       0.5052829       107.2311
2015    6       6       0.4259308       94.85952
2015    6       7       0.3614061       83.79776
2015    7       0       0.3424597       80.31048
2015    7       1       0.3031946       73.02099
2015    7       2       0.2756509       67.67736
2015    7       3       0.2858126       69.38419
2015    7       4       0.3342775       78.44917
2015    7       5       0.4280837       95.18174
2015    7       6       0.444376        98.07157
2015    7       7       0.4653098       101.1679
2015    8       0       0.4840372       103.9117
2015    8       1       0.4926835       104.9842
2015    8       2       0.4795522       103.2062
2015    8       3       0.4994181       106.2966
2015    8       4       0.7124197       136.0266
2015    8       5       0.7121065       135.924
2015    8       6       0.7280809       137.7554
2015    8       7       0.7206015       136.8038
2015    9       0       0.6684531       130.2585
2015    9       1       0.6031274       121.0677
2015    9       2       0.5514636       114.0122
2015    9       3       0.5705163       116.777
2015    9       4       0.6792341       131.8998
2015    9       5       0.6677386       130.6937
2015    9       6       0.6549217       129.0491
2015    9       7       0.639402        127.0188
2015    10      0       0.6727576       131.4065
2015    10      1       0.8210096       147.3093
2015    10      2       0.7044625       134.2484
2015    10      3       0.6619181       129.8908
2015    10      4       0.7758834       143.9734
2015    10      5       1.023144        169.5476
2015    10      6       0.8677917       154.8218
2015    10      7       0.9718166       164.6624
2015    11      0       1.001705        167.2334
2015    11      1       1.007598        167.1113
2015    11      2       0.8195656       148.6013
2015    11      3       0.6534141       129.273
2015    11      4       0.6136472       124.0781
2015    11      5       0.7943746       146.8694
2015    11      6       1.040877        172.1465
2015    11      7       0.968072        165.3377
2015    12      0       0.8235005       149.9155
2015    12      1       0.6781009       131.8094
2015    12      2       0.5856472       119.873
2015    12      3       0.6939584       135.2298
2015    12      4       0.7890218       146.614
2015    12      5       0.856621        153.7121
2015    12      6       0.7650935       143.3402
2015    12      7       0.7145122       137.265
2015    13      0       0.5474078       114.4534
2015    13      1       0.5130709       109.0738
2015    13      2       0.5759335       118.1419
2015    13      3       0.714687        136.7723
2015    13      4       0.8833107       156.1743
2015    13      5       1.032734        170.7111
2015    13      6       1.034771        170.6452
2015    13      7       0.8536819       152.7172
2015    14      0       0.716083        136.7046
2015    14      1       0.8563955       150.9779
2015    14      2       0.7104617       135.359
2015    14      3       0.7445408       139.4367
2015    14      4       0.7516803       140.2713
2015    14      5       0.7828131       143.9134
2015    14      6       0.7878311       144.2523
2015    14      7       0.7565039       140.6866
2015    15      0       0.7812881       143.2245
2015    15      1       0.7591355       140.4402
2015    15      2       0.7426837       138.6595
2015    15      3       0.8008341       145.7195
2015    15      4       0.9376025       160.6343
2015    15      5       0.9417114       160.5512
2015    15      6       0.6783056       130.5031
2015    15      7       0.5285189       109.7713
2015    16      0       0.3957426       88.82016
2015    16      1       0.2656575       65.58615
2015    16      2       0.1699188       46.34696
2015    16      3       0.1546963       43.00271
2015    16      4       0.1796513       48.30084
2015    16      5       0.2530793       63.15938
2015    16      6       0.3072788       74.11575
2015    16      7       0.3060475       74.19234
2015    17      0       0.3557765       83.44454
2015    17      1       0.4115036       92.96809
2015    17      2       0.5118336       108.6912
2015    17      3       0.6766098       132.2055
2015    17      4       0.8217635       149.6994
2015    17      5       0.8274681       150.8216
2015    17      6       0.4763579       103.469
2015    17      7       0.2884402       70.62287
2015    18      0       0.2091209       54.74097
2015    18      1       0.2064883       54.18574
2015    18      2       0.3274658       77.58215
2015    18      3       0.6645028       129.6861
2015    18      4       0.8177173       148.4029
2015    18      5       0.5949762       120.4456
2015    18      6       0.4935629       105.6469
2015    18      7       0.3873823       88.53561
2015    19      0       0.2091098       54.84445
2015    19      1       0.2179908       56.40985
2015    19      2       0.302882        72.6438
2015    19      3       0.5042171       106.9131
2015    19      4       0.5709511       116.7907
2015    19      5       0.6527244       128.2981
2015    19      6       0.8220036       148.5349
2015    19      7       0.7417801       138.883
2015    20      0       0.5963656       120.5084
2015    20      1       0.5120272       108.0584
2015    20      2       0.432865        95.6846
2015    20      3       0.3984293       90.05451
2015    20      4       0.4828608       103.6871
2015    20      5       0.51881         109.1906
2015    20      6       0.521772        109.558
2015    20      7       0.5163798       108.4852
2015    21      0       0.4784289       102.3983
2015    21      1       0.4628365       99.79833
2015    21      2       0.4430638       96.59487
2015    21      3       0.4399343       96.33844
2015    21      4       0.5292375       110.2551
2015    21      5       0.5437828       112.6409
2015    21      6       0.5606306       114.8963
2015    21      7       0.5756827       116.6414
2015    22      0       0.5825004       117.5757
2015    22      1       0.5478017       112.7511
2015    22      2       0.5336826       110.6279
2015    22      3       0.5656185       115.4881
2015    22      4       0.6162276       122.6007
2015    22      5       0.6083992       121.5424
2015    22      6       0.594341        119.3456
2015    22      7       0.6217798       123.2816
2015    23      0       0.5913349       118.6388
2015    23      1       0.6327312       124.1397
2015    23      2       0.561313        114.9503
2015    23      3       0.5780691       117.425
2015    23      4       0.6743183       130.8413
2015    23      5       0.7681364       142.4028
2015    23      6       0.7883823       144.1366
2015    23      7       0.6814084       130.9271
2015    24      0       0.5286783       110.1053
2015    24      1       0.5366803       110.5068
2015    24      2       0.5334758       110.3814
2015    24      3       0.688469        132.438
2015    24      4       0.7968222       145.7054
2015    24      5       0.808969        146.9883
2015    24      6       0.5255542       110.8355
2015    24      7       0.4309913       95.52289
2015    25      0       0.5403801       111.5468
2015    25      1       0.6220326       122.5231
2015    25      2       0.6783227       130.2852
2015    25      3       0.8626004       152.5966
2015    25      4       0.9080708       157.4261
2015    25      5       0.9052578       157.1093
2015    25      6       0.8768467       153.1264
2015    25      7       0.6745041       130.028
2015    26      0       0.5884678       118.3259
2015    26      1       0.5198609       107.996
2015    26      2       0.4840026       102.6448
2015    26      3       0.5783281       116.6015
2015    26      4       0.5738094       115.9091
2015    26      5       0.5951114       119.2257
2015    26      6       0.6363237       124.5073
2015    26      7       0.6343857       123.1947
2015    27      0       0.394564        88.33344
2015    27      1       0.3130112       73.93397
2015    27      2       0.2998696       71.46259
2015    27      3       0.3586501       82.14717
2015    27      4       0.4689386       100.5097
2015    27      5       0.5610911       114.7124
2015    27      6       0.6562766       128.1317
2015    27      7       0.6005746       120.7341
2015    28      0       0.5666          115.6675
2015    28      1       0.499208        105.2025
2015    28      2       0.4445933       96.63356
2015    28      3       0.4670286       100.5811
2015    28      4       0.6047886       121.4614
2015    28      5       0.6232574       124.084
2015    28      6       0.6854696       131.9702
2015    28      7       0.6605155       129.0211
2015    29      0       0.574875        117.581
2015    29      1       0.5516395       113.6284
2015    29      2       0.5540487       114.1456
2015    29      3       0.7006519       134.0122
2015    29      4       0.758165        141.2518
2015    29      5       0.8147463       148.1832
2015    29      6       0.7434313       139.7189
2015    29      7       0.8060483       146.8319
2015    30      0       0.8312858       149.4175
2015    30      1       0.7591082       140.8055
2015    30      2       0.6617423       128.9624
2015    30      3       0.7454403       140.0663
2015    30      4       1.047818        171.9223
2015    30      5       0.9854453       165.4018
2015    30      6       0.6633697       129.683
2015    30      7       0.5514495       114.2676
2015    31      0       0.465936        101.0119
2015    31      1       0.39081         88.22333
2015    31      2       0.3253783       76.59741
2015    31      3       0.4176715       92.99086
2015    31      4       0.6392199       125.5914
2015    31      5       0.9294219       159.1271
2015    31      6       1.01579         167.2674
2015    31      7       0.9290176       159.2377
2016    1       0       0.2693999       66.00537
2016    1       1       0.2719024       66.47681
2016    1       2       0.2723317       66.64655
2016    1       3       0.2995584       71.64013
2016    1       4       0.3110032       74.05646
2016    1       5       0.2876361       69.96212
2016    1       6       0.2891514       70.27184
2016    1       7       0.3146632       75.03757
2016    2       0       0.320865        76.15604
2016    2       1       0.276719        67.91481
2016    2       2       0.3121568       74.56509
2016    2       3       0.4280088       94.59763
2016    2       4       0.5135495       108.2821
2016    2       5       0.5771669       117.7945
2016    2       6       0.55207         113.445
2016    2       7       0.4525722       98.54519
2016    3       0       0.4076903       91.30314
2016    3       1       0.3922847       88.09345
2016    3       2       0.4861199       103.0998
2016    3       3       0.5916012       119.7425
2016    3       4       0.6352674       125.8375
2016    3       5       0.7019181       134.4772
2016    3       6       1.005913        167.476
2016    3       7       1.03778         170.3931
2016    4       0       0.8368811       150.7248
2016    4       1       0.7762464       143.2849
2016    4       2       0.7206501       136.8381
2016    4       3       0.7061128       134.7339
2016    4       4       0.6262002       124.4051
2016    4       5       0.8208518       147.8411
2016    4       6       1.000912        166.5276
2016    4       7       0.8223156       148.5606
2016    5       0       0.6595216       128.4491
2016    5       1       0.6082591       121.6967
2016    5       2       0.7674519       141.1404
2016    5       3       0.8383271       149.8575
2016    5       4       0.9315879       159.9666
2016    5       5       1.02596         168.8238
2016    5       6       0.9879446       164.819
2016    5       7       0.8411895       150.0476
2016    6       0       0.7091912       134.9895
2016    6       1       0.6745645       130.4571
2016    6       2       0.5295293       110.7267
2016    6       3       0.4933657       105.2414
2016    6       4       0.4877225       104.4409
2016    6       5       0.4193591       93.67067
2016    6       6       0.3215507       76.77008
2016    6       7       0.317104        75.96877
2016    7       0       0.3194056       76.39107
2016    7       1       0.3229214       76.92089
2016    7       2       0.3432684       80.57913
2016    7       3       0.3606019       83.77787
2016    7       4       0.4041367       91.10171
2016    7       5       0.5151627       109.0371
2016    7       6       0.4711881       102.2865
2016    7       7       0.3806393       87.55773
2016    8       0       0.323382        77.3857
2016    8       1       0.2388078       61.06604
2016    8       2       0.2090857       54.92845
2016    8       3       0.2601471       64.96129
2016    8       4       0.3467644       81.34872
2016    8       5       0.4197336       94.44139
2016    8       6       0.4162956       94.47316
2016    8       7       0.4681755       102.5294
2016    9       0       0.4961382       106.5869
2016    9       1       0.5001267       106.6402
2016    9       2       0.5250702       110.2727
2016    9       3       0.6478059       127.8094
2016    9       4       0.7649617       143.2844
2016    9       5       0.8151628       149.4764
2016    9       6       0.9199381       160.4221
2016    9       7       1.090323        175.473
2016    10      0       1.079862        174.4053
2016    10      1       0.8889429       156.289
2016    10      2       0.7783506       144.4993
2016    10      3       0.7395639       140.4891
2016    10      4       0.8175743       149.6367
2016    10      5       0.7928762       147.3452
2016    10      6       0.7253295       139.1266
2016    10      7       0.7082804       137.0326
2016    11      0       0.8072957       148.1941
2016    11      1       1.037766        171.1918
2016    11      2       1.09332         176.9506
2016    11      3       0.9796816       166.9787
2016    11      4       0.9239643       161.499
2016    11      5       1.072907        175.125
2016    11      6       1.171597        182.7219
2016    11      7       0.9399098       162.3403
2016    12      0       0.798325        147.5908
2016    12      1       0.8238071       149.6845
2016    12      2       0.7934431       146.5632
2016    12      3       0.8149602       149.5137
2016    12      4       0.9808214       165.9017
2016    12      5       0.9670669       165.3804
2016    12      6       0.8925616       157.3586
2016    12      7       1.041145        171.4705
2016    13      0       0.6647178       130.5301
2016    13      1       0.4941098       106.2168
2016    13      2       0.4265649       95.19755
2016    13      3       0.3927024       89.59091
2016    13      4       0.439739        97.09272
2016    13      5       0.5880439       119.752
2016    13      6       0.5802872       118.5248
2016    13      7       0.5452196       113.4004
2016    14      0       0.5223328       109.9089
2016    14      1       0.5267181       110.4511
2016    14      2       0.5838739       118.13
2016    14      3       0.6430739       126.3355
2016    14      4       0.6206407       123.0743
2016    14      5       0.5319456       110.9621
2016    14      6       0.6784051       130.9742
2016    14      7       0.6359051       125.3723
2016    15      0       0.5130388       108.0816
2016    15      1       0.528959        109.944
2016    15      2       0.4830789       103.3
2016    15      3       0.4432355       97.61915
2016    15      4       0.440085        97.05271
2016    15      5       0.4587715       100.2693
2016    15      6       0.4516521       99.47408
2016    15      7       0.4295943       95.6403
2016    16      0       0.41368         92.91191
2016    16      1       0.4031448       90.70074
2016    16      2       0.3797596       86.29508
2016    16      3       0.5091849       107.0441
2016    16      4       0.657281        128.2433
2016    16      5       1.005842        167.1779
2016    16      6       0.843734        150.6906
2016    16      7       0.6620227       128.631
2016    17      0       0.6303716       124.2676
2016    17      1       0.6924147       131.9249
2016    17      2       0.5814079       118.3988
2016    17      3       0.3920861       89.72252
2016    17      4       0.3622344       84.46086
2016    17      5       0.3518126       82.97071
2016    17      6       0.3432766       81.61202
2016    17      7       0.3508918       82.8832
2016    18      0       0.3420681       81.37947
2016    18      1       0.4234142       95.17634
2016    18      2       0.4385082       97.76452
2016    18      3       0.4929775       106.5539
2016    18      4       0.6096823       123.2172
2016    18      5       0.70221         136.1537
2016    18      6       0.645605        128.4849
2016    18      7       0.6261376       125.6604
2016    19      0       0.545035        114.287
2016    19      1       0.5566141       114.841
2016    19      2       0.4657162       102.0616
2016    19      3       0.5454759       113.8234
2016    19      4       0.6733082       130.7038
2016    19      5       0.7183585       137.5953
2016    19      6       0.5426538       114.2402
2016    19      7       0.4890876       106.1499
2016    20      0       0.4787985       104.4747
2016    20      1       0.4816983       103.7926
2016    20      2       0.5193339       109.3908
2016    20      3       0.6128579       123.1734
2016    20      4       0.6550953       128.8864
2016    20      5       0.6453242       127.6084
2016    20      6       0.6563927       129.6309
2016    20      7       0.4659407       102.3861
2016    21      0       0.4969534       106.4432
2016    21      1       0.6235714       124.0604
2016    21      2       0.662406        129.5746
2016    21      3       0.4756908       103.3694
2016    21      4       0.3823235       87.54997
2016    21      5       0.3543579       82.85644
2016    21      6       0.3457264       81.32426
2016    21      7       0.3519279       82.58887
2016    22      0       0.3792574       87.29317
2016    22      1       0.3607115       83.96628
2016    22      2       0.3647138       84.62745
2016    22      3       0.4834866       104.2191
2016    22      4       0.6273679       125.5133
2016    22      5       0.6083911       123.2113
2016    22      6       0.7104006       135.8995
2016    22      7       0.8043512       146.5641
2016    23      0       0.8754417       154.1594
2016    23      1       0.9120673       157.7661
2016    23      2       0.8566832       152.5843
2016    23      3       0.9436058       162.5676
2016    23      4       0.860026        154.3046
2016    23      5       1.090062        175.8735
2016    23      6       1.119675        178.0826
2016    23      7       0.7434913       139.3285
2016    24      0       0.6836627       131.4854
2016    24      1       0.7967569       145.1064
2016    24      2       0.8114731       148.1961
2016    24      3       0.7729973       144.054
2016    24      4       0.6244943       125.4673
2016    24      5       0.7719199       143.2175
2016    24      6       0.9574352       163.1629
2016    24      7       1.068812        173.4497
2016    25      0       1.080678        174.3271
2016    25      1       1.0284          168.7087
2016    25      2       0.8838981       155.5126
2016    25      3       0.9366923       161.611
2016    25      4       0.9917396       167.417
2016    25      5       1.031725        171.2375
2016    25      6       0.9555048       163.7579
2016    25      7       0.9409601       162.1494
2016    26      0       0.9638602       163.7851
2016    26      1       0.8162921       147.9414
2016    26      2       0.7580575       140.8953
2016    26      3       0.6580559       129.2614
2016    26      4       0.7052081       134.3563
2016    26      5       0.5843154       118.8802
2016    26      6       0.672411        129.8876
2016    26      7       0.6270743       123.9909
2016    27      0       0.5563425       114.0063
2016    27      1       0.522705        109.5163
2016    27      2       0.4839767       104.2651
2016    27      3       0.4953936       106.1327
2016    27      4       0.6064701       122.0697
2016    27      5       0.5969147       120.9947
2016    27      6       0.6175711       123.8233
2016    27      7       0.618333        123.6973
2016    28      0       0.6662198       129.6706
2016    28      1       0.703792        134.2925
2016    28      2       0.6526247       127.584
2016    28      3       0.6134131       122.9352
2016    28      4       0.7499448       140.062
2016    28      5       0.753191        140.8905
2016    28      6       0.7696133       143.0252
2016    28      7       0.9203589       158.8998
2016    29      0       0.8982659       156.7063
2016    29      1       0.6531108       128.3221
2016    29      2       0.5460259       113.6816
2016    29      3       0.6286385       124.8578
2016    29      4       0.6750465       131.133
2016    29      5       0.6768767       131.2936
2016    29      6       0.6905772       132.6304
2016    29      7       0.8024076       145.4553
2016    30      0       0.8247762       148.1326
2016    30      1       0.6105739       121.8343
2016    30      2       0.377124        86.35565
2016    30      3       0.5049709       107.1456
2016    30      4       0.5406331       112.609
2016    30      5       0.4642176       101.1115
2016    30      6       0.509341        107.9146
2016    30      7       0.5874124       117.91
2016    31      0       0.421255        93.54945
2016    31      1       0.3574627       82.418
2016    31      2       0.3553168       82.35443
2016    31      3       0.3671          85.05254
2016    31      4       0.398123        90.38525
2016    31      5       0.4259054       94.69235
2016    31      6       0.4182831       93.32785
2016    31      7       0.4040005       91.00759
2017    1       0       0.4206197       91.29883
2017    1       1       0.3388396       77.70115
2017    1       2       0.2978125       70.55476
2017    1       3       0.3296106       76.2468
2017    1       4       0.3415635       78.35087
2017    1       5       0.3244081       75.37257
2017    1       6       0.2922678       69.53993
2017    1       7       0.2672504       64.78132
2017    2       0       0.2719324       65.65167
2017    2       1       0.2815799       67.24329
2017    2       2       0.3740324       83.73502
2017    2       3       0.4248002       92.81244
2017    2       4       0.43956         95.2531
2017    2       5       0.4230434       92.68415
2017    2       6       0.4979894       104.0813
2017    2       7       0.6567701       126.2845
2017    3       0       0.6096405       120.5833
2017    3       1       0.6100606       120.3691
2017    3       2       0.6740158       128.9987
2017    3       3       0.8289136       148.3153
2017    3       4       0.8506395       151.0003
2017    3       5       0.8019817       145.4367
2017    3       6       0.8113448       146.6791
2017    3       7       0.8417181       149.6851
2017    4       0       0.6741598       129.8921
2017    4       1       0.6142078       121.574
2017    4       2       0.6030495       120.343
2017    4       3       0.431653        95.1486
2017    4       4       0.510214        106.7449
2017    4       5       0.5448264       112.2921
2017    4       6       0.4265836       94.79388
2017    4       7       0.4644478       100.3709
2017    5       0       0.4306759       94.79024
2017    5       1       0.3948106       88.40993
2017    5       2       0.3548921       81.4364
2017    5       3       0.5132689       106.6695
2017    5       4       0.5156138       107.3094
2017    5       5       0.5441937       111.9266
2017    5       6       0.4455486       97.43595
2017    5       7       0.3186975       75.81167
2017    6       0       0.2368813       59.97591
2017    6       1       0.2533261       63.15397
2017    6       2       0.3111655       74.09206
2017    6       3       0.3741663       85.77181
2017    6       4       0.4292906       94.7957
2017    6       5       0.4224063       93.98754
2017    6       6       0.4125564       92.81823
2017    6       7       0.4275866       95.28409
2017    7       0       0.4165016       93.5392
2017    7       1       0.3732122       86.14394
2017    7       2       0.4302582       95.81785
2017    7       3       0.4837185       104.4481
2017    7       4       0.54057         113.3747
2017    7       5       0.6306263       126.3782
2017    7       6       0.6803548       132.6935
2017    7       7       0.6393594       127.2263
2017    8       0       0.5967436       121.3702
2017    8       1       0.5358564       112.2021
2017    8       2       0.4742209       102.4625
2017    8       3       0.4741829       102.438
2017    8       4       0.5261831       110.4046
2017    8       5       0.5398559       112.508
2017    8       6       0.5376176       112.1447
2017    8       7       0.5284362       110.5552
2017    9       0       0.5321391       110.7486
2017    9       1       0.5562697       113.9717
2017    9       2       0.6094358       120.9345
2017    9       3       0.6390123       125.0395
2017    9       4       0.5581334       114.7386
2017    9       5       0.6100158       122.0536
2017    9       6       0.7941042       144.5547
2017    9       7       0.8457694       150.5174
2017    10      0       0.8188174       147.7293
2017    10      1       0.8598944       151.8495
2017    10      2       0.8221289       148.0323
2017    10      3       0.8305314       149.5982
2017    10      4       0.7851995       144.9943
2017    10      5       0.757569        142.1948
2017    10      6       0.72283         137.7292
2017    10      7       0.6761761       131.9036
2017    11      0       0.6559909       129.2532
2017    11      1       0.6882746       133.2298
2017    11      2       0.7941617       146.1388
2017    11      3       0.8535517       152.9092
2017    11      4       0.8866264       156.3915
2017    11      5       0.7986715       147.4496
2017    11      6       0.7695709       144.137
2017    11      7       0.7486253       141.6812
2017    12      0       0.8013497       147.724
2017    12      1       0.8996688       157.9313
2017    12      2       0.8663493       154.4678
2017    12      3       0.8612045       154.3157
2017    12      4       0.8366929       151.6149
2017    12      5       0.8000123       147.3732
2017    12      6       0.78978         145.8489
2017    12      7       0.827221        149.573
2017    13      0       0.7955991       146.0191
2017    13      1       0.8934266       156.2137
2017    13      2       0.796844        146.2826
2017    13      3       0.7982758       147.0335
2017    13      4       0.8610678       154.0531
2017    13      5       0.9187097       160.164
2017    13      6       0.9703107       165.214
2017    13      7       1.008389        168.6306
2017    14      0       1.00661         168.7007
2017    14      1       0.9459941       162.3862
2017    14      2       0.8994475       157.945
2017    14      3       0.9517126       163.3109
2017    14      4       0.9198645       161.1171
2017    14      5       1.138416        181.0733
2017    14      6       1.272338        190.9145
2017    14      7       1.263201        190.1464
2017    15      0       1.234451        187.8077
2017    15      1       1.164688        182.1564
2017    15      2       1.030681        171.3003
2017    15      3       1.067633        174.8187
2017    15      4       0.9682978       165.4307
2017    15      5       0.9134296       160.0915
2017    15      6       0.9220567       160.9933
2017    15      7       0.9201843       160.7913
2017    16      0       0.905774        159.8605
2017    16      1       0.8904438       157.9171
2017    16      2       0.8172296       149.9773
2017    16      3       0.8716376       155.6596
2017    16      4       0.919584        160.8581
2017    16      5       1.110215        178.8894
2017    16      6       1.151563        181.1387
2017    16      7       0.8190623       148.9274
2017    17      0       0.6761475       131.5473
2017    17      1       0.5723974       117.0909
2017    17      2       0.5356183       111.7389
2017    17      3       0.6718601       130.9747
2017    17      4       0.7934674       146.3168
2017    17      5       0.8569372       153.3044
2017    17      6       0.9135763       159.0077
2017    17      7       0.869029        154.437
2017    18      0       0.8891926       156.5164
2017    18      1       0.8178905       148.5873
2017    18      2       0.7931554       146.0108
2017    18      3       0.8072609       147.8624
2017    18      4       0.7766371       144.6768
2017    18      5       0.7277867       138.4394
2017    18      6       0.7064937       135.3898
2017    18      7       0.7150149       136.4622
2017    19      0       0.7426952       139.8388
2017    19      1       0.8153138       147.5878
2017    19      2       0.7414175       139.6687
2017    19      3       0.7808062       144.192
2017    19      4       0.6942834       133.7374
2017    19      5       0.5676516       116.5779
2017    19      6       0.5657746       116.6177
2017    19      7       0.5730645       117.4376
2017    20      0       0.59216         119.8243
2017    20      1       0.6621188       128.4853
2017    20      2       0.6314657       124.6398
2017    20      3       0.7320853       137.4899
2017    20      4       0.7542609       140.6569
2017    20      5       0.7413672       139.1072
2017    20      6       0.7807927       143.4045
2017    20      7       0.6765703       130.627
2017    21      0       0.5781111       117.4647
2017    21      1       0.6105684       121.9774
2017    21      2       0.5645536       115.8847
2017    21      3       0.6596737       128.7232
2017    21      4       0.7473927       140.0456
2017    21      5       0.8861748       155.724
2017    21      6       0.875515        154.5508
2017    21      7       0.7903722       145.2441
2017    22      0       0.6534219       128.7799
2017    22      1       0.5969733       120.3027
2017    22      2       0.5991912       120.4797
2017    22      3       0.8459265       151.198
2017    22      4       0.9595845       163.2279
2017    22      5       0.9495938       163.0689
2017    22      6       0.9551455       163.7784
2017    22      7       0.8903814       156.9289
2017    23      0       0.8612499       154.0475
2017    23      1       0.8797644       155.6675
2017    23      2       0.9401053       161.3957
2017    23      3       1.024017        170.3112
2017    23      4       1.129665        179.8404
2017    23      5       1.145952        181.0779
2017    23      6       1.029747        171.022
2017    23      7       0.9637589       164.5823
2017    24      0       0.9315255       161.1278
2017    24      1       0.9381671       161.6517
2017    24      2       0.9073153       159.2995
2017    24      3       1.025002        170.9322
2017    24      4       1.015644        170.7003
2017    24      5       1.160468        183.0143
2017    24      6       1.232831        188.4572
2017    24      7       1.055115        173.8234
2017    25      0       0.9748253       166.0915
2017    25      1       1.098431        176.8103
2017    25      2       0.9923324       167.9316
2017    25      3       0.966731        165.6838
2017    25      4       0.9146103       161.0212
2017    25      5       0.8842431       157.8902
2017    25      6       0.8972384       158.8498
2017    25      7       0.8671143       155.3378
2017    26      0       0.9222076       160.5862
2017    26      1       1.014357        169.3601
2017    26      2       1.06658         174.5393
2017    26      3       0.9314708       162.0716
2017    26      4       0.8451013       152.3395
2017    26      5       0.8134644       148.798
2017    26      6       0.8435737       151.6717
2017    26      7       0.844585        151.56
2017    27      0       0.8484547       151.3691
2017    27      1       0.791563        144.5048
2017    27      2       0.674596        131.0646
2017    27      3       0.654314        128.9877
2017    27      4       0.6866821       132.8759
2017    27      5       0.6950051       134.3852
2017    27      6       0.7300968       138.4455
2017    27      7       0.8042702       147.002
2017    28      0       0.7699757       142.4018
2017    28      1       0.6983174       133.0539
2017    28      2       0.6555637       128.1961
2017    28      3       0.656382        128.8859
2017    28      4       0.7228752       137.7431
2017    28      5       0.6805654       132.5148
2017    28      6       0.7151181       136.2013
2017    28      7       0.8430617       150.8719
2017    29      0       0.8687437       153.8316
2017    29      1       0.8853137       155.7443
2017    29      2       0.8596217       153.2267
2017    29      3       0.8714614       155.1983
2017    29      4       0.9382452       162.6227
2017    29      5       0.9848072       166.3068
2017    29      6       1.053829        172.7129
2017    29      7       1.063701        173.1662
2017    30      0       0.8640976       153.7311
2017    30      1       0.8850419       155.9572
2017    30      2       0.8633549       154.4469
2017    30      3       0.9124114       160.1881
2017    30      4       1.007089        170.0236
2017    30      5       1.149521        181.9256
2017    30      6       1.16056         182.4731
2017    30      7       1.102262        177.3958
2017    31      0       1.0149          169.4207
2017    31      1       0.9131205       159.2038
2017    31      2       0.7860964       145.7358
2017    31      3       0.7595716       142.5214
2017    31      4       0.8676585       154.2642
2017    31      5       0.9410732       162.3444
2017    31      6       0.8853003       156.5753
2017    31      7       0.9939701       166.4765
2018    1       0       0.2499606       61.94691
2018    1       1       0.2425716       60.62524
2018    1       2       0.230399        58.43895
2018    1       3       0.2921558       70.17981
2018    1       4       0.3511781       81.24387
2018    1       5       0.3715519       85.03241
2018    1       6       0.3762302       86.02014
2018    1       7       0.4226145       93.80781
2018    2       0       0.4591977       99.74576
2018    2       1       0.5577438       114.4966
2018    2       2       0.5297061       110.171
2018    2       3       0.5508572       112.9556
2018    2       4       0.5513424       113.3788
2018    2       5       0.6442523       126.3507
2018    2       6       0.64312         125.7461
2018    2       7       0.5597947       114.0882
2018    3       0       0.4218379       93.35501
2018    3       1       0.4289589       93.90564
2018    3       2       0.4252324       93.79037
2018    3       3       0.5099584       106.8964
2018    3       4       0.6062873       120.8391
2018    3       5       0.6135162       121.9762
2018    3       6       0.492917        104.8428
2018    3       7       0.3445951       80.01566
2018    4       0       0.3399504       79.18587
2018    4       1       0.4216066       92.9068
2018    4       2       0.4529013       98.41556
2018    4       3       0.3804642       86.43783
2018    4       4       0.4094555       91.01538
2018    4       5       0.401695        90.0909
2018    4       6       0.3586148       82.63573
2018    4       7       0.3687141       84.00718
2018    5       0       0.4361401       94.93017
2018    5       1       0.4696071       100.0593
2018    5       2       0.4903656       103.2824
2018    5       3       0.5404003       111.0354
2018    5       4       0.5013286       105.8625
2018    5       5       0.550478        113.3593
2018    5       6       0.6236776       123.7618
2018    5       7       0.6334053       124.7085
2018    6       0       0.4925082       104.8042
2018    6       1       0.5016073       105.661
2018    6       2       0.5356699       110.1386
2018    6       3       0.5504534       112.8121
2018    6       4       0.6813042       131.0566
2018    6       5       0.623344        123.5941
2018    6       6       0.3014605       72.00056
2018    6       7       0.3799017       85.82974
2018    7       0       0.3607601       82.91858
2018    7       1       0.5260621       109.2161
2018    7       2       0.5841945       117.3289
2018    7       3       0.5789617       116.832
2018    7       4       0.5222387       108.7579
2018    7       5       0.7238222       136.0534
2018    7       6       0.6357509       124.6285
2018    7       7       0.5929156       118.5975
2018    8       0       0.7626731       139.6399
2018    8       1       0.6790403       129.3296
2018    8       2       0.8230535       147.7184
2018    8       3       0.7928439       144.3783
2018    8       4       0.7945286       143.9763
2018    8       5       0.727235        135.7463
2018    8       6       0.5821996       116.903
2018    8       7       0.5527336       112.5447
2018    9       0       0.5292908       109.0618
2018    9       1       0.5075244       105.7024
2018    9       2       0.4799134       101.284
2018    9       3       0.4827928       101.5046
2018    9       4       0.4243435       92.45729
2018    9       5       0.3136225       73.9027
2018    9       6       0.3215603       75.27975
2018    9       7       0.2972956       70.58598
2018    10      0       0.2647795       64.65327
2018    10      1       0.2277792       57.61284
2018    10      2       0.2019958       52.59034
2018    10      3       0.2416957       60.59936
2018    10      4       0.2877079       69.52621
2018    10      5       0.3005703       72.0673
2018    10      6       0.2867427       69.69025
2018    10      7       0.2863602       69.63563
2018    11      0       0.2756114       67.78681
2018    11      1       0.2634359       65.73521
2018    11      2       0.2788553       68.94892
2018    11      3       0.3183029       76.50465
2018    11      4       0.3609395       84.16076
2018    11      5       0.3897724       89.27872
2018    11      6       0.3869854       89.22949
2018    11      7       0.4157968       94.30717
2018    12      0       0.4239909       95.84628
2018    12      1       0.4159999       94.56501
2018    12      2       0.4065747       92.52003
2018    12      3       0.5060272       108.5456
2018    12      4       0.6880412       133.8446
2018    12      5       0.8841677       156.4826
2018    12      6       1.220674        186.2877
2018    12      7       0.8498263       153.2843
2018    13      0       0.5995642       122.4617
2018    13      1       0.552048        114.7652
2018    13      2       0.9090765       158.56
2018    13      3       0.8157391       148.0603
2018    13      4       0.8714256       154.4656
2018    13      5       0.8881564       156.6748
2018    13      6       0.988073        166.0632
2018    13      7       0.8970149       156.9262
2018    14      0       0.5983375       121.2463
2018    14      1       0.4137877       92.88974
2018    14      2       0.3989981       89.90762
2018    14      3       0.5320002       111.3019
2018    14      4       0.5115123       108.536
2018    14      5       0.6636979       129.8734
2018    14      6       0.670873        131.1347
2018    14      7       0.5653441       116.7259
2018    15      0       0.6766391       130.8695
2018    15      1       0.6067026       121.1809
2018    15      2       0.4745248       102.8161
2018    15      3       0.5131981       109.0665
2018    15      4       0.6064215       121.8861
2018    15      5       0.6489898       128.1294
2018    15      6       0.8661247       153.9412
2018    15      7       0.8684498       154.5383
2018    16      0       0.6170784       124.7588
2018    16      1       0.4434152       98.353
2018    16      2       0.350948        82.70966
2018    16      3       0.4828817       104.6248
2018    16      4       0.5952058       120.9304
2018    16      5       0.495422        106.529
2018    16      6       0.392796        89.92689
2018    16      7       0.3779228       87.10447
2018    17      0       0.4107546       92.34524
2018    17      1       0.396107        89.47283
2018    17      2       0.3126045       74.74403
2018    17      3       0.4386235       96.39693
2018    17      4       0.6156431       123.0709
2018    17      5       0.7022745       134.5339
2018    17      6       0.8594655       152.4149
2018    17      7       0.8077658       146.9633
2018    18      0       0.6370739       125.6749
2018    18      1       0.5611919       114.7679
2018    18      2       0.7162047       135.7527
2018    18      3       0.8346607       150.7808
2018    18      4       0.7398152       139.5869
2018    18      5       0.8874556       156.3213
2018    18      6       0.6980668       134.0868
2018    18      7       0.4524386       98.921
2018    19      0       0.3559947       82.56444
2018    19      1       0.3197903       75.81176
2018    19      2       0.3211938       76.09871
2018    19      3       0.4829205       103.4307
2018    19      4       0.5716755       116.9011
2018    19      5       0.5105055       108.3797
2018    19      6       0.3886734       88.85762
2018    19      7       0.2909364       71.10544
2018    20      0       0.2165222       56.41388
2018    20      1       0.1688993       46.15202
2018    20      2       0.1585492       44.02367
2018    20      3       0.2094909       54.79462
2018    20      4       0.2607403       65.24742
2018    20      5       0.3139537       76.02366
2018    20      6       0.2116682       55.6481
2018    20      7       0.2096101       55.18877
2018    21      0       0.2516195       63.4214
2018    21      1       0.2499649       62.86056
2018    21      2       0.3070419       73.90563
2018    21      3       0.4090111       92.15233
2018    21      4       0.4849734       104.6004
2018    21      5       0.501654        107.9251
2018    21      6       0.3492051       82.31947
2018    21      7       0.3281809       78.46242
2018    22      0       0.3165584       76.45633
2018    22      1       0.2373778       61.1429
2018    22      2       0.2112158       55.5432
2018    22      3       0.2320403       59.86258
2018    22      4       0.2718526       67.85858
2018    22      5       0.2698281       67.69103
2018    22      6       0.213595        56.35973
2018    22      7       0.177078        48.51563
2018    23      0       0.1856547       50.28384
2018    23      1       0.1926878       51.42837
2018    23      2       0.2364525       60.2959
2018    23      3       0.2982512       72.25661
2018    23      4       0.3442707       80.58053
2018    23      5       0.3283803       78.38127
2018    23      6       0.277698        68.53257
2018    23      7       0.2462862       62.25412
2018    24      0       0.2512637       63.09822
2018    24      1       0.2789652       68.15378
2018    24      2       0.3744827       85.62013
2018    24      3       0.461503        99.97444
2018    24      4       0.5298151       110.3167
2018    24      5       0.4735886       102.062
2018    24      6       0.4692675       101.4876
2018    24      7       0.4525363       98.57016
2018    25      0       0.4116376       91.83929
2018    25      1       0.3819011       86.5042
2018    25      2       0.3572949       82.08383
2018    25      3       0.3817671       86.41576
2018    25      4       0.4536651       98.39036
2018    25      5       0.4833445       103.3451
2018    25      6       0.5284896       110.3684
2018    25      7       0.5665004       116.0618
2018    26      0       0.4927199       104.9781
2018    26      1       0.4922589       104.3504
2018    26      2       0.4837544       102.7644
2018    26      3       0.5259958       109.2979
2018    26      4       0.5961155       119.5354
2018    26      5       0.6869848       131.3873
2018    26      6       0.7523482       139.2001
2018    26      7       0.7520968       139.1234
2018    27      0       0.689489        131.5882
2018    27      1       0.660058        127.7484
2018    27      2       0.5906532       118.6938
2018    27      3       0.6753278       130.4756
2018    27      4       0.7839703       144.1166
2018    27      5       0.8258625       148.9584
2018    27      6       0.7703529       142.7698
2018    27      7       0.8166919       147.6215
2018    28      0       0.8697505       153.0091
2018    28      1       0.831338        148.5419
2018    28      2       0.696141        133.2593
2018    28      3       0.6960266       133.8559
2018    28      4       0.7866355       145.1763
2018    28      5       0.7365413       139.6106
2018    28      6       0.8509813       151.8019
2018    28      7       1.024523        168.703
2018    29      0       1.025795        168.7754
2018    29      1       0.9406342       160.6912
2018    29      2       0.8075585       147.2296
2018    29      3       0.7442551       140.2549
2018    29      4       0.6576083       128.8009
2018    29      5       0.6638144       129.5709
2018    29      6       0.7443718       139.4784
2018    29      7       0.6656961       129.5814
2018    30      0       0.5098103       107.9524
2018    30      1       0.4769126       102.824
2018    30      2       0.4935253       105.3114
2018    30      3       0.4790214       103.1384
2018    30      4       0.4244094       94.59603
2018    30      5       0.363443        84.72487
2018    30      6       0.3154851       76.41194
2018    30      7       0.3090628       75.22804
2018    31      0       0.3285594       78.70397
2018    31      1       0.3576837       83.87651
2018    31      2       0.3641646       85.02257
2018    31      3       0.4127937       93.30025
2018    31      4       0.5644473       116.3234
2018    31      5       0.5532327       115.3749
2018    31      6       0.5651147       117.1985
2018    31      7       0.6041691       122.6778
