####################################################################################################
# Month: 04Apr                                                                                     #
# Station: BAN                                                                                     #
# Frequency: 230 GHz                                                                               #
# Columns are: year    day     segment         tau     Tb (K)                                      #
####################################################################################################
2009    1       0       0.1068565       29.81348
2009    1       1       0.104324        29.22038
2009    1       2       0.08492639      24.87667
2009    1       3       0.07884727      23.46135
2009    1       4       0.07942087      23.56479
2009    1       5       0.09931935      28.09392
2009    1       6       0.1327507       35.46319
2009    1       7       0.1503455       39.26078
2009    2       0       0.2263611       54.88984
2009    2       1       0.2939222       67.78086
2009    2       2       0.2761834       64.57218
2009    2       3       0.2199229       53.65574
2009    2       4       0.2471656       58.87854
2009    2       5       0.2482947       59.06139
2009    2       6       0.2430314       58.05751
2009    2       7       0.2148509       52.48054
2009    3       0       0.2021699       49.92766
2009    3       1       0.2170098       52.86501
2009    3       2       0.219752        53.42031
2009    3       3       0.2208947       53.72911
2009    3       4       0.208742        51.28383
2009    3       5       0.2031292       50.18346
2009    3       6       0.1708596       43.56076
2009    3       7       0.1707268       43.57746
2009    4       0       0.187237        47.02839
2009    4       1       0.1803865       45.64115
2009    4       2       0.1253201       34.0546
2009    4       3       0.07823147      23.47935
2009    4       4       0.07933043      23.70789
2009    4       5       0.08925709      26.01184
2009    4       6       0.09481764      27.19303
2009    4       7       0.1099194       30.49089
2009    5       0       0.1218677       33.21027
2009    5       1       0.1538575       40.41686
2009    5       2       0.1794234       45.99454
2009    5       3       0.1977058       49.91797
2009    5       4       0.2463276       59.72382
2009    5       5       0.2154232       53.78113
2009    5       6       0.3228942       74.47834
2009    5       7       0.2232563       55.18322
2009    6       0       0.2588142       62.11702
2009    6       1       0.3136262       72.82813
2009    6       2       0.3067355       71.65469
2009    6       3       0.3241897       74.94167
2009    6       4       0.2489874       60.32157
2009    6       5       0.1433835       38.33824
2009    6       6       0.2029625       50.94241
2009    6       7       0.3322174       75.45872
2009    7       0       0.3172013       72.98642
2009    7       1       0.2394842       58.34004
2009    7       2       0.2141994       53.30826
2009    7       3       0.1791074       46.17055
2009    7       4       0.1618644       42.47612
2009    7       5       0.1957646       49.48928
2009    7       6       0.2270499       55.84036
2009    7       7       0.2752257       65.47238
2009    8       0       0.315849        73.55088
2009    8       1       0.3841917       85.26147
2009    8       2       0.4481894       96.20516
2009    8       3       0.3394137       77.88191
2009    8       4       0.224032        56.2424
2009    8       5       0.1757413       46.29793
2009    8       6       0.1665962       44.27107
2009    8       7       0.1571478       42.25622
2009    9       0       0.3637612       82.25835
2009    9       1       0.4709301       100.4638
2009    9       2       0.5298849       109.8782
2009    9       3       0.427644        93.75693
2009    9       4       0.3760748       84.92547
2009    9       5       0.3507073       80.40537
2009    9       6       0.329859        76.61413
2009    9       7       0.3051529       71.98406
2009    10      0       0.3635122       82.51436
2009    10      1       0.3173301       74.01509
2009    10      2       0.2928462       69.22643
2009    10      3       0.3336257       76.51977
2009    10      4       0.2943489       69.28175
2009    10      5       0.2536077       61.50854
2009    10      6       0.2153289       53.78092
2009    10      7       0.193202        49.17006
2009    11      0       0.1691326       44.11432
2009    11      1       0.15124         40.38819
2009    11      2       0.1385586       37.57114
2009    11      3       0.1069723       30.39372
2009    11      4       0.1346016       36.58868
2009    11      5       0.2695235       64.56514
2009    11      6       0.2138297       53.42368
2009    11      7       0.2396238       58.70159
2009    12      0       0.3411728       77.93647
2009    12      1       0.513347        106.5809
2009    12      2       0.4038388       88.85408
2009    12      3       0.207588        52.09728
2009    12      4       0.1567835       41.721
2009    12      5       0.146758        39.54839
2009    12      6       0.1212162       33.7209
2009    12      7       0.2036859       51.34392
2009    13      0       0.2615349       63.08966
2009    13      1       0.2876987       68.00724
2009    13      2       0.3650779       82.49502
2009    13      3       0.4139778       91.27248
2009    13      4       0.4774801       101.5418
2009    13      5       0.4275328       93.36673
2009    13      6       0.3954063       87.70094
2009    13      7       0.4384183       94.48278
2009    14      0       0.3965817       87.34127
2009    14      1       0.2254084       55.6373
2009    14      2       0.118177        32.71517
2009    14      3       0.1026304       29.1812
2009    14      4       0.09160305      26.65777
2009    14      5       0.09762686      28.12431
2009    14      6       0.1118582       31.48343
2009    14      7       0.1952536       49.51328
2009    15      0       0.1909834       48.79683
2009    15      1       0.1605439       42.36089
2009    15      2       0.1530006       40.66909
2009    15      3       0.1561509       41.29197
2009    15      4       0.1608257       42.17937
2009    15      5       0.1693739       43.92782
2009    15      6       0.1616694       42.428
2009    15      7       0.1627055       42.84026
2009    16      0       0.1546861       41.21154
2009    16      1       0.1344904       36.76774
2009    16      2       0.117301        32.97507
2009    16      3       0.1075327       30.86106
2009    16      4       0.09314503      27.53827
2009    16      5       0.07236737      22.55766
2009    16      6       0.08231628      24.91107
2009    16      7       0.1243184       34.71392
2009    17      0       0.155199        41.78737
2009    17      1       0.163852        43.65371
2009    17      2       0.1892491       48.77015
2009    17      3       0.2175056       54.57662
2009    17      4       0.2164511       54.44701
2009    17      5       0.2943136       69.77663
2009    17      6       0.4061879       90.03022
2009    17      7       0.6948768       133.3469
2009    18      0       0.5161653       107.0079
2009    18      1       0.3320227       76.55136
2009    18      2       0.2770169       65.97577
2009    18      3       0.2136037       52.69098
2009    18      4       0.1139629       31.65731
2009    18      5       0.0973717       28.01397
2009    18      6       0.09214784      26.69028
2009    18      7       0.2351892       57.03469
2009    19      0       0.2998513       69.53141
2009    19      1       0.1482981       39.60687
2009    19      2       0.09546828      27.60954
2009    19      3       0.1670552       43.48338
2009    19      4       0.1268679       34.90044
2009    19      5       0.1117507       31.5006
2009    19      6       0.1330814       36.0274
2009    19      7       0.2359879       57.44352
2009    20      0       0.3580501       80.45808
2009    20      1       0.3706734       82.83292
2009    20      2       0.3606567       81.27848
2009    20      3       0.4339841       94.13332
2009    20      4       0.4097347       90.14158
2009    20      5       0.3621715       82.10559
2009    20      6       0.3939256       87.29226
2009    20      7       0.4854444       102.2746
2009    21      0       0.4466007       96.16936
2009    21      1       0.4700584       99.92795
2009    21      2       0.6056061       120.7842
2009    21      3       0.7447406       139.864
2009    21      4       0.6571933       128.3171
2009    21      5       0.5276006       109.8323
2009    21      6       0.5936325       119.5167
2009    21      7       0.6312844       125.7533
2009    22      0       0.5406228       112.4322
2009    22      1       0.4897362       103.4453
2009    22      2       0.1262754       34.63283
2009    22      3       0.09927558      28.6052
2009    22      4       0.1183994       32.71133
2009    22      5       0.1229288       33.60722
2009    22      6       0.262682        62.33158
2009    22      7       0.3522668       78.44474
2009    23      0       0.2787741       64.8702
2009    23      1       0.2174792       52.86598
2009    23      2       0.1495761       38.91526
2009    23      3       0.1144251       31.40822
2009    23      4       0.1490758       38.88574
2009    23      5       0.1300087       34.70616
2009    23      6       0.2546698       60.36609
2009    23      7       0.2606998       61.497
2009    24      0       0.1566959       40.58286
2009    24      1       0.1606541       41.4533
2009    24      2       0.1074291       30.00595
2009    24      3       0.09702731      27.69549
2009    24      4       0.08478332      24.98782
2009    24      5       0.09123938      26.46391
2009    24      6       0.1678905       43.24624
2009    24      7       0.3089758       71.37804
2009    25      0       0.3290281       75.33738
2009    25      1       0.4208568       91.16299
2009    25      2       0.4234924       91.34249
2009    25      3       0.4129386       89.46557
2009    25      4       0.3266171       74.38339
2009    25      5       0.2207636       54.23587
2009    25      6       0.3347967       76.35892
2009    25      7       0.2550419       61.31617
2009    26      0       0.2533924       60.63508
2009    26      1       0.2476765       59.36306
2009    26      2       0.2742141       64.51078
2009    26      3       0.270216        63.75811
2009    26      4       0.1581599       41.0776
2009    26      5       0.1076472       29.88519
2009    26      6       0.2469118       59.11762
2009    26      7       0.376835        82.69362
2009    27      0       0.2862999       66.51137
2009    27      1       0.160126        41.56278
2009    27      2       0.1402199       37.30855
2009    27      3       0.1503784       39.43927
2009    27      4       0.1532036       39.92389
2009    27      5       0.1260293       33.98953
2009    27      6       0.255345        60.29402
2009    27      7       0.3257602       73.46761
2009    28      0       0.1954955       49.01777
2009    28      1       0.1304232       35.25496
2009    28      2       0.1166827       32.22269
2009    28      3       0.1147325       31.78637
2009    28      4       0.1143283       31.78734
2009    28      5       0.09452592      27.34016
2009    28      6       0.07436115      22.70613
2009    28      7       0.08933165      26.29877
2009    29      0       0.09662523      28.09068
2009    29      1       0.07810678      23.80584
2009    29      2       0.0623241       19.94992
2009    29      3       0.06254819      19.85897
2009    29      4       0.0744498       22.47363
2009    29      5       0.09178106      26.36687
2009    29      6       0.1212456       32.96931
2009    29      7       0.1806398       45.99419
2009    30      0       0.2865663       67.67203
2009    30      1       0.3373961       77.68257
2009    30      2       0.39353         87.36353
2009    30      3       0.3299599       76.15198
2009    30      4       0.216003        54.53159
2009    30      5       0.2175087       54.89721
2009    30      6       0.2323166       58.11027
2009    30      7       0.1249258       34.65351
2010    1       0       0.2332201       57.14837
2010    1       1       0.1700408       44.23782
2010    1       2       0.1508691       40.09776
2010    1       3       0.1293183       35.35171
2010    1       4       0.1229345       33.83156
2010    1       5       0.1187772       32.79897
2010    1       6       0.2156026       53.36371
2010    1       7       0.1959506       49.12728
2010    2       0       0.1650998       42.84938
2010    2       1       0.2029598       50.61242
2010    2       2       0.1823443       46.36651
2010    2       3       0.1587187       41.27437
2010    2       4       0.1362235       36.53698
2010    2       5       0.1526789       40.2877
2010    2       6       0.190725        48.32236
2010    2       7       0.194687        49.16543
2010    3       0       0.2096741       52.28571
2010    3       1       0.3153605       72.50061
2010    3       2       0.3704183       82.60682
2010    3       3       0.2682255       64.06887
2010    3       4       0.2614138       62.47739
2010    3       5       0.2447503       59.15011
2010    3       6       0.2566718       61.52587
2010    3       7       0.3587852       80.23587
2010    4       0       0.283071        66.59015
2010    4       1       0.3168296       72.91988
2010    4       2       0.237757        58.1158
2010    4       3       0.1738716       44.93234
2010    4       4       0.1299486       35.35479
2010    4       5       0.07715065      23.25153
2010    4       6       0.07236467      22.10504
2010    4       7       0.1174267       32.56773
2010    5       0       0.1217539       33.65557
2010    5       1       0.1275801       34.98084
2010    5       2       0.1400498       37.57057
2010    5       3       0.1558754       40.9955
2010    5       4       0.1425563       38.21486
2010    5       5       0.1106267       31.1387
2010    5       6       0.1026717       29.39694
2010    5       7       0.1033891       29.63478
2010    6       0       0.103229        29.64733
2010    6       1       0.08857835      26.24453
2010    6       2       0.1004098       28.98114
2010    6       3       0.1383409       37.30843
2010    6       4       0.1572319       41.20554
2010    6       5       0.187201        47.31619
2010    6       6       0.1866795       47.20843
2010    6       7       0.2041861       51.0872
2010    7       0       0.3444997       78.00965
2010    7       1       0.236103        57.86088
2010    7       2       0.1800254       46.16014
2010    7       3       0.2698191       63.91364
2010    7       4       0.2322146       56.6348
2010    7       5       0.2314293       56.56193
2010    7       6       0.3686348       82.20735
2010    7       7       0.3337869       75.87931
2010    8       0       0.320841        73.75996
2010    8       1       0.3861275       85.6696
2010    8       2       0.4114942       90.13824
2010    8       3       0.3266083       74.74889
2010    8       4       0.2840356       66.80896
2010    8       5       0.2780105       65.23665
2010    8       6       0.2616908       61.86264
2010    8       7       0.1840742       46.29301
2010    9       0       0.1459229       38.19458
2010    9       1       0.113921        31.28746
2010    9       2       0.09578182      27.29183
2010    9       3       0.09687959      27.52833
2010    9       4       0.09485379      27.07377
2010    9       5       0.1688029       43.17946
2010    9       6       0.2611664       61.79746
2010    9       7       0.1754412       44.7071
2010    10      0       0.1067886       29.59174
2010    10      1       0.1007549       28.13213
2010    10      2       0.09031999      25.78592
2010    10      3       0.07216048      21.62772
2010    10      4       0.07299369      21.83345
2010    10      5       0.0963408       27.19155
2010    10      6       0.1513718       39.32228
2010    10      7       0.1881583       47.03196
2010    11      0       0.2346881       56.21396
2010    11      1       0.2163844       52.6285
2010    11      2       0.1726976       43.87311
2010    11      3       0.1554735       40.31024
2010    11      4       0.1398053       37.05292
2010    11      5       0.1257526       34.09243
2010    11      6       0.1055162       29.65052
2010    11      7       0.09506329      27.42009
2010    12      0       0.08182703      24.43204
2010    12      1       0.07899269      23.74621
2010    12      2       0.1007297       28.75257
2010    12      3       0.1416969       37.97051
2010    12      4       0.1833837       46.79753
2010    12      5       0.2043201       51.21006
2010    12      6       0.1774567       45.81562
2010    12      7       0.1891252       48.47586
2010    13      0       0.1962296       50.3226
2010    13      1       0.1888519       48.94945
2010    13      2       0.1866445       48.57364
2010    13      3       0.1759057       46.35929
2010    13      4       0.1940236       49.93843
2010    13      5       0.2304234       57.46471
2010    13      6       0.2126324       53.93513
2010    13      7       0.1693035       44.79939
2010    14      0       0.1191206       33.7314
2010    14      1       0.06757731      21.55383
2010    14      2       0.0445514       15.78495
2010    14      3       0.1338684       37.12725
2010    14      4       0.2248865       56.98828
2010    14      5       0.1204518       34.41807
2010    14      6       0.1235605       35.05642
2010    14      7       0.1229669       34.88735
2010    15      0       0.1401618       38.79586
2010    15      1       0.1331658       36.92839
2010    15      2       0.1115309       31.8882
2010    15      3       0.1045488       30.25404
2010    15      4       0.101058        29.51016
2010    15      5       0.08994551      27.03666
2010    15      6       0.07827905      24.27716
2010    15      7       0.07267508      22.87294
2010    16      0       0.07695024      23.85134
2010    16      1       0.0825267       25.14788
2010    16      2       0.08800348      26.49683
2010    16      3       0.0872271       26.44962
2010    16      4       0.1180422       33.87776
2010    16      5       0.1276485       35.90561
2010    16      6       0.1706336       45.35719
2010    16      7       0.1923518       50.52428
2010    17      0       0.2232338       56.89261
2010    17      1       0.2159975       55.17633
2010    17      2       0.1959529       50.70586
2010    17      3       0.1649988       44.09442
2010    17      4       0.1910942       49.57751
2010    17      5       0.2467985       60.97327
2010    17      6       0.26676         65.2218
2010    17      7       0.2799253       67.84207
2010    18      0       0.4178562       93.17845
2010    18      1       0.5681791       116.2636
2010    18      2       0.4884627       104.7017
2010    18      3       0.4351567       96.2248
2010    18      4       0.4837387       103.444
2010    18      5       0.5405032       112.2555
2010    18      6       0.5082397       107.6392
2010    18      7       0.6347193       126.4361
2010    19      0       0.6016043       121.3409
2010    19      1       0.3857165       87.76786
2010    19      2       0.2918194       70.87877
2010    19      3       0.3050353       73.31128
2010    19      4       0.3093419       74.0584
2010    19      5       0.3163352       75.50983
2010    19      6       0.3115836       74.69161
2010    19      7       0.3323311       78.532
2010    20      0       0.4723588       103.2026
2010    20      1       0.5223334       111.4503
2010    20      2       0.5048707       108.5384
2010    20      3       0.5491041       115.2656
2010    20      4       0.5512056       115.6959
2010    20      5       0.5245535       111.8435
2010    20      6       0.4452099       99.38658
2010    20      7       0.3879872       89.77155
2010    21      0       0.3459074       82.25707
2010    21      1       0.3040173       74.13085
2010    21      2       0.3016407       73.48906
2010    21      3       0.2851341       70.28397
2010    21      4       0.2597344       65.08356
2010    21      5       0.2437288       61.88252
2010    21      6       0.2517616       63.468
2010    21      7       0.3023541       73.67922
2010    22      0       0.3685901       86.76657
2010    22      1       0.4017195       92.39478
2010    22      2       0.6510199       129.7193
2010    22      3       0.6925543       134.5048
2010    22      4       0.4205886       92.80768
2010    22      5       0.1673666       43.89501
2010    22      6       0.1396096       37.82186
2010    22      7       0.2262017       56.60899
2010    23      0       0.3490999       79.22311
2010    23      1       0.3073735       71.92515
2010    23      2       0.2778548       66.16746
2010    23      3       0.2061818       51.5465
2010    23      4       0.2028706       50.93975
2010    23      5       0.2945155       69.32658
2010    23      6       0.4244651       92.61548
2010    23      7       0.4219845       91.87196
2010    24      0       0.3315228       76.28986
2010    24      1       0.303105        71.17714
2010    24      2       0.2339902       57.80015
2010    24      3       0.1647381       43.51059
2010    24      4       0.1341521       36.69455
2010    24      5       0.1357429       36.83695
2010    24      6       0.3303597       75.46906
2010    24      7       0.4023737       88.18893
2010    25      0       0.4568763       97.62316
2010    25      1       0.2819648       66.7223
2010    25      2       0.1696878       44.09402
2010    25      3       0.1262944       34.53774
2010    25      4       0.1291688       35.23728
2010    25      5       0.1618881       42.52863
2010    25      6       0.2255335       55.80611
2010    25      7       0.352808        79.88699
2010    26      0       0.3728406       83.62129
2010    26      1       0.2533503       61.60955
2010    26      2       0.2032123       51.59351
2010    26      3       0.1910472       49.13036
2010    26      4       0.17308         45.36298
2010    26      5       0.1447223       39.29174
2010    26      6       0.141057        38.52711
2010    26      7       0.2102338       53.56378
2010    27      0       0.2144381       54.38075
2010    27      1       0.2391808       59.39243
2010    27      2       0.2613968       63.5947
2010    27      3       0.3234369       74.98423
2010    27      4       0.3138109       73.43997
2010    27      5       0.3133587       73.70674
2010    27      6       0.3268736       76.25105
2010    27      7       0.399751        88.88793
2010    28      0       0.4999204       105.7818
2010    28      1       0.4409977       96.78127
2010    28      2       0.432717        95.41965
2010    28      3       0.5556766       113.3926
2010    28      4       0.5854281       117.2979
2010    28      5       0.5489488       112.1419
2010    28      6       0.5862442       118.3862
2010    28      7       0.4994414       105.1252
2010    29      0       0.4437098       96.69793
2010    29      1       0.3254765       75.92475
2010    29      2       0.2222929       55.95352
2010    29      3       0.1400261       38.43481
2010    29      4       0.1386677       38.26544
2010    29      5       0.1109066       31.82957
2010    29      6       0.2294383       57.64246
2010    29      7       0.1752939       45.99004
2010    30      0       0.2098585       53.1039
2010    30      1       0.2499308       60.93465
2010    30      2       0.3339896       76.77683
2010    30      3       0.302778        71.34201
2010    30      4       0.2184965       54.82923
2010    30      5       0.1885015       48.55644
2010    30      6       0.3980592       87.72146
2010    30      7       0.379441        84.84983
2011    1       0       0.1369053       36.92434
2011    1       1       0.1672256       43.35765
2011    1       2       0.2434278       58.64463
2011    1       3       0.275562        64.84534
2011    1       4       0.2054215       51.30399
2011    1       5       0.1537643       40.51592
2011    1       6       0.142938        38.18228
2011    1       7       0.1476453       39.17936
2011    2       0       0.1639261       42.65641
2011    2       1       0.2065509       51.37538
2011    2       2       0.2028225       50.66286
2011    2       3       0.2149963       53.19059
2011    2       4       0.1680617       43.42618
2011    2       5       0.1437756       38.24686
2011    2       6       0.1460629       38.75349
2011    2       7       0.1509662       39.782
2011    3       0       0.1442975       38.38375
2011    3       1       0.1337883       36.14339
2011    3       2       0.1330695       35.95508
2011    3       3       0.132587        35.82236
2011    3       4       0.1291822       35.15382
2011    3       5       0.1099577       31.02713
2011    3       6       0.09241146      27.0257
2011    3       7       0.06923617      21.48959
2011    4       0       0.07656102      23.20175
2011    4       1       0.1144032       31.9617
2011    4       2       0.1707753       43.94243
2011    4       3       0.3484465       78.47596
2011    4       4       0.3265685       74.71609
2011    4       5       0.2433326       59.05686
2011    4       6       0.1826618       46.84551
2011    4       7       0.1168176       32.69967
2011    5       0       0.1374553       37.21224
2011    5       1       0.1674517       43.53355
2011    5       2       0.1560943       41.16329
2011    5       3       0.1246227       34.13037
2011    5       4       0.1383082       36.99707
2011    5       5       0.1221387       33.34566
2011    5       6       0.1148102       31.74194
2011    5       7       0.1266261       34.3631
2011    6       0       0.1308259       35.38116
2011    6       1       0.1727795       44.21044
2011    6       2       0.2153437       52.87323
2011    6       3       0.2162631       52.99502
2011    6       4       0.1602846       41.77232
2011    6       5       0.1743776       44.75294
2011    6       6       0.1861525       47.00703
2011    6       7       0.2502051       59.42645
2011    7       0       0.207642        51.3738
2011    7       1       0.1812271       45.99329
2011    7       2       0.1518721       39.76192
2011    7       3       0.1793843       45.56249
2011    7       4       0.2018894       50.30491
2011    7       5       0.155664        40.6224
2011    7       6       0.243987        58.98314
2011    7       7       0.1727187       44.54745
2011    8       0       0.1184488       32.74598
2011    8       1       0.09607169      27.74552
2011    8       2       0.09923512      28.4949
2011    8       3       0.1155932       32.07043
2011    8       4       0.1440972       38.21781
2011    8       5       0.2472254       59.78775
2011    8       6       0.4581133       98.64341
2011    8       7       0.473921        101.6941
2011    9       0       0.3967283       88.78663
2011    9       1       0.3044884       72.32165
2011    9       2       0.2170105       55.15633
2011    9       3       0.2115531       53.92866
2011    9       4       0.1986626       51.26677
2011    9       5       0.1769818       46.62436
2011    9       6       0.1656452       44.09196
2011    9       7       0.2284254       57.31823
2011    10      0       0.2118229       53.68859
2011    10      1       0.1871949       48.39792
2011    10      2       0.1379397       37.67943
2011    10      3       0.1072747       30.56591
2011    10      4       0.1003281       28.82096
2011    10      5       0.1311689       35.42241
2011    10      6       0.1878059       47.47127
2011    10      7       0.3134171       72.38048
2011    11      0       0.4222188       91.7004
2011    11      1       0.4333758       93.7456
2011    11      2       0.4413518       95.52707
2011    11      3       0.4958305       103.6898
2011    11      4       0.2725295       65.60536
2011    11      5       0.2826714       66.74944
2011    11      6       0.3678871       82.37964
2011    11      7       0.4698364       99.06457
2011    12      0       0.3785671       83.70109
2011    12      1       0.2127769       52.61171
2011    12      2       0.2196093       53.82305
2011    12      3       0.1897324       47.58321
2011    12      4       0.1429907       37.81707
2011    12      5       0.1084173       30.24493
2011    12      6       0.1059915       29.72348
2011    12      7       0.2080352       51.78527
2011    13      0       0.2203458       53.82787
2011    13      1       0.1491893       39.25701
2011    13      2       0.1342452       36.11759
2011    13      3       0.1386656       37.15236
2011    13      4       0.1455367       38.68203
2011    13      5       0.1332214       35.98515
2011    13      6       0.1193527       32.86069
2011    13      7       0.2150125       53.21661
2011    14      0       0.2966464       69.31432
2011    14      1       0.2392626       58.26638
2011    14      2       0.2854233       67.29587
2011    14      3       0.3439435       78.02593
2011    14      4       0.4060989       88.89022
2011    14      5       0.3983397       87.55661
2011    14      6       0.4070973       88.70766
2011    14      7       0.4789873       100.1879
2011    15      0       0.4165497       90.09846
2011    15      1       0.3817439       83.95246
2011    15      2       0.480469        100.1431
2011    15      3       0.4913123       101.5601
2011    15      4       0.3241496       73.54268
2011    15      5       0.3295801       74.65771
2011    15      6       0.4973173       102.6295
2011    15      7       0.3506608       78.33388
2011    16      0       0.3117756       71.46351
2011    16      1       0.2366288       57.14978
2011    16      2       0.335253        75.72753
2011    16      3       0.2891783       67.22159
2011    16      4       0.198723        49.4758
2011    16      5       0.1490535       39.01361
2011    16      6       0.4152283       89.60738
2011    16      7       0.3448079       77.68433
2011    17      0       0.2567585       61.27139
2011    17      1       0.1951392       48.76689
2011    17      2       0.1630061       41.98864
2011    17      3       0.1428619       37.71011
2011    17      4       0.1049572       29.40496
2011    17      5       0.1161781       31.83834
2011    17      6       0.1994124       49.14486
2011    17      7       0.2147589       52.4674
2011    18      0       0.1918348       47.9656
2011    18      1       0.1430178       37.77108
2011    18      2       0.1451394       38.19281
2011    18      3       0.1454066       38.21921
2011    18      4       0.1439103       37.81391
2011    18      5       0.1342596       35.67872
2011    18      6       0.2697809       62.51039
2011    18      7       0.2851377       65.88127
2011    19      0       0.2665181       62.36625
2011    19      1       0.181118        45.71089
2011    19      2       0.1567642       40.57412
2011    19      3       0.1605565       41.27544
2011    19      4       0.1319443       35.08075
2011    19      5       0.1169192       31.70909
2011    19      6       0.2948436       67.0354
2011    19      7       0.2864525       65.97572
2011    20      0       0.2176568       52.98973
2011    20      1       0.1894342       47.43368
2011    20      2       0.1701508       43.61053
2011    20      3       0.1064439       29.85469
2011    20      4       0.09915079      28.25762
2011    20      5       0.09391521      27.06037
2011    20      6       0.1297495       35.04619
2011    20      7       0.1588195       41.4241
2011    21      0       0.1849056       46.94549
2011    21      1       0.1538254       40.32166
2011    21      2       0.1825463       46.28774
2011    21      3       0.1942028       48.61233
2011    21      4       0.1709997       43.76276
2011    21      5       0.1971664       49.11826
2011    21      6       0.344834        76.56318
2011    21      7       0.3278458       73.81292
2011    22      0       0.3056942       70.17724
2011    22      1       0.2000034       50.02583
2011    22      2       0.1873107       47.46477
2011    22      3       0.1553003       40.7388
2011    22      4       0.1462186       38.86248
2011    22      5       0.1366946       36.78351
2011    22      6       0.2022989       50.58312
2011    22      7       0.2661089       63.45514
2011    23      0       0.23092         56.81831
2011    23      1       0.1541378       40.83476
2011    23      2       0.1756584       45.21247
2011    23      3       0.1970037       49.43742
2011    23      4       0.2044533       50.93836
2011    23      5       0.2388136       57.86681
2011    23      6       0.3683677       82.02284
2011    23      7       0.4011608       87.82163
2011    24      0       0.3653345       81.69449
2011    24      1       0.3305519       75.62224
2011    24      2       0.2620951       63.06544
2011    24      3       0.20823         52.50568
2011    24      4       0.1773479       46.20246
2011    24      5       0.1658534       43.70254
2011    24      6       0.2867976       68.35781
2011    24      7       0.273053        65.96137
2011    25      0       0.1807181       47.49646
2011    25      1       0.1445878       39.61878
2011    25      2       0.1169129       33.07216
2011    25      3       0.1393599       37.9192
2011    25      4       0.1600014       42.45494
2011    25      5       0.1629916       43.09946
2011    25      6       0.1579079       42.02016
2011    25      7       0.1923127       49.55878
2011    26      0       0.2179905       55.02716
2011    26      1       0.2669099       64.81895
2011    26      2       0.2687872       65.1489
2011    26      3       0.2440014       60.18105
2011    26      4       0.2841138       67.85491
2011    26      5       0.3048117       71.60865
2011    26      6       0.3500436       79.26702
2011    26      7       0.4495911       95.81794
2011    27      0       0.3969263       87.23377
2011    27      1       0.3214348       74.60606
2011    27      2       0.245798        60.18926
2011    27      3       0.1807661       46.61443
2011    27      4       0.1978604       50.07354
2011    27      5       0.2038605       51.30435
2011    27      6       0.2942977       68.90743
2011    27      7       0.3653971       82.26962
2011    28      0       0.3094091       72.36489
2011    28      1       0.2522259       61.50943
2011    28      2       0.2559225       61.95741
2011    28      3       0.2733025       65.31557
2011    28      4       0.3815724       84.95784
2011    28      5       0.4323506       93.37966
2011    28      6       0.4392199       93.87309
2011    28      7       0.568036        113.7037
2011    29      0       0.3657599       82.27705
2011    29      1       0.3457626       78.98153
2011    29      2       0.2901951       68.59136
2011    29      3       0.2396301       58.61945
2011    29      4       0.1958712       49.80368
2011    29      5       0.2685696       63.98713
2011    29      6       0.3777131       83.86747
2011    29      7       0.4249664       92.2552
2011    30      0       0.4445032       96.08496
2011    30      1       0.3755815       84.05858
2011    30      2       0.2973245       69.53246
2011    30      3       0.277388        65.98609
2011    30      4       0.3285519       75.42953
2011    30      5       0.3267912       75.11338
2011    30      6       0.296587        68.8295
2011    30      7       0.4627047       97.57078
2012    1       0       0.105626        30.03145
2012    1       1       0.09409262      27.29368
2012    1       2       0.08801555      25.85615
2012    1       3       0.09452289      27.26509
2012    1       4       0.1078809       30.18447
2012    1       5       0.1062369       29.7571
2012    1       6       0.1933673       48.40893
2012    1       7       0.2150631       52.93503
2012    2       0       0.1989283       49.71589
2012    2       1       0.1296296       34.88429
2012    2       2       0.1359879       36.37334
2012    2       3       0.2087241       51.91841
2012    2       4       0.1363367       36.68344
2012    2       5       0.09947432      28.34474
2012    2       6       0.1206934       33.12521
2012    2       7       0.1654333       43.10322
2012    3       0       0.2361871       57.94751
2012    3       1       0.2697596       64.73777
2012    3       2       0.29257         68.92839
2012    3       3       0.2841985       67.32264
2012    3       4       0.3478434       78.81508
2012    3       5       0.3667227       82.31894
2012    3       6       0.333878        76.7753
2012    3       7       0.3349992       77.06424
2012    4       0       0.2983108       70.83453
2012    4       1       0.3321777       77.28823
2012    4       2       0.2545228       62.27964
2012    4       3       0.1413887       38.4154
2012    4       4       0.1151968       32.30167
2012    4       5       0.09214666      26.91338
2012    4       6       0.128502        35.19402
2012    4       7       0.1102753       30.89103
2012    5       0       0.1370733       36.78002
2012    5       1       0.1320675       35.52054
2012    5       2       0.1423646       37.84364
2012    5       3       0.1447208       38.22335
2012    5       4       0.1506802       39.56342
2012    5       5       0.1625875       42.08443
2012    5       6       0.1993843       49.62644
2012    5       7       0.2945455       67.94706
2012    6       0       0.2996818       68.75385
2012    6       1       0.2700348       63.12221
2012    6       2       0.2383531       56.96198
2012    6       3       0.2274909       54.84493
2012    6       4       0.2190296       53.2855
2012    6       5       0.2258763       54.66695
2012    6       6       0.1707737       43.48584
2012    6       7       0.1254537       33.95211
2012    7       0       0.1534566       40.23691
2012    7       1       0.09544794      27.496
2012    7       2       0.08776591      25.92864
2012    7       3       0.1009945       28.81521
2012    7       4       0.1161243       32.22017
2012    7       5       0.1383811       37.12274
2012    7       6       0.1799028       45.94106
2012    7       7       0.2862707       66.76219
2012    8       0       0.278378        65.59021
2012    8       1       0.2733534       64.77915
2012    8       2       0.1750508       45.23338
2012    8       3       0.1398607       37.64042
2012    8       4       0.1394116       37.49321
2012    8       5       0.1203159       33.23578
2012    8       6       0.1030847       29.2716
2012    8       7       0.1229341       33.8381
2012    9       0       0.1261629       34.71248
2012    9       1       0.1149184       32.27689
2012    9       2       0.09681522      28.17522
2012    9       3       0.07448549      22.93671
2012    9       4       0.06471398      20.60613
2012    9       5       0.06095582      19.73609
2012    9       6       0.05745951      18.90304
2012    9       7       0.05529958      18.39985
2012    10      0       0.05372794      18.04518
2012    10      1       0.05197651      17.62941
2012    10      2       0.06968365      21.76855
2012    10      3       0.1364615       36.97108
2012    10      4       0.2141276       53.82136
2012    10      5       0.2069476       52.61549
2012    10      6       0.24139         59.57673
2012    10      7       0.3282101       75.88677
2012    11      0       0.3607417       81.81074
2012    11      1       0.322186        75.32858
2012    11      2       0.333275        77.38496
2012    11      3       0.3935751       88.22768
2012    11      4       0.3905091       88.03047
2012    11      5       0.3577992       82.37095
2012    11      6       0.3027452       72.51897
2012    11      7       0.3080231       73.01847
2012    12      0       0.364167        82.94168
2012    12      1       0.4677325       100.4116
2012    12      2       0.4535065       99.49412
2012    12      3       0.3488827       81.65977
2012    12      4       0.3971309       90.37172
2012    12      5       0.4203578       93.57203
2012    12      6       0.4191429       93.33975
2012    12      7       0.4790013       103.5418
2012    13      0       0.4820756       104.3262
2012    13      1       0.605038        122.0448
2012    13      2       0.6769402       131.9542
2012    13      3       0.6837208       132.9737
2012    13      4       0.4838161       104.7361
2012    13      5       0.5268761       111.1376
2012    13      6       0.5269736       111.0646
2012    13      7       0.6263652       124.6489
2012    14      0       0.6144463       123.5221
2012    14      1       0.6155857       122.7851
2012    14      2       0.5990193       120.1155
2012    14      3       0.5820346       117.7347
2012    14      4       0.5828353       117.5669
2012    14      5       0.5593944       113.5855
2012    14      6       0.5262272       108.3148
2012    14      7       0.4899434       102.453
2012    15      0       0.4256442       92.0742
2012    15      1       0.3385303       77.06664
2012    15      2       0.2873219       67.54328
2012    15      3       0.3023466       70.12253
2012    15      4       0.2610413       62.48299
2012    15      5       0.3024264       70.1294
2012    15      6       0.2353448       57.85385
2012    15      7       0.2022113       51.32382
2012    16      0       0.1944439       49.64785
2012    16      1       0.1921742       49.03597
2012    16      2       0.2225264       55.14273
2012    16      3       0.2443815       59.58119
2012    16      4       0.2568651       62.05557
2012    16      5       0.2790758       66.34941
2012    16      6       0.2901918       68.49979
2012    16      7       0.3056059       71.63469
2012    17      0       0.2713262       65.13039
2012    17      1       0.1278328       35.35551
2012    17      2       0.08923464      26.48894
2012    17      3       0.07567199      23.23367
2012    17      4       0.06780213      21.36215
2012    17      5       0.0568471       18.6722
2012    17      6       0.05310822      17.7139
2012    17      7       0.06462865      20.57369
2012    18      0       0.08276797      24.98346
2012    18      1       0.09767421      28.53603
2012    18      2       0.1094343       31.30854
2012    18      3       0.09963923      29.06607
2012    18      4       0.08594313      25.80295
2012    18      5       0.08306112      25.08251
2012    18      6       0.09012605      26.74271
2012    18      7       0.1062694       30.48135
2012    19      0       0.170658        44.52826
2012    19      1       0.2161425       53.88773
2012    19      2       0.2540733       61.54519
2012    19      3       0.267134        64.06044
2012    19      4       0.2963871       69.58745
2012    19      5       0.3148978       73.05523
2012    19      6       0.4395524       94.07891
2012    19      7       0.4522443       97.23315
2012    20      0       0.2925003       69.17198
2012    20      1       0.2031336       51.44155
2012    20      2       0.2830371       67.54263
2012    20      3       0.4300353       93.32163
2012    20      4       0.3496201       79.10012
2012    20      5       0.4360547       94.05161
2012    20      6       0.3235848       74.47044
2012    20      7       0.2318567       57.29483
2012    21      0       0.2839875       67.75635
2012    21      1       0.2308149       57.09838
2012    21      2       0.1927937       49.25666
2012    21      3       0.1599365       42.41335
2012    21      4       0.1312696       36.15088
2012    21      5       0.1133393       32.11719
2012    21      6       0.1853451       48.11962
2012    21      7       0.2104319       53.29797
2012    22      0       0.1596975       42.51841
2012    22      1       0.1140652       32.27199
2012    22      2       0.07937291      24.04301
2012    22      3       0.07953799      23.91515
2012    22      4       0.08565625      25.21012
2012    22      5       0.09817811      27.89683
2012    22      6       0.1714153       44.16262
2012    22      7       0.3050377       70.86124
2012    23      0       0.4891769       102.5647
2012    23      1       0.4620905       98.71745
2012    23      2       0.3634471       82.57984
2012    23      3       0.5042166       105.4445
2012    23      4       0.5905626       118.6126
2012    23      5       0.5788922       117.6862
2012    23      6       0.5800258       118.4478
2012    23      7       0.4310222       95.14616
2012    24      0       0.6479077       127.887
2012    24      1       0.3953401       89.45278
2012    24      2       0.2406186       59.93146
2012    24      3       0.127697        35.46354
2012    24      4       0.1304212       36.22743
2012    24      5       0.08701004      26.23808
2012    24      6       0.0965845       28.573
2012    24      7       0.1610836       43.16198
2012    25      0       0.2049969       52.45216
2012    25      1       0.1859172       48.36325
2012    25      2       0.2902816       69.11748
2012    25      3       0.4963171       104.4193
2012    25      4       0.5964099       119.4755
2012    25      5       0.5872701       118.5389
2012    25      6       0.5093529       107.4209
2012    25      7       0.4858307       104.5356
2012    26      0       0.4086139       91.49248
2012    26      1       0.4273746       94.67806
2012    26      2       0.4889558       104.8433
2012    26      3       0.4852038       104.2943
2012    26      4       0.4828983       104.1444
2012    26      5       0.3839139       87.79988
2012    26      6       0.4177417       93.45868
2012    26      7       0.8153697       151.9736
2012    27      0       0.7561355       144.1969
2012    27      1       0.8418814       153.1499
2012    27      2       0.7649461       144.2362
2012    27      3       0.7365854       140.6417
2012    27      4       0.6034965       122.4416
2012    27      5       0.5216147       108.8752
2012    27      6       0.3153749       73.34112
2012    27      7       0.147551        39.22716
2012    28      0       0.1194598       33.58385
2012    28      1       0.1408042       38.18139
2012    28      2       0.1825104       47.24962
2012    28      3       0.1686372       44.44284
2012    28      4       0.1630112       43.13435
2012    28      5       0.1586377       42.06469
2012    28      6       0.2186791       54.63683
2012    28      7       0.4184635       92.12717
2012    29      0       0.3575624       81.67132
2012    29      1       0.2959158       70.09101
2012    29      2       0.3450887       79.29664
2012    29      3       0.3323115       76.94898
2012    29      4       0.3117023       73.00514
2012    29      5       0.3150368       73.43026
2012    29      6       0.3918322       87.56759
2012    29      7       0.4858617       103.0931
2012    30      0       0.4991992       104.8259
2012    30      1       0.412433        90.97821
2012    30      2       0.3396466       78.40449
2012    30      3       0.2759235       66.62216
2012    30      4       0.2473664       61.06235
2012    30      5       0.3915119       88.17702
2012    30      6       0.428508        94.05533
2012    30      7       0.5438058       112.409
2013    1       0       0.1569373       41.47548
2013    1       1       0.1656372       43.25529
2013    1       2       0.1847733       47.33283
2013    1       3       0.2405968       58.61888
2013    1       4       0.2316713       57.06088
2013    1       5       0.1997723       50.57622
2013    1       6       0.1501456       39.96753
2013    1       7       0.1959587       49.51425
2013    2       0       0.3596379       80.87055
2013    2       1       0.424355        92.78168
2013    2       2       0.4382038       95.36572
2013    2       3       0.4373953       94.99748
2013    2       4       0.3129558       72.80692
2013    2       5       0.2421085       59.45756
2013    2       6       0.1211319       33.62016
2013    2       7       0.1617354       42.67838
2013    3       0       0.1713921       44.45032
2013    3       1       0.1655909       42.78863
2013    3       2       0.1118158       31.21009
2013    3       3       0.09578856      27.47533
2013    3       4       0.09734279      27.75182
2013    3       5       0.10829         30.11365
2013    3       6       0.1201819       32.71812
2013    3       7       0.1076388       30.00805
2013    4       0       0.1046987       29.48398
2013    4       1       0.1143155       31.6718
2013    4       2       0.2109712       51.97496
2013    4       3       0.2807163       65.46483
2013    4       4       0.3839924       83.90547
2013    4       5       0.3674569       81.29507
2013    4       6       0.2684142       63.56433
2013    4       7       0.2724998       64.46467
2013    5       0       0.3019759       70.14632
2013    5       1       0.3176744       73.73096
2013    5       2       0.337032        77.23496
2013    5       3       0.3661853       82.36234
2013    5       4       0.412152        90.17236
2013    5       5       0.4282173       92.83775
2013    5       6       0.4243564       92.22923
2013    5       7       0.3857484       85.80306
2013    6       0       0.3485884       79.31269
2013    6       1       0.2824383       67.47478
2013    6       2       0.2664229       64.32344
2013    6       3       0.27077         65.11618
2013    6       4       0.280039        66.91107
2013    6       5       0.2918617       69.1677
2013    6       6       0.3348819       77.16852
2013    6       7       0.3158524       73.64017
2013    7       0       0.2861571       68.1041
2013    7       1       0.2940138       69.52377
2013    7       2       0.3190125       74.13611
2013    7       3       0.3395524       77.60445
2013    7       4       0.3267191       75.32282
2013    7       5       0.2500601       60.73488
2013    7       6       0.1714814       44.66885
2013    7       7       0.1437842       38.60888
2013    8       0       0.1002073       28.81224
2013    8       1       0.08140228      24.35611
2013    8       2       0.06041861      19.397
2013    8       3       0.04921904      16.6089
2013    8       4       0.04933549      16.6204
2013    8       5       0.0496133       16.70877
2013    8       6       0.0531601       17.60364
2013    8       7       0.05420322      17.90616
2013    9       0       0.05149784      17.26637
2013    9       1       0.0473478       16.25337
2013    9       2       0.04271698      15.10338
2013    9       3       0.0393          14.25029
2013    9       4       0.03851045      14.04376
2013    9       5       0.04311143      15.15241
2013    9       6       0.06545896      20.54101
2013    9       7       0.205883        51.9379
2013    10      0       0.6338596       125.0012
2013    10      1       0.5200902       107.8911
2013    10      2       0.3865884       86.15907
2013    10      3       0.4091288       89.43038
2013    10      4       0.3042327       71.03862
2013    10      5       0.2877283       67.95302
2013    10      6       0.2403983       58.84065
2013    10      7       0.1930111       49.22727
2013    11      0       0.1102104       31.15165
2013    11      1       0.1366954       37.12291
2013    11      2       0.177946        45.836
2013    11      3       0.2005394       50.34815
2013    11      4       0.3815908       83.88167
2013    11      5       0.3362702       75.68554
2013    11      6       0.1997596       49.53094
2013    11      7       0.1792318       45.43626
2013    12      0       0.1907608       47.96966
2013    12      1       0.1607027       41.75447
2013    12      2       0.1038639       29.32746
2013    12      3       0.0794933       23.59971
2013    12      4       0.07733615      22.97134
2013    12      5       0.1193082       32.43753
2013    12      6       0.1925846       47.92246
2013    12      7       0.1711049       43.42571
2013    13      0       0.2177409       53.03342
2013    13      1       0.2481217       59.34688
2013    13      2       0.3130003       71.59685
2013    13      3       0.3277084       74.23204
2013    13      4       0.2841894       66.11817
2013    13      5       0.2284692       55.15799
2013    13      6       0.1705662       43.39488
2013    13      7       0.3271741       74.46108
2013    14      0       0.2617089       62.24063
2013    14      1       0.2023144       50.34034
2013    14      2       0.1984618       49.47872
2013    14      3       0.1648149       42.37066
2013    14      4       0.1424861       37.55485
2013    14      5       0.1311426       35.10996
2013    14      6       0.2009405       49.79143
2013    14      7       0.2441107       58.44925
2013    15      0       0.274818        64.51247
2013    15      1       0.1868721       47.07548
2013    15      2       0.1586552       41.07195
2013    15      3       0.1469267       38.54137
2013    15      4       0.146259        38.38612
2013    15      5       0.1479323       38.73219
2013    15      6       0.3034692       69.96757
2013    15      7       0.398289        86.61305
2013    16      0       0.2847621       66.43363
2013    16      1       0.2261483       54.93273
2013    16      2       0.217352        53.04719
2013    16      3       0.2340952       56.27691
2013    16      4       0.2088928       51.26891
2013    16      5       0.18718         46.90395
2013    16      6       0.2328686       56.04234
2013    16      7       0.2918731       67.18679
2013    17      0       0.265007        62.58785
2013    17      1       0.18114         46.17583
2013    17      2       0.1351699       36.35662
2013    17      3       0.1389994       37.12195
2013    17      4       0.1760236       44.88152
2013    17      5       0.2248201       54.66564
2013    17      6       0.320028        72.91583
2013    17      7       0.4056816       88.88716
2013    18      0       0.3363614       76.90631
2013    18      1       0.3763535       83.94609
2013    18      2       0.2817541       67.04619
2013    18      3       0.1711315       44.80041
2013    18      4       0.1485249       39.50517
2013    18      5       0.1616351       42.13082
2013    18      6       0.1622582       42.25987
2013    18      7       0.1846476       46.98193
2013    19      0       0.2451769       59.18341
2013    19      1       0.3976426       87.16062
2013    19      2       0.4937218       103.1511
2013    19      3       0.4918983       103.3263
2013    19      4       0.400937        88.60783
2013    19      5       0.3206222       74.38093
2013    19      6       0.279892        66.91343
2013    19      7       0.5585824       113.6081
2013    20      0       0.3227526       74.82488
2013    20      1       0.2100673       52.85077
2013    20      2       0.1974106       50.01161
2013    20      3       0.2460964       59.39073
2013    20      4       0.2687634       63.20818
2013    20      5       0.2935676       67.71357
2013    20      6       0.2811379       65.25306
2013    20      7       0.2331055       55.87075
2013    21      0       0.1460102       37.95991
2013    21      1       0.1187053       32.04045
2013    21      2       0.1064472       29.37726
2013    21      3       0.09632061      27.19831
2013    21      4       0.09080004      25.98347
2013    21      5       0.09304569      26.49707
2013    21      6       0.09568338      27.12334
2013    21      7       0.0882481       25.58015
2013    22      0       0.08471262      24.84269
2013    22      1       0.08049864      23.8908
2013    22      2       0.0782166       23.40195
2013    22      3       0.08890841      25.91773
2013    22      4       0.09493247      27.34479
2013    22      5       0.1097571       30.55656
2013    22      6       0.08470117      24.94715
2013    22      7       0.0943466       27.16026
2013    23      0       0.09602799      27.4292
2013    23      1       0.09311282      26.74905
2013    23      2       0.1599947       41.17409
2013    23      3       0.1597043       41.29714
2013    23      4       0.1089852       30.43544
2013    23      5       0.1107525       30.68244
2013    23      6       0.1642557       42.17628
2013    23      7       0.1906188       47.84059
2013    24      0       0.1724815       44.39936
2013    24      1       0.1550835       40.76044
2013    24      2       0.109852        31.1354
2013    24      3       0.09693026      27.80845
2013    24      4       0.1922762       48.2414
2013    24      5       0.3082461       70.97761
2013    24      6       0.3371433       76.40101
2013    24      7       0.3949654       87.28774
2013    25      0       0.3218005       74.73548
2013    25      1       0.2977063       70.42649
2013    25      2       0.3168666       73.96261
2013    25      3       0.3792347       85.25611
2013    25      4       0.3157092       73.63345
2013    25      5       0.316549        73.74279
2013    25      6       0.4392075       95.34334
2013    25      7       0.4998258       105.2782
2013    26      0       0.471615        101.5262
2013    26      1       0.543102        111.773
2013    26      2       0.4636359       99.93135
2013    26      3       0.5461152       112.1413
2013    26      4       0.5232031       108.6203
2013    26      5       0.4141809       92.07401
2013    26      6       0.3108319       73.08635
2013    26      7       0.2054184       51.80917
2013    27      0       0.1834331       47.0755
2013    27      1       0.3361391       76.4235
2013    27      2       0.2195668       54.50228
2013    27      3       0.334478        76.17584
2013    27      4       0.3648393       81.72449
2013    27      5       0.439718        94.41251
2013    27      6       0.6882409       130.4939
2013    27      7       0.3087782       71.63952
2013    28      0       0.2720555       64.43424
2013    28      1       0.1753728       45.16082
2013    28      2       0.1626264       42.24373
2013    28      3       0.1992094       49.78001
2013    28      4       0.1904556       47.96248
2013    28      5       0.3054873       70.26357
2013    28      6       0.3418596       77.28037
2013    28      7       0.2905804       67.94795
2013    29      0       0.3343863       75.63136
2013    29      1       0.4064697       88.35993
2013    29      2       0.4001171       87.63006
2013    29      3       0.4251374       91.87013
2013    29      4       0.3948529       86.69353
2013    29      5       0.31952         72.8593
2013    29      6       0.269061        63.68767
2013    29      7       0.3307166       74.79106
2013    30      0       0.2447948       58.69609
2013    30      1       0.2206447       53.56491
2013    30      2       0.1877315       46.75715
2013    30      3       0.1402654       36.79097
2013    30      4       0.1101899       30.32187
2013    30      5       0.0844311       24.55793
2013    30      6       0.1077782       29.88507
2013    30      7       0.1368216       36.52559
2014    1       0       0.05002391      16.57246
2014    1       1       0.05111936      16.87206
2014    1       2       0.05315626      17.39581
2014    1       3       0.05507848      17.87713
2014    1       4       0.05920342      18.85289
2014    1       5       0.06456594      20.12589
2014    1       6       0.07618793      22.91068
2014    1       7       0.0957379       27.47532
2014    2       0       0.09767067      27.8891
2014    2       1       0.0903144       26.16039
2014    2       2       0.1015912       28.50743
2014    2       3       0.1201084       32.53642
2014    2       4       0.1288083       34.38867
2014    2       5       0.1262647       33.83349
2014    2       6       0.1313113       34.92989
2014    2       7       0.1311338       34.93071
2014    3       0       0.1296487       34.6737
2014    3       1       0.1293283       34.68369
2014    3       2       0.1391549       36.81029
2014    3       3       0.1418159       37.49738
2014    3       4       0.1199786       32.7931
2014    3       5       0.1097789       30.56859
2014    3       6       0.1237738       33.58853
2014    3       7       0.1948466       48.67608
2014    4       0       0.3499263       78.55514
2014    4       1       0.3911783       86.05705
2014    4       2       0.3007926       69.78076
2014    4       3       0.2375829       57.74262
2014    4       4       0.2521288       60.39542
2014    4       5       0.1586848       41.61283
2014    4       6       0.1512686       39.90179
2014    4       7       0.136773        36.79429
2014    5       0       0.1113842       31.10827
2014    5       1       0.1337025       36.06618
2014    5       2       0.1931652       48.67344
2014    5       3       0.2018366       50.45076
2014    5       4       0.143478        38.18237
2014    5       5       0.1330916       35.70999
2014    5       6       0.1863878       47.02517
2014    5       7       0.234758        56.99808
2014    6       0       0.2647933       63.13053
2014    6       1       0.2596105       62.40564
2014    6       2       0.3397776       77.61366
2014    6       3       0.3760908       83.96063
2014    6       4       0.4217944       91.75553
2014    6       5       0.3080478       71.66976
2014    6       6       0.2750831       65.43534
2014    6       7       0.3774442       84.0711
2014    7       0       0.1938534       49.13683
2014    7       1       0.1309195       35.56827
2014    7       2       0.146847        38.89837
2014    7       3       0.2304948       56.26376
2014    7       4       0.2795518       66.3356
2014    7       5       0.3644721       82.66889
2014    7       6       0.5543917       113.4987
2014    7       7       0.5971868       119.7948
2014    8       0       0.3226501       75.51076
2014    8       1       0.3409912       78.94833
2014    8       2       0.2533439       62.03073
2014    8       3       0.3292831       76.19097
2014    8       4       0.2956626       70.39303
2014    8       5       0.3118325       73.39995
2014    8       6       0.2237812       55.6471
2014    8       7       0.1117016       31.49804
2014    9       0       0.1177475       32.97297
2014    9       1       0.09999726      28.86619
2014    9       2       0.1068958       30.14061
2014    9       3       0.1105043       30.93236
2014    9       4       0.1089501       30.53617
2014    9       5       0.1198326       33.01048
2014    9       6       0.1316501       35.65685
2014    9       7       0.1407252       37.49177
2014    10      0       0.1871376       47.23553
2014    10      1       0.2299725       56.01061
2014    10      2       0.2138922       52.86402
2014    10      3       0.2011461       50.27389
2014    10      4       0.2331954       56.84454
2014    10      5       0.3043253       71.00905
2014    10      6       0.2924769       68.75556
2014    10      7       0.3036982       70.86559
2014    11      0       0.2488263       60.81193
2014    11      1       0.157037        41.37266
2014    11      2       0.2381075       57.62302
2014    11      3       0.3817947       84.2149
2014    11      4       0.433377        93.45242
2014    11      5       0.4325752       93.23647
2014    11      6       0.3606228       81.09864
2014    11      7       0.3666264       81.53563
2014    12      0       0.3027158       69.66243
2014    12      1       0.1821889       46.22855
2014    12      2       0.09886387      28.21701
2014    12      3       0.05759191      18.54714
2014    12      4       0.06584942      20.36933
2014    12      5       0.06915351      21.1987
2014    12      6       0.07138012      21.87905
2014    12      7       0.2312952       56.67486
2014    13      0       0.1779121       45.65423
2014    13      1       0.09522256      27.51523
2014    13      2       0.0730972       22.3587
2014    13      3       0.06594167      20.67199
2014    13      4       0.05285107      17.50705
2014    13      5       0.05704843      18.45431
2014    13      6       0.07912174      23.60498
2014    13      7       0.1187942       32.54038
2014    14      0       0.180978        45.91842
2014    14      1       0.2331479       57.02437
2014    14      2       0.2190879       54.58327
2014    14      3       0.2413137       59.3221
2014    14      4       0.2624416       63.76562
2014    14      5       0.2860514       68.30167
2014    14      6       0.3290357       76.31958
2014    14      7       0.3688381       83.2814
2014    15      0       0.402214        88.95946
2014    15      1       0.3707928       82.74027
2014    15      2       0.2891409       68.27571
2014    15      3       0.3699276       82.90812
2014    15      4       0.4387258       94.60145
2014    15      5       0.4265541       92.05375
2014    15      6       0.3358223       75.94355
2014    15      7       0.2064906       51.07985
2014    16      0       0.1818793       46.31182
2014    16      1       0.1092004       30.72688
2014    16      2       0.06368103      20.23561
2014    16      3       0.0478262       16.33579
2014    16      4       0.04095158      14.59816
2014    16      5       0.04250694      14.98704
2014    16      6       0.04747375      16.24206
2014    16      7       0.07439135      22.84819
2014    17      0       0.07671327      23.42012
2014    17      1       0.07148616      22.24356
2014    17      2       0.04978805      17.02427
2014    17      3       0.03748049      13.92295
2014    17      4       0.04464557      15.75971
2014    17      5       0.05302896      17.83667
2014    17      6       0.05795143      18.98574
2014    17      7       0.06615789      21.0118
2014    18      0       0.06770338      21.36358
2014    18      1       0.08087041      24.39023
2014    18      2       0.1373954       37.51941
2014    18      3       0.1608708       42.4586
2014    18      4       0.1751897       45.44567
2014    18      5       0.2112736       52.91929
2014    18      6       0.2369537       58.25471
2014    18      7       0.2842506       67.57806
2014    19      0       0.2857291       67.90623
2014    19      1       0.2479733       60.70853
2014    19      2       0.2020043       51.31032
2014    19      3       0.2240158       55.34058
2014    19      4       0.206352        51.9697
2014    19      5       0.1545639       41.10012
2014    19      6       0.09007269      26.46657
2014    19      7       0.1626614       42.92394
2014    20      0       0.3037036       71.22952
2014    20      1       0.4911683       102.9955
2014    20      2       0.4943745       103.4001
2014    20      3       0.390046        86.31116
2014    20      4       0.4097284       89.4249
2014    20      5       0.3212263       74.16299
2014    20      6       0.3937427       86.42692
2014    20      7       0.5995499       117.8018
2014    21      0       0.354982        80.70729
2014    21      1       0.1412796       38.50105
2014    21      2       0.0997626       28.99407
2014    21      3       0.09339694      27.48586
2014    21      4       0.1452034       39.35713
2014    21      5       0.2022716       51.56293
2014    21      6       0.2925529       68.98473
2014    21      7       0.4463909       96.05779
2014    22      0       0.4338443       94.28892
2014    22      1       0.3372975       77.57226
2014    22      2       0.4025671       88.58451
2014    22      3       0.4816415       101.6311
2014    22      4       0.273381        65.93112
2014    22      5       0.2648546       64.22422
2014    22      6       0.3174303       74.25084
2014    22      7       0.5132821       107.261
2014    23      0       0.6134671       122.4704
2014    23      1       0.6512786       128.6563
2014    23      2       0.6593904       129.2635
2014    23      3       0.7099198       135.403
2014    23      4       0.6819424       131.755
2014    23      5       0.667261        129.6126
2014    23      6       0.6723308       130.0788
2014    23      7       0.664603        128.8616
2014    24      0       0.5979433       119.2394
2014    24      1       0.5268064       108.6592
2014    24      2       0.4059364       89.2298
2014    24      3       0.3460916       78.7475
2014    24      4       0.2995734       70.47866
2014    24      5       0.2798798       66.72079
2014    24      6       0.2218883       55.51386
2014    24      7       0.1564053       41.98796
2014    25      0       0.1072428       30.89755
2014    25      1       0.09349112      27.47255
2014    25      2       0.09713531      28.10501
2014    25      3       0.124187        34.26477
2014    25      4       0.1423115       38.26899
2014    25      5       0.161879        42.54965
2014    25      6       0.1925825       49.13698
2014    25      7       0.2930788       69.38332
2014    26      0       0.3166297       73.69171
2014    26      1       0.303483        71.22012
2014    26      2       0.2882206       68.26824
2014    26      3       0.2516916       61.21975
2014    26      4       0.2039907       51.74134
2014    26      5       0.2079045       52.40235
2014    26      6       0.2596141       62.86831
2014    26      7       0.3614038       81.59775
2014    27      0       0.4647387       99.58617
2014    27      1       0.4187111       90.96977
2014    27      2       0.388616        85.91899
2014    27      3       0.4013738       88.39348
2014    27      4       0.3459418       78.85468
2014    27      5       0.311348        72.59
2014    27      6       0.4512036       96.09538
2014    27      7       0.5369211       109.3917
2014    28      0       0.4415738       95.49695
2014    28      1       0.2013874       51.17915
2014    28      2       0.2037449       51.56809
2014    28      3       0.2019439       51.12071
2014    28      4       0.1594194       42.26912
2014    28      5       0.1632903       43.25094
2014    28      6       0.3384107       78.31243
2014    28      7       0.3074997       71.89814
2014    29      0       0.198718        50.62763
2014    29      1       0.1348656       36.90862
2014    29      2       0.1783119       46.28952
2014    29      3       0.2584558       62.50764
2014    29      4       0.1952281       49.94489
2014    29      5       0.1112486       31.72315
2014    29      6       0.07399689      22.93618
2014    29      7       0.09079941      26.6336
2014    30      0       0.2347282       57.98998
2014    30      1       0.2818743       67.44061
2014    30      2       0.3332234       77.37072
2014    30      3       0.4031401       90.13067
2014    30      4       0.5329077       111.5942
2014    30      5       0.4688536       101.8932
2014    30      6       0.5133852       108.9683
2014    30      7       0.8200839       150.6709
2015    1       0       0.3866336       86.09744
2015    1       1       0.3292238       75.22841
2015    1       2       0.2970844       69.36405
2015    1       3       0.4089618       89.15072
2015    1       4       0.3978917       87.02087
2015    1       5       0.2923677       67.83686
2015    1       6       0.2786591       65.15489
2015    1       7       0.2952011       68.45553
2015    2       0       0.2251354       55.15357
2015    2       1       0.2665333       63.19815
2015    2       2       0.2974645       68.784
2015    2       3       0.1861959       46.88789
2015    2       4       0.1569655       40.79278
2015    2       5       0.1738248       44.33848
2015    2       6       0.1743721       44.60066
2015    2       7       0.1922607       48.36551
2015    3       0       0.2276701       55.65442
2015    3       1       0.1480447       39.19992
2015    3       2       0.143771        38.3074
2015    3       3       0.1310352       35.56236
2015    3       4       0.1258705       34.45166
2015    3       5       0.128267        34.93
2015    3       6       0.2307664       56.18647
2015    3       7       0.3972131       87.08608
2015    4       0       0.2860719       66.96928
2015    4       1       0.2194321       53.83129
2015    4       2       0.2096805       51.84713
2015    4       3       0.1719894       44.10267
2015    4       4       0.1175788       32.45441
2015    4       5       0.09124477      26.50892
2015    4       6       0.09714624      27.8311
2015    4       7       0.2441978       59.30686
2015    5       0       0.1420709       38.05069
2015    5       1       0.1129047       31.61986
2015    5       2       0.130723        35.27479
2015    5       3       0.1466951       38.64065
2015    5       4       0.1471517       38.7797
2015    5       5       0.1346359       36.1587
2015    5       6       0.2067701       51.64942
2015    5       7       0.1654224       43.06085
2015    6       0       0.1277486       34.87116
2015    6       1       0.1220159       33.6012
2015    6       2       0.1301282       35.41222
2015    6       3       0.133355        36.14362
2015    6       4       0.1260857       34.53854
2015    6       5       0.1187651       32.87672
2015    6       6       0.1155085       32.23201
2015    6       7       0.1366043       37.11572
2015    7       0       0.149464        39.83906
2015    7       1       0.1476213       39.41854
2015    7       2       0.1281055       35.15673
2015    7       3       0.1079143       30.61411
2015    7       4       0.1038749       29.70099
2015    7       5       0.09257484      27.10676
2015    7       6       0.07909183      23.9606
2015    7       7       0.1292059       35.03435
2015    8       0       0.1352239       36.37081
2015    8       1       0.09620766      27.65323
2015    8       2       0.1052402       29.71562
2015    8       3       0.1165007       32.48603
2015    8       4       0.1197303       33.44152
2015    8       5       0.1449954       39.04899
2015    8       6       0.1275018       35.44929
2015    8       7       0.152004        40.65364
2015    9       0       0.2341203       57.90678
2015    9       1       0.2418204       59.87786
2015    9       2       0.2424655       59.98962
2015    9       3       0.2371393       58.95091
2015    9       4       0.2217682       56.03621
2015    9       5       0.1649651       44.14388
2015    9       6       0.08240222      25.08276
2015    9       7       0.06603239      21.09916
2015    10      0       0.07085881      22.39028
2015    10      1       0.0747627       23.35853
2015    10      2       0.08025084      24.5464
2015    10      3       0.1219967       34.34329
2015    10      4       0.1607559       43.14012
2015    10      5       0.169226        45.04651
2015    10      6       0.1646076       44.01768
2015    10      7       0.2383476       59.24755
2015    11      0       0.410192        90.54065
2015    11      1       0.366621        82.83985
2015    11      2       0.2840708       67.79196
2015    11      3       0.2982955       70.42025
2015    11      4       0.3194407       74.14425
2015    11      5       0.285538        67.80091
2015    11      6       0.1152652       31.95596
2015    11      7       0.2596222       62.083
2015    12      0       0.2924265       68.49049
2015    12      1       0.1074707       30.2379
2015    12      2       0.1123538       31.31824
2015    12      3       0.09789311      27.89834
2015    12      4       0.1017511       28.76151
2015    12      5       0.07954115      23.67942
2015    12      6       0.08071246      23.9779
2015    12      7       0.134381        36.13502
2015    13      0       0.13909         37.40044
2015    13      1       0.09423609      27.31355
2015    13      2       0.08611564      25.4063
2015    13      3       0.06018275      19.27646
2015    13      4       0.05203644      17.21914
2015    13      5       0.06133278      19.3588
2015    13      6       0.06994729      21.42175
2015    13      7       0.1074443       30.39917
2015    14      0       0.1565712       41.45237
2015    14      1       0.2356185       57.97571
2015    14      2       0.3856274       85.87596
2015    14      3       0.3115217       73.16016
2015    14      4       0.4405505       94.67786
2015    14      5       0.1702029       43.78647
2015    14      6       0.09188552      26.69959
2015    14      7       0.1113526       31.40055
2015    15      0       0.1397732       37.99904
2015    15      1       0.1637809       43.20543
2015    15      2       0.1214791       33.76825
2015    15      3       0.07249658      22.3408
2015    15      4       0.1162735       32.24975
2015    15      5       0.1853437       47.37155
2015    15      6       0.1684587       43.98455
2015    15      7       0.2372782       58.28866
2015    16      0       0.3916641       86.43231
2015    16      1       0.2202419       54.65495
2015    16      2       0.2293016       56.62909
2015    16      3       0.1627004       42.73086
2015    16      4       0.1663353       43.29551
2015    16      5       0.2259818       55.28044
2015    16      6       0.2564088       61.77303
2015    16      7       0.2170656       53.50965
2015    17      0       0.1566832       41.02272
2015    17      1       0.1047987       29.77937
2015    17      2       0.1076268       30.28071
2015    17      3       0.1572023       41.2522
2015    17      4       0.393033        87.05884
2015    17      5       0.5436903       111.5585
2015    17      6       0.4523907       96.95755
2015    17      7       0.4037206       88.15113
2015    18      0       0.3513805       79.94071
2015    18      1       0.2056139       51.52862
2015    18      2       0.1753593       45.15854
2015    18      3       0.1384097       37.17141
2015    18      4       0.1029072       29.20902
2015    18      5       0.08503083      25.12796
2015    18      6       0.08798723      25.70018
2015    18      7       0.1160349       32.20554
2015    19      0       0.1446346       38.68702
2015    19      1       0.166154        43.29659
2015    19      2       0.1746305       45.18636
2015    19      3       0.168622        44.07572
2015    19      4       0.1475773       39.74605
2015    19      5       0.1492196       40.11525
2015    19      6       0.175446        45.71782
2015    19      7       0.225637        56.30645
2015    20      0       0.2686922       64.8216
2015    20      1       0.2457622       60.62039
2015    20      2       0.2628862       64.25392
2015    20      3       0.29871         71.29216
2015    20      4       0.33636         78.43735
2015    20      5       0.3631456       83.47477
2015    20      6       0.3683644       84.59289
2015    20      7       0.3715095       85.41002
2015    21      0       0.3943232       89.68227
2015    21      1       0.3939797       89.7059
2015    21      2       0.4522362       99.88314
2015    21      3       0.4270135       95.54777
2015    21      4       0.4404843       97.51622
2015    21      5       0.4560662       99.97321
2015    21      6       0.5234756       110.3794
2015    21      7       0.588719        119.4285
2015    22      0       0.7273933       139.4308
2015    22      1       0.7941739       147.5588
2015    22      2       0.513983        109.7441
2015    22      3       0.4897589       105.9554
2015    22      4       0.3846588       88.1478
2015    22      5       0.4684474       102.0464
2015    22      6       0.5218254       110.3157
2015    22      7       0.4118789       92.64638
2015    23      0       0.3385215       79.3675
2015    23      1       0.4731777       101.2536
2015    23      2       0.5218481       109.0478
2015    23      3       0.3708319       85.3598
2015    23      4       0.3628747       83.9138
2015    23      5       0.3291576       77.72646
2015    23      6       0.3888135       88.0592
2015    23      7       0.4913392       104.5567
2015    24      0       0.445653        97.21368
2015    24      1       0.5328356       110.6295
2015    24      2       0.4908407       104.0626
2015    24      3       0.4368546       95.52838
2015    24      4       0.4202788       92.67903
2015    24      5       0.3752933       84.69705
2015    24      6       0.3073227       72.23478
2015    24      7       0.2969988       70.03284
2015    25      0       0.2418594       58.92464
2015    25      1       0.2169066       53.6043
2015    25      2       0.23633         57.41153
2015    25      3       0.2276442       55.63475
2015    25      4       0.1748037       44.59333
2015    25      5       0.1427203       37.53631
2015    25      6       0.1453647       38.0324
2015    25      7       0.1617976       41.70656
2015    26      0       0.1675698       43.25383
2015    26      1       0.2114497       52.67749
2015    26      2       0.2490744       60.27689
2015    26      3       0.2553941       61.57829
2015    26      4       0.1955469       49.69993
2015    26      5       0.1766829       45.87897
2015    26      6       0.2249096       56.27341
2015    26      7       0.3045975       72.34023
2015    27      0       0.2139339       54.42222
2015    27      1       0.1841473       48.07953
2015    27      2       0.2159435       54.44004
2015    27      3       0.3523905       80.81686
2015    27      4       0.3079985       72.68273
2015    27      5       0.183123        47.28609
2015    27      6       0.3034586       71.51248
2015    27      7       0.5431848       112.3334
2015    28      0       0.4470551       97.55038
2015    28      1       0.470972        101.477
2015    28      2       0.3882227       88.08823
2015    28      3       0.4560956       100.168
2015    28      4       0.2926295       70.95248
2015    28      5       0.4025239       91.69883
2015    28      6       0.373538        86.37947
2015    28      7       0.4406044       97.73472
2015    29      0       0.7509229       142.4053
2015    29      1       0.391912        87.42162
2015    29      2       0.2514696       60.9887
2015    29      3       0.149276        39.96142
2015    29      4       0.1026079       29.57655
2015    29      5       0.1000212       29.06297
2015    29      6       0.106438        30.31877
2015    29      7       0.3377125       77.2031
2015    30      0       0.4319916       93.43201
2015    30      1       0.2551121       61.60817
2015    30      2       0.1454291       38.79462
2015    30      3       0.1791089       45.84745
2015    30      4       0.2469567       59.61835
2015    30      5       0.1750596       45.06438
2015    30      6       0.2986256       69.77272
2015    30      7       0.5114188       106.2976
2016    1       0       0.3317542       77.85054
2016    1       1       0.3541581       82.74882
2016    1       2       0.248612        62.17139
2016    1       3       0.2434148       61.12812
2016    1       4       0.2354367       59.48123
2016    1       5       0.252835        63.13852
2016    1       6       0.2455832       61.91835
2016    1       7       0.2323819       59.04287
2016    2       0       0.2193738       56.63603
2016    2       1       0.1984529       52.12299
2016    2       2       0.2142185       55.38172
2016    2       3       0.203647        53.02571
2016    2       4       0.1852041       48.96917
2016    2       5       0.2319111       58.88203
2016    2       6       0.2370449       59.01352
2016    2       7       0.3049056       72.77785
2016    3       0       0.4303866       94.76225
2016    3       1       0.3593947       81.87057
2016    3       2       0.161256        43.08845
2016    3       3       0.1326311       36.6715
2016    3       4       0.1395381       38.01713
2016    3       5       0.1611562       42.63994
2016    3       6       0.1381506       37.61593
2016    3       7       0.1134027       32.05833
2016    4       0       0.1357435       37.13874
2016    4       1       0.139554        37.81712
2016    4       2       0.2291014       56.51844
2016    4       3       0.3547644       80.17326
2016    4       4       0.4322647       93.71096
2016    4       5       0.4538935       97.5078
2016    4       6       0.508389        106.2515
2016    4       7       0.5322823       109.8999
2016    5       0       0.5685754       115.8646
2016    5       1       0.5154077       107.9014
2016    5       2       0.4314966       94.16335
2016    5       3       0.3612508       81.77532
2016    5       4       0.2679833       64.67603
2016    5       5       0.2096869       52.87923
2016    5       6       0.1985322       50.25582
2016    5       7       0.4246017       91.87442
2016    6       0       0.5401475       110.874
2016    6       1       0.5251291       108.5242
2016    6       2       0.3109558       72.53619
2016    6       3       0.1803726       46.85675
2016    6       4       0.1341155       36.42923
2016    6       5       0.1135617       31.7641
2016    6       6       0.1043374       29.66357
2016    6       7       0.1432053       38.29305
2016    7       0       0.1345872       36.5023
2016    7       1       0.1270014       34.67862
2016    7       2       0.1374643       36.75587
2016    7       3       0.1759928       44.94918
2016    7       4       0.196733        49.59032
2016    7       5       0.2966123       69.45439
2016    7       6       0.2946068       69.88253
2016    7       7       0.2693321       65.46181
2016    8       0       0.2443009       60.71954
2016    8       1       0.322426        75.53239
2016    8       2       0.4175239       92.27426
2016    8       3       0.3966545       89.28003
2016    8       4       0.2461861       61.30811
2016    8       5       0.2626444       64.99347
2016    8       6       0.2729462       66.68593
2016    8       7       0.4607745       99.47562
2016    9       0       0.3622443       82.66387
2016    9       1       0.2138716       54.14873
2016    9       2       0.4588281       98.62436
2016    9       3       0.2313869       57.44595
2016    9       4       0.2269461       56.41917
2016    9       5       0.2122552       53.47811
2016    9       6       0.2101367       52.8451
2016    9       7       0.1943575       49.60336
2016    10      0       0.1827978       47.25588
2016    10      1       0.1737182       45.43318
2016    10      2       0.163745        43.33381
2016    10      3       0.1505755       40.35645
2016    10      4       0.150101        40.06827
2016    10      5       0.1527131       40.61743
2016    10      6       0.1521786       40.62103
2016    10      7       0.154958        41.22319
2016    11      0       0.1644813       43.21511
2016    11      1       0.1736517       45.25098
2016    11      2       0.1833519       47.39002
2016    11      3       0.2280232       56.92543
2016    11      4       0.256546        62.51045
2016    11      5       0.3628485       81.91024
2016    11      6       0.2632917       63.9001
2016    11      7       0.2924573       69.40988
2016    12      0       0.3907678       86.93799
2016    12      1       0.3574639       82.03663
2016    12      2       0.2826129       68.21584
2016    12      3       0.2279663       57.15834
2016    12      4       0.2563478       62.64598
2016    12      5       0.3186532       73.89887
2016    12      6       0.3917861       87.11775
2016    12      7       0.4379123       95.33486
2016    13      0       0.520848        109.4379
2016    13      1       0.2081776       52.90268
2016    13      2       0.235649        58.02468
2016    13      3       0.2703846       64.49931
2016    13      4       0.217911        54.36543
2016    13      5       0.378392        84.42464
2016    13      6       0.4144728       90.15429
2016    13      7       0.3151225       72.31582
2016    14      0       0.3585082       80.9654
2016    14      1       0.3395645       77.6158
2016    14      2       0.2440931       59.48527
2016    14      3       0.2091336       52.45103
2016    14      4       0.1917319       48.80276
2016    14      5       0.1817809       46.64085
2016    14      6       0.1726247       44.73615
2016    14      7       0.1527767       40.59683
2016    15      0       0.1249434       34.56005
2016    15      1       0.08455477      25.27457
2016    15      2       0.06651678      20.89411
2016    15      3       0.07393638      22.63938
2016    15      4       0.100698        28.95318
2016    15      5       0.1199226       33.45579
2016    15      6       0.1569137       41.58194
2016    15      7       0.2493183       60.81357
2016    16      0       0.3650935       82.53993
2016    16      1       0.3325335       76.54805
2016    16      2       0.3371633       76.75393
2016    16      3       0.2315278       57.04871
2016    16      4       0.169542        44.4412
2016    16      5       0.1331682       36.65019
2016    16      6       0.1985271       50.46979
2016    16      7       0.3009664       70.80329
2016    17      0       0.4676604       99.76085
2016    17      1       0.3490184       79.57856
2016    17      2       0.4469011       96.47479
2016    17      3       0.3818431       86.19137
2016    17      4       0.3369665       78.36307
2016    17      5       0.330387        77.48777
2016    17      6       0.4797875       103.2778
2016    17      7       0.6802498       132.0298
2016    18      0       0.510656        108.5906
2016    18      1       0.4561449       99.92701
2016    18      2       0.4346254       96.60526
2016    18      3       0.421697        94.91802
2016    18      4       0.4592736       101.6182
2016    18      5       0.4472807       99.81536
2016    18      6       0.5368976       114.0151
2016    18      7       0.8393356       154.5502
2016    19      0       0.6768045       133.3074
2016    19      1       0.3431505       81.88461
2016    19      2       0.4518564       101.4405
2016    19      3       0.2668501       66.13135
2016    19      4       0.1949964       50.60241
2016    19      5       0.1504328       40.63455
2016    19      6       0.1447207       39.3068
2016    19      7       0.1464661       39.58023
2016    20      0       0.1895598       48.75761
2016    20      1       0.2117919       53.43479
2016    20      2       0.1978834       50.54871
2016    20      3       0.184487        47.67148
2016    20      4       0.1435794       38.98096
2016    20      5       0.1333693       36.69787
2016    20      6       0.1321038       36.41948
2016    20      7       0.1712292       45.23723
2016    21      0       0.2118482       54.05448
2016    21      1       0.2046453       52.67134
2016    21      2       0.2385114       59.98624
2016    21      3       0.2463306       61.83984
2016    21      4       0.2297865       58.54416
2016    21      5       0.2289596       58.3376
2016    21      6       0.2253718       57.38661
2016    21      7       0.2494168       62.10007
2016    22      0       0.2630113       64.91206
2016    22      1       0.2690893       66.04522
2016    22      2       0.3188837       75.83018
2016    22      3       0.3933686       88.71229
2016    22      4       0.4274809       94.79577
2016    22      5       0.4381693       97.00153
2016    22      6       0.4731218       103.0809
2016    22      7       0.5907092       120.9775
2016    23      0       0.647489        128.8669
2016    23      1       0.5964263       122.2929
2016    23      2       0.4684707       102.734
2016    23      3       0.4601045       101.3428
2016    23      4       0.5325538       113.3318
2016    23      5       0.4008978       91.63112
2016    23      6       0.4967488       106.9067
2016    23      7       0.6720255       132.2008
2016    24      0       0.6968961       135.3703
2016    24      1       0.561922        117.1403
2016    24      2       0.5583251       116.7289
2016    24      3       0.6040204       123.2331
2016    24      4       0.4753626       103.8742
2016    24      5       0.4645003       102.0492
2016    24      6       0.4675066       102.269
2016    24      7       0.5562559       115.9052
2016    25      0       0.5487503       113.9768
2016    25      1       0.5553216       114.8577
2016    25      2       0.5304345       111.4933
2016    25      3       0.506778        107.6746
2016    25      4       0.5204388       109.4671
2016    25      5       0.5797389       117.7331
2016    25      6       0.5514799       113.3842
2016    25      7       0.5587451       115.0129
2016    26      0       0.4981028       106.2433
2016    26      1       0.477398        102.8173
2016    26      2       0.4770032       102.2311
2016    26      3       0.3976706       88.36838
2016    26      4       0.1920416       48.96547
2016    26      5       0.1239953       34.41687
2016    26      6       0.1518428       40.641
2016    26      7       0.1622776       43.05871
2016    27      0       0.1850011       48.05212
2016    27      1       0.1856869       48.04573
2016    27      2       0.2072442       52.43305
2016    27      3       0.2421503       59.70356
2016    27      4       0.2649029       64.31074
2016    27      5       0.2905445       69.25293
2016    27      6       0.3181952       74.40767
2016    27      7       0.3570254       81.63718
2016    28      0       0.4089971       90.82834
2016    28      1       0.3844746       86.72497
2016    28      2       0.3642842       83.66503
2016    28      3       0.3346802       78.43429
2016    28      4       0.3263158       76.89944
2016    28      5       0.2971282       71.33089
2016    28      6       0.3067372       72.67692
2016    28      7       0.3333817       76.96264
2016    29      0       0.3426327       78.96405
2016    29      1       0.2738659       66.25364
2016    29      2       0.3022758       71.86059
2016    29      3       0.3621254       83.42797
2016    29      4       0.3925969       88.80418
2016    29      5       0.3151194       74.50818
2016    29      6       0.1857013       48.12827
2016    29      7       0.2288613       57.02239
2016    30      0       0.3086461       72.67709
2016    30      1       0.3388097       77.71976
2016    30      2       0.2797096       66.72856
2016    30      3       0.2584992       62.58806
2016    30      4       0.1944394       49.43211
2016    30      5       0.07300797      22.70632
2016    30      6       0.08100319      24.82101
2016    30      7       0.1131396       32.07595
2017    1       0       0.168041        44.89431
2017    1       1       0.113064        32.15887
2017    1       2       0.09472592      27.93228
2017    1       3       0.08946492      26.7731
2017    1       4       0.1233377       33.97177
2017    1       5       0.122085        33.92756
2017    1       6       0.2755875       65.99024
2017    1       7       0.4247588       92.72249
2017    2       0       0.3900241       86.14873
2017    2       1       0.2158355       53.74519
2017    2       2       0.1714163       44.48555
2017    2       3       0.1805464       46.36959
2017    2       4       0.2077908       51.97137
2017    2       5       0.2385098       58.12712
2017    2       6       0.2600454       62.55881
2017    2       7       0.3832749       85.22127
2017    3       0       0.3511867       78.54932
2017    3       1       0.2974496       68.77439
2017    3       2       0.2054219       51.28764
2017    3       3       0.2260498       55.47312
2017    3       4       0.2315214       56.51469
2017    3       5       0.2307323       56.26274
2017    3       6       0.1506248       39.84796
2017    3       7       0.2537369       61.07059
2017    4       0       0.2911215       68.25842
2017    4       1       0.2393892       58.42094
2017    4       2       0.2280519       56.05171
2017    4       3       0.1490379       39.51211
2017    4       4       0.107576        30.38123
2017    4       5       0.1169003       32.58498
2017    4       6       0.09971989      28.84654
2017    4       7       0.1139129       32.25763
2017    5       0       0.09228587      27.33101
2017    5       1       0.0649568       20.68932
2017    5       2       0.06463296      20.48891
2017    5       3       0.1259087       34.73779
2017    5       4       0.3048426       71.77668
2017    5       5       0.5564805       114.6843
2017    5       6       0.5551987       114.7613
2017    5       7       0.4247829       93.64917
2017    6       0       0.2537303       62.80035
2017    6       1       0.3338287       77.4133
2017    6       2       0.3558752       81.62161
2017    6       3       0.3387397       78.14567
2017    6       4       0.1522947       40.57877
2017    6       5       0.1465083       39.0862
2017    6       6       0.1484613       39.4132
2017    6       7       0.2284132       56.41864
2017    7       0       0.2970659       70.18486
2017    7       1       0.3380792       77.84849
2017    7       2       0.466794        99.22739
2017    7       3       0.3469878       79.07403
2017    7       4       0.2890982       68.62946
2017    7       5       0.2650031       64.11893
2017    7       6       0.3340538       77.85699
2017    7       7       0.4126557       91.75492
2017    8       0       0.426789        93.97053
2017    8       1       0.3353326       77.92948
2017    8       2       0.325043        75.95281
2017    8       3       0.34385         79.05131
2017    8       4       0.346247        79.00716
2017    8       5       0.3470802       78.72499
2017    8       6       0.2943463       68.74164
2017    8       7       0.2362021       57.70177
2017    9       0       0.2147738       53.49942
2017    9       1       0.2156901       53.53356
2017    9       2       0.2145996       53.28854
2017    9       3       0.2115395       52.91298
2017    9       4       0.2165329       53.97805
2017    9       5       0.2234652       55.40035
2017    9       6       0.2086905       52.63836
2017    9       7       0.3146217       73.36765
2017    10      0       0.3472769       78.99421
2017    10      1       0.2973803       69.54771
2017    10      2       0.213296        53.23838
2017    10      3       0.1781347       45.71284
2017    10      4       0.1865604       47.25699
2017    10      5       0.1743495       44.73918
2017    10      6       0.2830259       66.09229
2017    10      7       0.3819353       84.00732
2017    11      0       0.3564927       80.01268
2017    11      1       0.2490658       60.4163
2017    11      2       0.202906        51.13122
2017    11      3       0.2019185       50.80558
2017    11      4       0.2041526       51.14519
2017    11      5       0.191304        48.40184
2017    11      6       0.2321962       56.80429
2017    11      7       0.437644        94.58973
2017    12      0       0.2865685       67.92505
2017    12      1       0.2324384       57.24101
2017    12      2       0.2248925       55.64569
2017    12      3       0.2200885       54.68988
2017    12      4       0.2021203       51.07638
2017    12      5       0.1543325       41.00059
2017    12      6       0.103883        29.79923
2017    12      7       0.1345115       36.78771
2017    13      0       0.09621964      28.04281
2017    13      1       0.1176865       32.90118
2017    13      2       0.1818653       46.60649
2017    13      3       0.3248296       74.1789
2017    13      4       0.3803558       84.62731
2017    13      5       0.4191979       91.43546
2017    13      6       0.4980747       103.7961
2017    13      7       0.4844126       101.7658
2017    14      0       0.5091962       105.7206
2017    14      1       0.5073548       105.4161
2017    14      2       0.4355605       94.70347
2017    14      3       0.4770889       100.4525
2017    14      4       0.468152        99.07113
2017    14      5       0.3898174       86.64684
2017    14      6       0.3747955       83.67899
2017    14      7       0.5224805       107.8526
2017    15      0       0.486585        101.8603
2017    15      1       0.4058531       88.45746
2017    15      2       0.3502164       78.81451
2017    15      3       0.3117063       71.91305
2017    15      4       0.2791431       65.87423
2017    15      5       0.313791        72.16471
2017    15      6       0.3134815       71.92346
2017    15      7       0.2403797       58.20239
2017    16      0       0.2108128       52.35656
2017    16      1       0.2029488       50.78626
2017    16      2       0.2066286       51.44869
2017    16      3       0.2025113       50.66002
2017    16      4       0.2175536       53.8545
2017    16      5       0.2376808       57.92574
2017    16      6       0.2458364       59.47403
2017    16      7       0.3132878       72.68278
2017    17      0       0.2847398       67.62348
2017    17      1       0.2466643       60.38167
2017    17      2       0.2183419       54.42812
2017    17      3       0.2257514       55.59025
2017    17      4       0.2115018       52.58348
2017    17      5       0.2131822       52.85816
2017    17      6       0.2249286       55.19775
2017    17      7       0.2151532       53.33523
2017    18      0       0.2171802       53.76962
2017    18      1       0.2588869       62.01942
2017    18      2       0.3385519       76.86077
2017    18      3       0.3676137       82.13877
2017    18      4       0.2844191       67.11708
2017    18      5       0.2659872       63.60983
2017    18      6       0.2491705       60.44379
2017    18      7       0.2281222       56.32708
2017    19      0       0.2756048       65.37592
2017    19      1       0.3221163       74.3165
2017    19      2       0.2824846       67.28688
2017    19      3       0.2286656       56.76361
2017    19      4       0.2024877       51.26294
2017    19      5       0.2037167       51.32013
2017    19      6       0.2279295       56.26419
2017    19      7       0.2532156       61.59689
2017    20      0       0.2974626       70.43916
2017    20      1       0.2655883       64.1095
2017    20      2       0.3709726       83.20202
2017    20      3       0.2673849       64.37175
2017    20      4       0.2825539       67.10736
2017    20      5       0.3439887       78.27386
2017    20      6       0.2900702       68.32851
2017    20      7       0.4269637       93.3106
2017    21      0       0.3354073       78.07349
2017    21      1       0.2207536       55.54305
2017    21      2       0.1751775       45.68052
2017    21      3       0.1682135       44.10513
2017    21      4       0.1893314       48.4609
2017    21      5       0.2017747       50.95289
2017    21      6       0.1957866       49.85346
2017    21      7       0.3471524       79.48822
2017    22      0       0.2534372       61.76667
2017    22      1       0.1570205       41.64509
2017    22      2       0.1585789       41.84748
2017    22      3       0.1845467       47.35491
2017    22      4       0.2210719       54.80843
2017    22      5       0.1890449       48.19673
2017    22      6       0.181383        46.54672
2017    22      7       0.1543238       40.83615
2017    23      0       0.1355332       36.86125
2017    23      1       0.1417739       38.276
2017    23      2       0.2155065       53.91163
2017    23      3       0.2599846       62.76548
2017    23      4       0.2578707       62.30396
2017    23      5       0.2627495       63.22507
2017    23      6       0.2789846       66.31706
2017    23      7       0.3010468       70.51375
2017    24      0       0.2908113       68.45667
2017    24      1       0.3569607       80.11691
2017    24      2       0.3318611       75.49304
2017    24      3       0.2474233       59.57951
2017    24      4       0.2101296       52.15202
2017    24      5       0.1728005       44.46401
2017    24      6       0.2658299       63.42921
2017    24      7       0.3405089       77.48442
2017    25      0       0.2488329       59.9868
2017    25      1       0.1608242       42.02523
2017    25      2       0.1220585       33.65818
2017    25      3       0.1097867       30.97237
2017    25      4       0.09972846      28.73083
2017    25      5       0.09048015      26.64861
2017    25      6       0.258018        62.70046
2017    25      7       0.2159864       54.40653
2017    26      0       0.2129731       54.17715
2017    26      1       0.1376302       37.96969
2017    26      2       0.1120004       32.04049
2017    26      3       0.09804259      28.74034
2017    26      4       0.09302318      27.52345
2017    26      5       0.09870927      28.8623
2017    26      6       0.2552077       63.4812
2017    26      7       0.2331513       59.0159
2017    27      0       0.2439101       61.19754
2017    27      1       0.1729128       46.08854
2017    27      2       0.1406334       38.74985
2017    27      3       0.1147944       32.74315
2017    27      4       0.1037465       30.11223
2017    27      5       0.08777483      26.07937
2017    27      6       0.2438278       60.35324
2017    27      7       0.2419071       59.93126
2017    28      0       0.2207409       55.57678
2017    28      1       0.2165431       54.49748
2017    28      2       0.2308963       57.39563
2017    28      3       0.2360506       58.53921
2017    28      4       0.275243        66.12637
2017    28      5       0.3568395       81.06761
2017    28      6       0.4402635       94.79995
2017    28      7       0.4625837       97.3761
2017    29      0       0.3086149       71.69283
2017    29      1       0.2857976       67.73043
2017    29      2       0.2814105       67.02202
2017    29      3       0.2097417       52.8405
2017    29      4       0.1637928       43.07943
2017    29      5       0.1716117       44.86629
2017    29      6       0.3430697       78.4085
2017    29      7       0.3867389       85.56819
2017    30      0       0.4246773       92.11894
2017    30      1       0.2847359       67.58224
2017    30      2       0.2930113       69.12925
2017    30      3       0.3968396       87.57833
2017    30      4       0.443781        95.23143
2017    30      5       0.3712155       83.1039
2017    30      6       0.5140067       106.1679
2017    30      7       0.5152594       106.3048
2018    1       0       0.06787601      20.85509
2018    1       1       0.06707434      20.67395
2018    1       2       0.06835483      20.96493
2018    1       3       0.06952658      21.24095
2018    1       4       0.07176117      21.72804
2018    1       5       0.07373274      22.12959
2018    1       6       0.07418152      22.20581
2018    1       7       0.0710191       21.49098
2018    2       0       0.06334427      19.74867
2018    2       1       0.05775575      18.42942
2018    2       2       0.0598818       18.89124
2018    2       3       0.06074522      19.09327
2018    2       4       0.0638928       19.81659
2018    2       5       0.06831618      20.82678
2018    2       6       0.0723018       21.79706
2018    2       7       0.07452217      22.31108
2018    3       0       0.07756618      22.95459
2018    3       1       0.08735227      25.19236
2018    3       2       0.09054226      25.88524
2018    3       3       0.08479836      24.54635
2018    3       4       0.08916662      25.44437
2018    3       5       0.1115209       30.31947
2018    3       6       0.1179872       31.77798
2018    3       7       0.1331148       35.13917
2018    4       0       0.1618167       41.34752
2018    4       1       0.1414372       37.05023
2018    4       2       0.1160791       31.65104
2018    4       3       0.1136501       31.10537
2018    4       4       0.1240727       33.24557
2018    4       5       0.1302588       34.51776
2018    4       6       0.1162583       31.44919
2018    4       7       0.09447159      26.73012
2018    5       0       0.08518211      24.70643
2018    5       1       0.07340555      22.03701
2018    5       2       0.06653149      20.49757
2018    5       3       0.0643899       20.0626
2018    5       4       0.07786846      23.19823
2018    5       5       0.06867301      20.99659
2018    5       6       0.05395939      17.58713
2018    5       7       0.05593685      18.10852
2018    6       0       0.05486274      17.88385
2018    6       1       0.05371863      17.61771
2018    6       2       0.05059695      16.88678
2018    6       3       0.04898807      16.49749
2018    6       4       0.04790731      16.18702
2018    6       5       0.04921381      16.46848
2018    6       6       0.05132526      16.97991
2018    6       7       0.05884091      18.8463
2018    7       0       0.08672305      25.53752
2018    7       1       0.1108052       31.24974
2018    7       2       0.0997851       28.87792
2018    7       3       0.08467963      25.43168
2018    7       4       0.07737182      23.62988
2018    7       5       0.0742024       22.84449
2018    7       6       0.06998648      21.88406
2018    7       7       0.08127851      24.64722
2018    8       0       0.08096969      24.61171
2018    8       1       0.09288992      27.56571
2018    8       2       0.1006531       29.43845
2018    8       3       0.1164581       32.94875
2018    8       4       0.1089702       31.1232
2018    8       5       0.1109484       31.56053
2018    8       6       0.1137979       32.22533
2018    8       7       0.09268545      27.24522
2018    9       0       0.07481827      22.84519
2018    9       1       0.09573874      27.85754
2018    9       2       0.142664        38.49642
2018    9       3       0.1976188       50.23134
2018    9       4       0.1995141       50.72926
2018    9       5       0.2069712       52.26551
2018    9       6       0.2443176       59.42001
2018    9       7       0.2974244       69.44881
2018    10      0       0.2578027       62.33642
2018    10      1       0.2650574       63.9157
2018    10      2       0.264553        63.9334
2018    10      3       0.225828        56.46628
2018    10      4       0.2033033       52.08209
2018    10      5       0.2102824       53.48985
2018    10      6       0.2209191       55.51865
2018    10      7       0.2890167       68.75806
2018    11      0       0.4661174       99.10405
2018    11      1       0.5846932       117.164
2018    11      2       0.6005468       119.9342
2018    11      3       0.4086833       89.51405
2018    11      4       0.285514        67.70815
2018    11      5       0.2446725       59.69574
2018    11      6       0.1988019       50.24978
2018    11      7       0.165024        43.33935
2018    12      0       0.1596138       42.22733
2018    12      1       0.1715316       44.78173
2018    12      2       0.1711467       44.74175
2018    12      3       0.155278        41.43568
2018    12      4       0.1557764       41.46307
2018    12      5       0.1659417       43.42737
2018    12      6       0.1976003       49.93411
2018    12      7       0.2217964       55.02506
2018    13      0       0.2115176       53.13948
2018    13      1       0.2177027       54.37518
2018    13      2       0.2367363       57.91581
2018    13      3       0.3258154       74.64226
2018    13      4       0.2190028       54.33051
2018    13      5       0.1186609       32.67332
2018    13      6       0.08387474      24.87959
2018    13      7       0.1086376       30.6341
2018    14      0       0.2021639       50.77263
2018    14      1       0.3261405       74.7455
2018    14      2       0.3680432       82.43948
2018    14      3       0.17991         45.89658
2018    14      4       0.182783        46.71081
2018    14      5       0.1578918       41.50827
2018    14      6       0.1448284       38.63751
2018    14      7       0.185812        47.39181
2018    15      0       0.2045744       51.30019
2018    15      1       0.18482         47.13913
2018    15      2       0.1624119       42.47053
2018    15      3       0.146587        39.07098
2018    15      4       0.1521289       40.27814
2018    15      5       0.1624742       42.46353
2018    15      6       0.1619891       42.28905
2018    15      7       0.1644627       42.77382
2018    16      0       0.1696798       43.89143
2018    16      1       0.1750197       45.01059
2018    16      2       0.1768048       45.36507
2018    16      3       0.1860665       47.39356
2018    16      4       0.1932081       48.90161
2018    16      5       0.2181575       53.93451
2018    16      6       0.2735218       64.80877
2018    16      7       0.4064666       88.63986
2018    17      0       0.540586        110.5479
2018    17      1       0.5401126       110.9225
2018    17      2       0.444493        96.66647
2018    17      3       0.390129        87.23747
2018    17      4       0.4205303       91.67451
2018    17      5       0.3916334       86.24456
2018    17      6       0.3088925       72.11663
2018    17      7       0.3877416       85.30974
2018    18      0       0.333749        75.21433
2018    18      1       0.3231179       73.46742
2018    18      2       0.2495781       59.8482
2018    18      3       0.189013        48.03696
2018    18      4       0.1910564       48.57552
2018    18      5       0.1345408       36.62288
2018    18      6       0.09630293      27.93791
2018    18      7       0.1007567       28.74413
2018    19      0       0.1169606       32.3123
2018    19      1       0.1686246       43.83187
2018    19      2       0.2027351       51.21701
2018    19      3       0.2027941       51.19392
2018    19      4       0.2124567       53.22853
2018    19      5       0.2224269       55.29097
2018    19      6       0.240314        59.0039
2018    19      7       0.2399371       58.93517
2018    20      0       0.2730109       65.11315
2018    20      1       0.2995892       70.27424
2018    20      2       0.2567935       62.18493
2018    20      3       0.2424174       59.42656
2018    20      4       0.2485448       60.6509
2018    20      5       0.2278191       56.50167
2018    20      6       0.2403127       59.12531
2018    20      7       0.2430846       59.89718
2018    21      0       0.2690544       65.00801
2018    21      1       0.3780882       84.57221
2018    21      2       0.415539        91.3436
2018    21      3       0.5254919       109.1415
2018    21      4       0.5644384       115.1868
2018    21      5       0.4086893       90.43605
2018    21      6       0.2804256       67.06266
2018    21      7       0.3950252       88.03504
2018    22      0       0.346829        79.55911
2018    22      1       0.2110724       53.19237
2018    22      2       0.2986433       70.67851
2018    22      3       0.2482039       60.64063
2018    22      4       0.2044155       51.65625
2018    22      5       0.1913526       48.71409
2018    22      6       0.2012648       50.89287
2018    22      7       0.1161609       32.29335
2018    23      0       0.1088651       30.695
2018    23      1       0.1187186       32.98619
2018    23      2       0.134607        36.67558
2018    23      3       0.1347012       36.75545
2018    23      4       0.1595797       42.03248
2018    23      5       0.2168137       54.1657
2018    23      6       0.3110196       73.09514
2018    23      7       0.3672719       83.67544
2018    24      0       0.2820719       67.86891
2018    24      1       0.2273242       56.63177
2018    24      2       0.2115456       53.17996
2018    24      3       0.2097233       52.94612
2018    24      4       0.20615         52.05275
2018    24      5       0.2193279       54.76376
2018    24      6       0.3091059       72.00617
2018    24      7       0.3709726       83.15734
2018    25      0       0.3188322       73.89354
2018    25      1       0.1899974       49.19724
2018    25      2       0.2114025       53.48557
2018    25      3       0.3291561       76.40146
2018    25      4       0.1646051       43.63309
2018    25      5       0.1224938       34.01067
2018    25      6       0.1852145       47.72072
2018    25      7       0.2503697       62.11506
2018    26      0       0.3053846       73.23413
2018    26      1       0.2370867       60.4707
2018    26      2       0.2294157       58.61391
2018    26      3       0.3794794       87.46681
2018    26      4       0.3986462       90.72205
2018    26      5       0.3650393       84.59237
2018    26      6       0.3508164       81.89786
2018    26      7       0.3076466       73.93815
2018    27      0       0.3582853       83.39629
2018    27      1       0.3315517       78.26522
2018    27      2       0.3370792       79.39837
2018    27      3       0.3335159       78.94085
2018    27      4       0.2952177       71.66304
2018    27      5       0.2557894       63.61966
2018    27      6       0.2562771       64.17632
2018    27      7       0.2767892       68.39048
2018    28      0       0.3162826       75.68873
2018    28      1       0.3444003       80.28976
2018    28      2       0.307714        73.17091
2018    28      3       0.2499345       61.99571
2018    28      4       0.2912152       70.35347
2018    28      5       0.4047691       90.96814
2018    28      6       0.510211        107.8315
2018    28      7       0.3684418       84.86121
2018    29      0       0.1865015       49.31076
2018    29      1       0.2071467       53.49812
2018    29      2       0.2212153       56.10483
2018    29      3       0.1559375       41.96492
2018    29      4       0.1203806       33.91774
2018    29      5       0.102198        29.55194
2018    29      6       0.101646        29.36592
2018    29      7       0.1351359       37.06226
2018    30      0       0.171174        45.24032
2018    30      1       0.1896846       49.24325
2018    30      2       0.2033344       52.04484
2018    30      3       0.213677        54.22718
2018    30      4       0.203776        52.12526
2018    30      5       0.2229893       55.98972
2018    30      6       0.2260237       56.54895
2018    30      7       0.2417196       59.6382
