####################################################################################################
# Month: 04Apr                                                                                     #
# Station: BMAC                                                                                    #
# Frequency: 230 GHz                                                                               #
# Columns are: year    day     segment         tau     Tb (K)                                      #
####################################################################################################
2009    1       0       0.1109781       33.03272
2009    1       1       0.06702001      22.0038
2009    1       2       0.06537429      21.5313
2009    1       3       0.118157        34.7103
2009    1       4       0.2337743       60.81938
2009    1       5       0.2789019       70.26786
2009    1       6       0.2485114       64.19519
2009    1       7       0.2386343       62.06433
2009    2       0       0.252309        64.51519
2009    2       1       0.3136349       76.41865
2009    2       2       0.4050654       92.88752
2009    2       3       0.4583543       101.7473
2009    2       4       0.6616219       132.4277
2009    2       5       0.5662867       119.332
2009    2       6       0.4575569       101.8267
2009    2       7       0.3735615       87.02225
2009    3       0       0.3157724       76.35405
2009    3       1       0.2788155       69.04382
2009    3       2       0.2034847       53.57363
2009    3       3       0.1631474       45.03432
2009    3       4       0.1827507       49.56854
2009    3       5       0.1932096       52.03336
2009    3       6       0.1451627       41.05828
2009    3       7       0.1136151       33.49821
2009    4       0       0.1045582       31.2741
2009    4       1       0.1164664       34.15191
2009    4       2       0.1102263       32.67864
2009    4       3       0.1444043       40.86371
2009    4       4       0.2815983       70.58499
2009    4       5       0.3570388       85.20746
2009    4       6       0.3585671       85.30496
2009    4       7       0.3314414       80.05297
2009    5       0       0.3561374       84.25744
2009    5       1       0.436545        98.42605
2009    5       2       0.5150808       111.4167
2009    5       3       0.8601761       157.4086
2009    5       4       1.062591        177.7398
2009    5       5       0.7777864       147.6703
2009    5       6       0.5881804       123.0245
2009    5       7       0.4819735       106.634
2009    6       0       0.425743        97.12678
2009    6       1       0.4416134       99.68089
2009    6       2       0.5535779       117.5362
2009    6       3       0.6211129       126.6263
2009    6       4       0.8429799       155.4326
2009    6       5       0.5935609       124.9849
2009    6       6       0.3944003       92.30322
2009    6       7       0.1634746       45.31952
2009    7       0       0.1038658       31.20991
2009    7       1       0.1050755       31.49436
2009    7       2       0.08613937      26.75911
2009    7       3       0.151873        42.57407
2009    7       4       0.3317531       80.37947
2009    7       5       0.3327884       80.79309
2009    7       6       0.2375015       61.66215
2009    7       7       0.2333517       60.73196
2009    8       0       0.2738541       69.05751
2009    8       1       0.267305        67.74684
2009    8       2       0.2495736       64.07747
2009    8       3       0.3571683       84.41082
2009    8       4       0.4799914       105.2053
2009    8       5       0.4501544       100.6516
2009    8       6       0.4071833       93.25101
2009    8       7       0.5840308       122.1368
2009    9       0       0.5736769       120.7815
2009    9       1       0.5953145       123.8909
2009    9       2       0.5189201       112.2881
2009    9       3       0.5539483       116.9014
2009    9       4       0.8155908       151.7991
2009    9       5       0.9353192       165.3982
2009    9       6       0.6245521       127.3835
2009    9       7       0.3957203       91.56338
2009    10      0       0.215776        56.34986
2009    10      1       0.1369712       38.71708
2009    10      2       0.147155        41.18045
2009    10      3       0.1342296       38.19347
2009    10      4       0.1082235       31.79601
2009    10      5       0.1014049       30.08555
2009    10      6       0.09935931      29.43
2009    10      7       0.1187442       33.82036
2009    11      0       0.1528836       41.80569
2009    11      1       0.1789489       47.77313
2009    11      2       0.1940583       51.23854
2009    11      3       0.1811622       48.60206
2009    11      4       0.2217303       57.76768
2009    11      5       0.1978589       52.84649
2009    11      6       0.1189494       34.8329
2009    11      7       0.09151481      27.89248
2009    12      0       0.08927824      27.27477
2009    12      1       0.07484998      23.88514
2009    12      2       0.1079838       31.39748
2009    12      3       0.2577908       62.81498
2009    12      4       0.2316792       59.09706
2009    12      5       0.29818         73.21897
2009    12      6       0.1670343       45.95042
2009    12      7       0.07583313      23.74447
2009    13      0       0.1004797       30.09428
2009    13      1       0.1007116       30.20055
2009    13      2       0.1222783       35.24113
2009    13      3       0.2069429       54.10885
2009    13      4       0.2488685       62.86332
2009    13      5       0.1897996       50.79285
2009    13      6       0.1518868       42.53839
2009    13      7       0.1033666       31.18028
2009    14      0       0.09826124      29.94927
2009    14      1       0.07866989      25.09639
2009    14      2       0.06287501      21.05268
2009    14      3       0.06678051      22.05301
2009    14      4       0.09766877      29.84645
2009    14      5       0.1168295       34.54358
2009    14      6       0.09072435      28.08679
2009    14      7       0.07232526      23.37773
2009    15      0       0.05436119      18.72471
2009    15      1       0.04675093      16.72911
2009    15      2       0.05529268      19.01921
2009    15      3       0.07237812      23.44433
2009    15      4       0.1228208       35.82211
2009    15      5       0.1443989       40.86008
2009    15      6       0.1305762       37.62679
2009    15      7       0.1529732       42.82795
2009    16      0       0.1418405       40.21108
2009    16      1       0.1288762       37.13448
2009    16      2       0.1339627       38.29954
2009    16      3       0.137001        38.9742
2009    16      4       0.1423594       40.20974
2009    16      5       0.1525979       42.50582
2009    16      6       0.1448008       40.56377
2009    16      7       0.155147        42.84702
2009    17      0       0.1817157       48.69201
2009    17      1       0.2129772       55.51416
2009    17      2       0.2456368       62.33876
2009    17      3       0.2721075       67.64894
2009    17      4       0.3063929       74.52075
2009    17      5       0.3323749       79.62527
2009    17      6       0.275154        68.75805
2009    17      7       0.2146042       56.22712
2009    18      0       0.2739097       68.63483
2009    18      1       0.3328243       80.18287
2009    18      2       0.2850271       70.75858
2009    18      3       0.2589892       65.39373
2009    18      4       0.4179258       94.44058
2009    18      5       0.5354875       113.6874
2009    18      6       0.4703162       103.8052
2009    18      7       0.4321013       97.41705
2009    19      0       0.3309509       79.53835
2009    19      1       0.226944        58.69912
2009    19      2       0.1263812       36.20532
2009    19      3       0.2316577       59.97877
2009    19      4       0.3021364       74.30145
2009    19      5       0.3036388       74.4786
2009    19      6       0.2631137       66.18358
2009    19      7       0.2419596       61.62837
2009    20      0       0.2338554       60.19874
2009    20      1       0.1854065       49.63676
2009    20      2       0.2151932       55.35159
2009    20      3       0.2989526       72.60215
2009    20      4       0.4875839       105.8053
2009    20      5       0.3723564       85.95198
2009    20      6       0.2498489       61.78328
2009    20      7       0.3296759       76.69296
2009    21      0       0.4167599       92.38728
2009    21      1       0.4037113       90.09019
2009    21      2       0.3730498       84.38875
2009    21      3       0.3849272       86.23005
2009    21      4       0.4690402       100.4366
2009    21      5       0.5729044       117.0469
2009    21      6       0.5855178       120.0079
2009    21      7       0.5383738       113.5558
2009    22      0       0.3913407       89.93619
2009    22      1       0.3470646       82.10143
2009    22      2       0.261742        65.50461
2009    22      3       0.3555605       82.70776
2009    22      4       0.4676255       101.9852
2009    22      5       0.4697338       103.0167
2009    22      6       0.5051939       108.7291
2009    22      7       0.454618        100.6772
2009    23      0       0.366027        85.34059
2009    23      1       0.3342766       79.20576
2009    23      2       0.4111587       93.44619
2009    23      3       0.4270269       96.06349
2009    23      4       0.5404997       114.1285
2009    23      5       0.3861584       88.91059
2009    23      6       0.4494726       99.19078
2009    23      7       0.5399896       113.9187
2009    24      0       0.3727038       86.50352
2009    24      1       0.1908027       50.64246
2009    24      2       0.2066308       53.90393
2009    24      3       0.4065139       91.90337
2009    24      4       0.5602595       117.0933
2009    24      5       0.5169026       110.8438
2009    24      6       0.4815877       105.8254
2009    24      7       0.4718338       104.3847
2009    25      0       0.4088428       94.28236
2009    25      1       0.6537871       132.6762
2009    25      2       0.2684108       67.22596
2009    25      3       0.526155        110.7853
2009    25      4       0.6375236       126.5437
2009    25      5       0.5691726       117.551
2009    25      6       0.3695477       85.08326
2009    25      7       0.2713286       66.56314
2009    26      0       0.3036411       72.60933
2009    26      1       0.4538981       98.73837
2009    26      2       0.4314219       94.89253
2009    26      3       0.4155926       92.75336
2009    26      4       0.4604747       101.08
2009    26      5       0.3532498       83.00741
2009    26      6       0.1925147       50.98447
2009    26      7       0.1528526       42.36172
2009    27      0       0.1843408       49.45314
2009    27      1       0.1997108       52.73048
2009    27      2       0.1494005       41.52337
2009    27      3       0.1343553       38.07554
2009    27      4       0.204528        53.53
2009    27      5       0.2236254       57.67639
2009    27      6       0.1779648       47.42989
2009    27      7       0.1138753       32.88023
2009    28      0       0.09435698      27.84152
2009    28      1       0.06555208      20.98456
2009    28      2       0.07386406      22.99852
2009    28      3       0.0906411       27.08768
2009    28      4       0.1871974       49.39945
2009    28      5       0.2746442       67.59086
2009    28      6       0.2339532       59.45487
2009    28      7       0.2987593       72.8878
2009    29      0       0.3111728       75.71819
2009    29      1       0.3260686       78.45692
2009    29      2       0.4857626       106.281
2009    29      3       0.4784987       105.3251
2009    29      4       0.501946        109.2052
2009    29      5       0.6402971       128.9035
2009    29      6       0.612372        124.6226
2009    29      7       0.4654394       103.1484
2009    30      0       0.5352219       115.1024
2009    30      1       0.5309232       113.7842
2009    30      2       0.6554786       131.2426
2009    30      3       0.2481216       62.47301
2009    30      4       0.1358187       38.45272
2009    30      5       0.1473899       41.18825
2009    30      6       0.1107243       32.70286
2009    30      7       0.06433852      21.3495
2010    1       0       0.6516619       129.7738
2010    1       1       0.8481045       154.6918
2010    1       2       0.9321211       163.77
2010    1       3       1.065272        178.4776
2010    1       4       0.9305141       165.2005
2010    1       5       0.6247861       128.8986
2010    1       6       0.3572608       85.35152
2010    1       7       0.1769949       48.41092
2010    2       0       0.159382        44.46067
2010    2       1       0.1512967       42.60693
2010    2       2       0.1506346       42.4874
2010    2       3       0.2113309       56.12706
2010    2       4       0.3064489       75.96862
2010    2       5       0.4372791       100.2118
2010    2       6       0.3923912       92.08033
2010    2       7       0.3359936       81.47462
2010    3       0       0.356242        85.17721
2010    3       1       0.3890522       91.1663
2010    3       2       0.3900477       91.28543
2010    3       3       0.3879855       90.8598
2010    3       4       0.4663442       104.6627
2010    3       5       0.4447177       101.0751
2010    3       6       0.4583464       103.2987
2010    3       7       0.4721482       105.5816
2010    4       0       0.4554161       102.6959
2010    4       1       0.4576645       102.8443
2010    4       2       0.4241703       97.22776
2010    4       3       0.8670824       158.2251
2010    4       4       1.150017        184.9742
2010    4       5       1.187667        189.3309
2010    4       6       0.7815756       147.9385
2010    4       7       0.8509439       157.7556
2010    5       0       0.8939398       161.2741
2010    5       1       1.00179         172.9223
2010    5       2       0.8007205       151.1456
2010    5       3       0.7316905       141.748
2010    5       4       0.9545743       167.8234
2010    5       5       0.7503339       144.8771
2010    5       6       0.5655464       119.7359
2010    5       7       0.5684073       120.2558
2010    6       0       0.7999553       151.3912
2010    6       1       0.5593982       118.3568
2010    6       2       0.4259557       96.93795
2010    6       3       0.6019269       123.3563
2010    6       4       0.6817337       135.1564
2010    6       5       0.471141        103.9647
2010    6       6       0.5246175       113.5415
2010    6       7       0.5285856       113.6071
2010    7       0       0.4059826       93.84437
2010    7       1       0.2280893       59.63038
2010    7       2       0.1780552       48.67693
2010    7       3       0.2537526       65.22597
2010    7       4       0.2402877       62.30864
2010    7       5       0.2081034       55.38134
2010    7       6       0.1850993       50.19311
2010    7       7       0.1315847       37.87724
2010    8       0       0.09895686      30.0991
2010    8       1       0.07284574      23.64151
2010    8       2       0.06252073      21.03171
2010    8       3       0.06798684      22.47276
2010    8       4       0.114085        33.9971
2010    8       5       0.1059298       32.04565
2010    8       6       0.06216137      20.97537
2010    8       7       0.03569324      13.86354
2010    9       0       0.03039818      12.35123
2010    9       1       0.03017911      12.15414
2010    9       2       0.03480898      13.4244
2010    9       3       0.0454319       16.45108
2010    9       4       0.1372321       39.6062
2010    9       5       0.2461991       63.64803
2010    9       6       0.2680199       67.77095
2010    9       7       0.2506424       64.26933
2010    10      0       0.1970267       52.84957
2010    10      1       0.1212546       34.82793
2010    10      2       0.1714557       45.74188
2010    10      3       0.08637486      26.84685
2010    10      4       0.06564293      21.49756
2010    10      5       0.07910295      24.67576
2010    10      6       0.0868317       26.83718
2010    10      7       0.1289346       36.61645
2010    11      0       0.1346935       38.02369
2010    11      1       0.127126        36.54685
2010    11      2       0.1821382       49.06506
2010    11      3       0.2830658       70.25075
2010    11      4       0.3035686       74.48305
2010    11      5       0.309233        75.63961
2010    11      6       0.3562282       85.34625
2010    11      7       0.3984993       93.61874
2010    12      0       0.2657996       67.99921
2010    12      1       0.2029493       54.61295
2010    12      2       0.1644822       46.02717
2010    12      3       0.1223211       36.0033
2010    12      4       0.1166525       34.61063
2010    12      5       0.1079397       32.52884
2010    12      6       0.07467103      24.16856
2010    12      7       0.0674344       22.25349
2010    13      0       0.06329391      21.1219
2010    13      1       0.06324474      21.10466
2010    13      2       0.06507605      21.59063
2010    13      3       0.07035792      22.97768
2010    13      4       0.09084576      28.25396
2010    13      5       0.09368877      28.99088
2010    13      6       0.08254696      26.16686
2010    13      7       0.07407139      24.02711
2010    14      0       0.08183563      25.99809
2010    14      1       0.09902503      30.29292
2010    14      2       0.09859589      30.10258
2010    14      3       0.09488063      29.15694
2010    14      4       0.1520379       42.98064
2010    14      5       0.1839425       50.28296
2010    14      6       0.1700639       47.13723
2010    14      7       0.1579194       44.38998
2010    15      0       0.1427088       40.83697
2010    15      1       0.1245586       36.3685
2010    15      2       0.1383841       39.58127
2010    15      3       0.1800708       49.18843
2010    15      4       0.2957439       73.54576
2010    15      5       0.401485        93.29167
2010    15      6       0.3872627       90.69149
2010    15      7       0.3970286       92.18373
2010    16      0       0.4163618       95.25592
2010    16      1       0.4994183       108.9551
2010    16      2       0.7290182       140.9175
2010    16      3       0.9932424       170.3029
2010    16      4       1.236899        192.3143
2010    16      5       1.077366        178.5398
2010    16      6       0.77509         144.6348
2010    16      7       0.5112638       109.6284
2010    17      0       0.4594536       101.9358
2010    17      1       0.4879786       106.1335
2010    17      2       0.4338315       97.35667
2010    17      3       0.7646855       144.0037
2010    17      4       0.9715158       167.1021
2010    17      5       0.9390696       164.0861
2010    17      6       0.8502473       155.0667
2010    17      7       0.5179919       110.4702
2010    18      0       0.5428435       115.5784
2010    18      1       0.3487754       83.05833
2010    18      2       0.1846187       49.84865
2010    18      3       0.146508        41.33147
2010    18      4       0.1767528       48.02242
2010    18      5       0.2254345       58.56149
2010    18      6       0.3049066       74.48536
2010    18      7       0.2615389       66.13019
2010    19      0       0.4247713       96.65667
2010    19      1       0.4991636       108.9743
2010    19      2       0.4535262       99.26946
2010    19      3       0.4815669       104.7174
2010    19      4       0.5137517       109.6535
2010    19      5       0.5913383       120.6293
2010    19      6       0.450083        99.26986
2010    19      7       0.3020043       73.2612
2010    20      0       0.1641154       44.65393
2010    20      1       0.08789999      26.79206
2010    20      2       0.0873527       26.56189
2010    20      3       0.2028092       52.84101
2010    20      4       0.4612182       101.0822
2010    20      5       0.3258512       77.27839
2010    20      6       0.1628497       44.27375
2010    20      7       0.07755799      24.40685
2010    21      0       0.05398522      18.43487
2010    21      1       0.04758933      16.58362
2010    21      2       0.05607071      18.54841
2010    21      3       0.07411904      22.84264
2010    21      4       0.1102127       31.78171
2010    21      5       0.1528578       41.64574
2010    21      6       0.1395489       38.2347
2010    21      7       0.1115695       31.69219
2010    22      0       0.1615012       43.14366
2010    22      1       0.166558        44.25823
2010    22      2       0.141949        39.00325
2010    22      3       0.1208381       34.78051
2010    22      4       0.1106449       32.40848
2010    22      5       0.08194751      25.47975
2010    22      6       0.04320495      15.61814
2010    22      7       0.04263514      15.33814
2010    23      0       0.04537911      15.94875
2010    23      1       0.04545823      15.88948
2010    23      2       0.04897428      16.66926
2010    23      3       0.05455138      17.97181
2010    23      4       0.05802033      18.93218
2010    23      5       0.06608312      21.01767
2010    23      6       0.05709691      18.82811
2010    23      7       0.05419153      18.13913
2010    24      0       0.05680729      18.7752
2010    24      1       0.06007148      19.57037
2010    24      2       0.06323675      20.19078
2010    24      3       0.05382942      18.10642
2010    24      4       0.1123721       32.51587
2010    24      5       0.1532108       42.08625
2010    24      6       0.1200642       34.68376
2010    24      7       0.06399977      21.08332
2010    25      0       0.05353147      18.42419
2010    25      1       0.05707472      19.2588
2010    25      2       0.05991026      19.94122
2010    25      3       0.06310531      20.78648
2010    25      4       0.1136982       33.30846
2010    25      5       0.1941138       51.68031
2010    25      6       0.1583554       43.75563
2010    25      7       0.1018227       30.49612
2010    26      0       0.06638371      21.73498
2010    26      1       0.05522473      18.82301
2010    26      2       0.05088534      17.71226
2010    26      3       0.04882538      17.18297
2010    26      4       0.07741025      24.64159
2010    26      5       0.1357312       38.81496
2010    26      6       0.111487        33.03815
2010    26      7       0.05915599      20.01377
2010    27      0       0.06162874      20.65303
2010    27      1       0.05385757      18.64494
2010    27      2       0.08629904      26.55961
2010    27      3       0.2246797       57.4823
2010    27      4       0.6606681       132.1123
2010    27      5       0.8318029       152.9298
2010    27      6       0.6511684       130.2427
2010    27      7       0.5704071       118.8169
2010    28      0       0.4713867       103.6365
2010    28      1       0.3056978       74.39259
2010    28      2       0.2596418       65.21361
2010    28      3       0.4254972       95.78786
2010    28      4       0.5889112       122.1526
2010    28      5       0.4909141       107.4463
2010    28      6       0.5560502       117.288
2010    28      7       0.4566279       101.5995
2010    29      0       0.3335088       79.90815
2010    29      1       0.2605597       65.41853
2010    29      2       0.2574318       64.60455
2010    29      3       0.4721667       104.0469
2010    29      4       0.6356249       128.3516
2010    29      5       0.5686087       118.7932
2010    29      6       0.3633213       84.99107
2010    29      7       0.2886233       70.77778
2010    30      0       0.247336        62.58826
2010    30      1       0.2056558       53.93071
2010    30      2       0.1537698       42.48887
2010    30      3       0.1952936       51.81998
2010    30      4       0.2520941       63.91125
2010    30      5       0.2642345       66.49258
2010    30      6       0.2643379       66.38196
2010    30      7       0.2168814       56.56396
2011    1       0       0.5204302       113.2746
2011    1       1       0.4644114       104.0076
2011    1       2       0.445616        100.6044
2011    1       3       0.6006183       124.8177
2011    1       4       1.041876        176.9747
2011    1       5       1.065817        178.7119
2011    1       6       0.936757        166.5912
2011    1       7       0.7155146       141.2267
2011    2       0       0.6433143       131.0731
2011    2       1       0.5768192       120.9944
2011    2       2       0.4514025       101.6739
2011    2       3       0.4114673       95.72407
2011    2       4       0.5704299       121.1582
2011    2       5       0.6725462       135.7094
2011    2       6       0.4563648       102.7904
2011    2       7       0.3435391       82.40093
2011    3       0       0.3391131       81.33166
2011    3       1       0.4106772       94.29916
2011    3       2       0.3264141       78.08461
2011    3       3       0.29684         71.85323
2011    3       4       0.3430265       81.24007
2011    3       5       0.299862        72.80579
2011    3       6       0.1883418       49.73708
2011    3       7       0.08354613      25.95254
2011    4       0       0.05098947      17.67585
2011    4       1       0.04393221      15.68096
2011    4       2       0.03782247      14.15342
2011    4       3       0.04333122      15.6957
2011    4       4       0.09807879      29.67393
2011    4       5       0.1236945       35.93024
2011    4       6       0.06418501      21.21434
2011    4       7       0.05014502      17.48204
2011    5       0       0.05974736      19.99341
2011    5       1       0.08947638      27.55147
2011    5       2       0.08930478      27.50141
2011    5       3       0.2816167       70.52466
2011    5       4       0.6695917       133.6415
2011    5       5       0.649963        130.6652
2011    5       6       0.5633634       118.3621
2011    5       7       0.6849713       134.6647
2011    6       0       0.6024672       123.4164
2011    6       1       0.5608866       116.9692
2011    6       2       0.5038776       108.5279
2011    6       3       0.7934504       148.9897
2011    6       4       0.9272583       163.9766
2011    6       5       0.7928069       149.3942
2011    6       6       0.6198937       127.4787
2011    6       7       0.2857563       71.00606
2011    7       0       0.1523941       42.33766
2011    7       1       0.2726438       67.83298
2011    7       2       0.2463553       62.54917
2011    7       3       0.2663385       66.69403
2011    7       4       0.4056051       93.28437
2011    7       5       0.2507356       63.22126
2011    7       6       0.1617456       43.88881
2011    7       7       0.1242721       35.34774
2011    8       0       0.1166793       33.57755
2011    8       1       0.1215834       34.62606
2011    8       2       0.124453        35.22241
2011    8       3       0.1348554       37.63504
2011    8       4       0.2725555       67.53541
2011    8       5       0.2674245       66.72868
2011    8       6       0.1105149       32.0635
2011    8       7       0.09482991      28.52732
2011    9       0       0.1640705       44.87879
2011    9       1       0.3151846       76.68434
2011    9       2       0.2068748       54.37498
2011    9       3       0.2378046       60.95943
2011    9       4       0.4320062       97.16907
2011    9       5       0.5281432       112.995
2011    9       6       0.5348617       113.4779
2011    9       7       0.5332286       112.7893
2011    10      0       0.7407789       142.172
2011    10      1       0.4950612       107.7894
2011    10      2       0.1708766       46.73429
2011    10      3       0.1346897       38.46067
2011    10      4       0.2150145       56.46287
2011    10      5       0.2227216       58.17315
2011    10      6       0.1295345       37.02489
2011    10      7       0.09808591      29.27239
2011    11      0       0.07889599      24.45038
2011    11      1       0.07245031      22.91023
2011    11      2       0.07724522      24.17038
2011    11      3       0.107123        31.15442
2011    11      4       0.1684251       45.43672
2011    11      5       0.1699597       45.73346
2011    11      6       0.160986        43.28196
2011    11      7       0.1806324       47.87024
2011    12      0       0.2384944       60.18927
2011    12      1       0.3144937       75.15892
2011    12      2       0.3757301       86.64025
2011    12      3       0.4907011       105.8831
2011    12      4       0.7422973       141.8078
2011    12      5       0.9003438       161.2699
2011    12      6       0.7173102       140.0194
2011    12      7       0.6517387       131.554
2011    13      0       0.5836611       122.0178
2011    13      1       0.711731        139.2313
2011    13      2       0.9955658       171.3674
2011    13      3       0.9839151       169.8068
2011    13      4       1.133586        183.8922
2011    13      5       0.9308278       164.7888
2011    13      6       0.7310861       142.2894
2011    13      7       0.5308152       114.4892
2011    14      0       0.4310881       98.08313
2011    14      1       0.3339537       80.34812
2011    14      2       0.314797        76.76629
2011    14      3       0.3663735       86.69117
2011    14      4       0.6162629       127.3703
2011    14      5       0.6730342       135.409
2011    14      6       0.4576191       102.8715
2011    14      7       0.2390297       61.62473
2011    15      0       0.1511787       42.28261
2011    15      1       0.103456        30.92563
2011    15      2       0.08531344      26.38738
2011    15      3       0.1251679       36.05275
2011    15      4       0.2092502       55.03649
2011    15      5       0.287894        71.25187
2011    15      6       0.2718933       67.88459
2011    15      7       0.2555349       64.25951
2011    16      0       0.314681        75.57731
2011    16      1       0.3556226       82.70435
2011    16      2       0.4017509       90.60906
2011    16      3       0.5372491       112.2255
2011    16      4       0.7749205       145.2265
2011    16      5       0.8226815       150.8187
2011    16      6       0.4751873       103.7846
2011    16      7       0.2865731       70.1178
2011    17      0       0.2129256       54.98938
2011    17      1       0.1793456       47.52606
2011    17      2       0.1840459       48.62869
2011    17      3       0.1998356       52.04181
2011    17      4       0.2677621       65.98628
2011    17      5       0.3488533       81.21907
2011    17      6       0.3090389       74.19757
2011    17      7       0.2976243       72.19239
2011    18      0       0.3165109       75.83545
2011    18      1       0.3436433       80.91273
2011    18      2       0.3125036       75.28183
2011    18      3       0.3813109       88.27046
2011    18      4       0.5877967       121.0711
2011    18      5       0.5744388       119.3096
2011    18      6       0.3100259       75.25644
2011    18      7       0.1470656       41.00206
2011    19      0       0.1200664       34.70546
2011    19      1       0.1248949       35.82492
2011    19      2       0.08559954      26.43448
2011    19      3       0.1712293       46.69908
2011    19      4       0.3153579       76.56023
2011    19      5       0.3165481       76.71982
2011    19      6       0.2482142       63.05045
2011    19      7       0.2419645       61.65186
2011    20      0       0.2240358       57.94014
2011    20      1       0.1534509       42.1921
2011    20      2       0.1697152       45.59561
2011    20      3       0.5177541       110.9198
2011    20      4       0.5801707       119.3289
2011    20      5       0.5180388       110.9164
2011    20      6       0.33779         80.62712
2011    20      7       0.3066268       74.52459
2011    21      0       0.2810207       69.18797
2011    21      1       0.4795246       104.1606
2011    21      2       0.1322426       37.3634
2011    21      3       0.1499156       41.88206
2011    21      4       0.04512686      16.22713
2011    21      5       0.04145528      15.20727
2011    21      6       0.04971247      17.23218
2011    21      7       0.05373795      18.22377
2011    22      0       0.04972876      17.26524
2011    22      1       0.04688196      16.49837
2011    22      2       0.03618718      13.73532
2011    22      3       0.03201779      12.67262
2011    22      4       0.04046432      15.05379
2011    22      5       0.05770033      19.56149
2011    22      6       0.1017324       29.29526
2011    22      7       0.1408508       38.27423
2011    23      0       0.1899023       49.63069
2011    23      1       0.2749443       67.80685
2011    23      2       0.3291639       78.59517
2011    23      3       0.5112929       109.8615
2011    23      4       0.7326531       140.5951
2011    23      5       0.8388235       153.948
2011    23      6       0.7427509       142.6997
2011    23      7       0.6724266       134.9104
2011    24      0       0.4912964       108.4919
2011    24      1       0.286671        71.4415
2011    24      2       0.1860153       50.2285
2011    24      3       0.160842        44.59945
2011    24      4       0.4659632       103.8806
2011    24      5       0.4087637       94.37716
2011    24      6       0.4656286       103.9979
2011    24      7       0.4812559       106.3326
2011    25      0       0.3195802       77.70966
2011    25      1       0.1554528       43.40355
2011    25      2       0.1059007       31.64332
2011    25      3       0.2820545       70.347
2011    25      4       0.6677385       133.1253
2011    25      5       0.6282931       127.6105
2011    25      6       0.4149761       94.13079
2011    25      7       0.2917369       71.99268
2011    26      0       0.2228446       57.94846
2011    26      1       0.1127412       32.99942
2011    26      2       0.07409558      23.51828
2011    26      3       0.07543822      23.79247
2011    26      4       0.1365736       38.42423
2011    26      5       0.1266157       35.98712
2011    26      6       0.09392698      28.10995
2011    26      7       0.08880342      27.13369
2011    27      0       0.0441673       16.033
2011    27      1       0.02747719      11.42671
2011    27      2       0.04639948      16.42297
2011    27      3       0.07041476      22.51453
2011    27      4       0.05413714      18.43599
2011    27      5       0.04475853      16.03781
2011    27      6       0.04030171      14.8297
2011    27      7       0.0501339       17.36681
2011    28      0       0.06681968      21.59388
2011    28      1       0.07583832      23.85522
2011    28      2       0.05420007      18.49254
2011    28      3       0.04044666      14.87228
2011    28      4       0.04338258      15.66688
2011    28      5       0.04538998      16.13897
2011    28      6       0.04515472      16.02378
2011    28      7       0.03759187      14.11116
2011    29      0       0.03108717      12.40387
2011    29      1       0.0310404       12.39623
2011    29      2       0.03323265      12.99584
2011    29      3       0.03802891      14.32703
2011    29      4       0.05194259      17.97408
2011    29      5       0.07561722      23.87496
2011    29      6       0.08679568      26.58256
2011    29      7       0.08039917      24.94138
2011    30      0       0.07997578      24.7777
2011    30      1       0.07487951      23.61041
2011    30      2       0.0670017       21.71698
2011    30      3       0.06439387      21.0692
2011    30      4       0.09860023      29.47898
2011    30      5       0.1047587       31.00147
2011    30      6       0.05560577      18.96356
2011    30      7       0.04370074      15.90077
2012    1       0       0.144031        40.33341
2012    1       1       0.08665844      26.57338
2012    1       2       0.09248943      28.02955
2012    1       3       0.124241        35.73344
2012    1       4       0.1325937       37.79
2012    1       5       0.09521277      28.93243
2012    1       6       0.07762121      24.5684
2012    1       7       0.07096683      22.88931
2012    2       0       0.06663002      21.74451
2012    2       1       0.06396474      20.96761
2012    2       2       0.060795        20.13718
2012    2       3       0.06490584      21.17684
2012    2       4       0.1058463       31.39553
2012    2       5       0.1457807       40.69444
2012    2       6       0.1180669       34.18001
2012    2       7       0.1163761       33.76356
2012    3       0       0.09077087      27.55934
2012    3       1       0.0706397       22.66987
2012    3       2       0.07093556      22.84343
2012    3       3       0.08040917      25.31686
2012    3       4       0.1652294       45.55118
2012    3       5       0.2084371       55.11458
2012    3       6       0.1804347       48.90845
2012    3       7       0.1416212       40.07199
2012    4       0       0.1203788       35.13633
2012    4       1       0.1086925       32.2934
2012    4       2       0.1140573       33.57903
2012    4       3       0.1562932       43.47629
2012    4       4       0.2265292       58.97186
2012    4       5       0.2720588       68.37114
2012    4       6       0.2246032       58.57359
2012    4       7       0.2074068       54.83565
2012    5       0       0.2210188       57.6691
2012    5       1       0.2157257       56.43506
2012    5       2       0.2149331       56.20605
2012    5       3       0.2235053       58.03384
2012    5       4       0.3430323       81.92919
2012    5       5       0.3189035       77.54691
2012    5       6       0.2934013       72.48829
2012    5       7       0.2714624       67.97767
2012    6       0       0.2634153       66.35474
2012    6       1       0.2675675       67.07589
2012    6       2       0.2712282       67.72758
2012    6       3       0.3811261       88.77871
2012    6       4       0.5724319       120.3157
2012    6       5       0.4504401       100.9584
2012    6       6       0.3304986       79.54557
2012    6       7       0.2325676       60.09429
2012    7       0       0.1694354       46.40989
2012    7       1       0.1114615       32.96258
2012    7       2       0.1065255       31.71543
2012    7       3       0.1582043       43.82019
2012    7       4       0.2444596       62.69765
2012    7       5       0.297517        73.30129
2012    7       6       0.3721181       87.22287
2012    7       7       0.456298        102.3175
2012    8       0       0.3629703       85.73402
2012    8       1       0.2219573       57.92374
2012    8       2       0.149726        41.93201
2012    8       3       0.09687357      29.37817
2012    8       4       0.1012379       30.25683
2012    8       5       0.1264765       36.12072
2012    8       6       0.116382        33.58052
2012    8       7       0.1227935       35.13412
2012    9       0       0.1249897       35.63348
2012    9       1       0.132074        37.08349
2012    9       2       0.1626569       43.60892
2012    9       3       0.4376395       95.94354
2012    9       4       0.4128276       90.38787
2012    9       5       0.2496539       61.38755
2012    9       6       0.1837598       47.80232
2012    9       7       0.1238088       34.59233
2012    10      0       0.131347        36.18943
2012    10      1       0.210037        53.6178
2012    10      2       0.3350789       79.31617
2012    10      3       0.3279765       78.47078
2012    10      4       0.2030524       53.60154
2012    10      5       0.08372884      26.00151
2012    10      6       0.06384302      20.80039
2012    10      7       0.06677221      21.47108
2012    11      0       0.0637472       20.7238
2012    11      1       0.09054106      26.97908
2012    11      2       0.09960319      29.36993
2012    11      3       0.1204688       34.48409
2012    11      4       0.1107445       32.37588
2012    11      5       0.1063053       31.11655
2012    11      6       0.08265816      25.2496
2012    11      7       0.08586529      26.01049
2012    12      0       0.08746357      26.47731
2012    12      1       0.08756411      26.59512
2012    12      2       0.08713463      26.50616
2012    12      3       0.08334349      25.66553
2012    12      4       0.09822638      29.35066
2012    12      5       0.1048417       30.95712
2012    12      6       0.1043219       30.84678
2012    12      7       0.1119578       32.62829
2012    13      0       0.1200225       34.50042
2012    13      1       0.1223092       35.05447
2012    13      2       0.1138233       33.15842
2012    13      3       0.1067207       31.52092
2012    13      4       0.1236187       35.53239
2012    13      5       0.1386587       39.13538
2012    13      6       0.1287634       36.92986
2012    13      7       0.1168557       34.16461
2012    14      0       0.1096831       32.43673
2012    14      1       0.111405        32.83568
2012    14      2       0.1145758       33.60562
2012    14      3       0.1162597       34.0217
2012    14      4       0.1610258       44.45854
2012    14      5       0.2068147       54.5507
2012    14      6       0.1732676       47.0369
2012    14      7       0.1026862       30.28123
2012    15      0       0.1244075       35.32887
2012    15      1       0.2856655       70.10924
2012    15      2       0.3009528       73.10655
2012    15      3       0.2645625       66.25421
2012    15      4       0.5696821       118.6111
2012    15      5       0.8252328       152.2629
2012    15      6       0.5224567       112.1582
2012    15      7       0.4207438       95.89592
2012    16      0       0.3205125       77.70376
2012    16      1       0.264755        66.64829
2012    16      2       0.2344375       60.36057
2012    16      3       0.3965175       91.69017
2012    16      4       0.5234612       112.0715
2012    16      5       0.5702136       118.7385
2012    16      6       0.5045222       109.1019
2012    16      7       0.4138375       93.84607
2012    17      0       0.3312667       78.85097
2012    17      1       0.3264381       77.95173
2012    17      2       0.3039474       73.59517
2012    17      3       0.5693901       117.9623
2012    17      4       0.7177065       137.6408
2012    17      5       0.5878188       120.3504
2012    17      6       0.3952458       90.17811
2012    17      7       0.2889581       70.50649
2012    18      0       0.2687987       66.3794
2012    18      1       0.2376425       60.2398
2012    18      2       0.2351479       59.67465
2012    18      3       0.5886451       121.0537
2012    18      4       0.4600515       101.5544
2012    18      5       0.2573713       65.00519
2012    18      6       0.1037188       30.76861
2012    18      7       0.07749124      24.04295
2012    19      0       0.07987656      24.41954
2012    19      1       0.1030493       29.83748
2012    19      2       0.1304047       36.14784
2012    19      3       0.1370043       37.63209
2012    19      4       0.1406254       38.42857
2012    19      5       0.1531248       41.15099
2012    19      6       0.1568594       42.16298
2012    19      7       0.1581957       42.46335
2012    20      0       0.1425709       38.92013
2012    20      1       0.1292612       36.15394
2012    20      2       0.100244        29.76129
2012    20      3       0.1140096       33.20906
2012    20      4       0.1866425       49.75067
2012    20      5       0.2195029       56.79305
2012    20      6       0.2531383       63.48269
2012    20      7       0.3716779       85.94307
2012    21      0       0.3881872       89.1037
2012    21      1       0.3878797       89.2079
2012    21      2       0.3858475       88.81224
2012    21      3       0.4064948       92.3336
2012    21      4       0.4446461       98.61647
2012    21      5       0.4244513       95.15923
2012    21      6       0.4336997       96.53837
2012    21      7       0.4489699       98.95064
2012    22      0       0.6268553       125.8312
2012    22      1       0.5641805       117.2846
2012    22      2       0.4944521       106.1158
2012    22      3       0.4628805       101.4745
2012    22      4       0.8185604       149.4981
2012    22      5       0.8730564       155.5775
2012    22      6       0.591171        120.9742
2012    22      7       0.45133         99.66253
2012    23      0       0.3665114       84.95785
2012    23      1       0.2501222       62.58094
2012    23      2       0.1469398       40.46695
2012    23      3       0.1448158       39.98989
2012    23      4       0.2566751       63.95815
2012    23      5       0.1250577       35.69945
2012    23      6       0.068065        21.95587
2012    23      7       0.06113701      20.15143
2012    24      0       0.06811529      21.884
2012    24      1       0.06205924      20.32541
2012    24      2       0.05725289      19.07444
2012    24      3       0.06428651      20.82916
2012    24      4       0.1535702       42.2744
2012    24      5       0.1730713       46.73238
2012    24      6       0.1062004       31.31546
2012    24      7       0.07858877      24.47342
2012    25      0       0.06877563      21.77163
2012    25      1       0.07991267      24.58301
2012    25      2       0.124506        35.13086
2012    25      3       0.1756965       46.88685
2012    25      4       0.3159559       76.1206
2012    25      5       0.370734        86.42527
2012    25      6       0.3254659       77.67241
2012    25      7       0.3030031       73.15158
2012    26      0       0.342374        80.29153
2012    26      1       0.4037726       92.14534
2012    26      2       0.4274634       96.10147
2012    26      3       0.516368        111.246
2012    26      4       0.6400712       129.937
2012    26      5       0.545757        116.0969
2012    26      6       0.409579        93.90657
2012    26      7       0.2799089       69.69516
2012    27      0       0.3290057       78.89522
2012    27      1       0.418136        96.04382
2012    27      2       0.2897511       71.85051
2012    27      3       0.06548206      21.42589
2012    27      4       0.07570908      24.02671
2012    27      5       0.09430973      28.40903
2012    27      6       0.1132001       32.66078
2012    27      7       0.1053744       31.03384
2012    28      0       0.1074994       31.47271
2012    28      1       0.1243731       35.12281
2012    28      2       0.1648302       43.52968
2012    28      3       0.2062333       52.2921
2012    28      4       0.1954252       50.31495
2012    28      5       0.3647137       83.64103
2012    28      6       0.3344735       78.52949
2012    28      7       0.2966804       72.32973
2012    29      0       0.1368317       38.46083
2012    29      1       0.1197141       33.85297
2012    29      2       0.2647296       65.19015
2012    29      3       0.3424531       80.24515
2012    29      4       0.4501788       99.42417
2012    29      5       0.5331716       111.9885
2012    29      6       0.4703571       102.7597
2012    29      7       0.3969488       90.20027
2012    30      0       0.3278733       78.05263
2012    30      1       0.2825789       69.65221
2012    30      2       0.2472667       62.23735
2012    30      3       0.1523261       41.78723
2012    30      4       0.1327256       37.54442
2012    30      5       0.1406386       39.58303
2012    30      6       0.159104        43.59005
2012    30      7       0.2814444       70.09027
2013    1       0       0.482067        106.6882
2013    1       1       0.3942018       91.25403
2013    1       2       0.2949699       72.34062
2013    1       3       0.3003564       74.13624
2013    1       4       0.7394543       145.0397
2013    1       5       0.7020022       140.6522
2013    1       6       0.5984672       126.2949
2013    1       7       0.4134494       95.97455
2013    2       0       0.2450065       63.37364
2013    2       1       0.1693391       46.62362
2013    2       2       0.1635815       45.26222
2013    2       3       0.1566681       43.51927
2013    2       4       0.2310331       59.61207
2013    2       5       0.4606078       102.9473
2013    2       6       0.5616764       118.5071
2013    2       7       0.5008373       108.5907
2013    3       0       0.4323323       96.655
2013    3       1       0.4716821       102.7561
2013    3       2       0.5848615       119.6564
2013    3       3       0.5022918       107.1543
2013    3       4       0.3734231       85.04065
2013    3       5       0.1585149       42.25066
2013    3       6       0.06095381      19.97891
2013    3       7       0.03425007      13.37452
2013    4       0       0.02858317      11.83336
2013    4       1       0.03052455      12.35877
2013    4       2       0.03261714      12.89123
2013    4       3       0.03860047      14.47025
2013    4       4       0.05839434      19.50939
2013    4       5       0.08104213      24.69072
2013    4       6       0.08617921      26.05272
2013    4       7       0.07290546      22.92028
2013    5       0       0.08004997      24.60685
2013    5       1       0.09722302      28.84071
2013    5       2       0.1291091       36.57285
2013    5       3       0.166628        45.31127
2013    5       4       0.1945533       51.51361
2013    5       5       0.2075057       54.3576
2013    5       6       0.2026648       53.42623
2013    5       7       0.1968867       52.26689
2013    6       0       0.2044852       53.85787
2013    6       1       0.1736642       46.86801
2013    6       2       0.1111475       32.5838
2013    6       3       0.1079489       31.46659
2013    6       4       0.119986        34.39831
2013    6       5       0.1484905       40.98387
2013    6       6       0.1522925       41.77242
2013    6       7       0.130454        36.59103
2013    7       0       0.1426025       39.06033
2013    7       1       0.1319785       36.53429
2013    7       2       0.1309479       36.53148
2013    7       3       0.1218943       34.71549
2013    7       4       0.133163        37.73474
2013    7       5       0.1521565       42.28695
2013    7       6       0.1722723       46.76923
2013    7       7       0.2053249       54.17058
2013    8       0       0.1516252       42.22799
2013    8       1       0.1231634       35.62875
2013    8       2       0.1537804       42.414
2013    8       3       0.1816249       48.28064
2013    8       4       0.1953137       51.46017
2013    8       5       0.1850507       49.12224
2013    8       6       0.1445486       40.04239
2013    8       7       0.177069        47.7832
2013    9       0       0.1569941       43.31623
2013    9       1       0.1026322       30.10583
2013    9       2       0.08925538      26.42591
2013    9       3       0.1233713       34.54287
2013    9       4       0.2783703       67.89936
2013    9       5       0.3899266       88.09694
2013    9       6       0.5362387       112.0972
2013    9       7       0.4950899       106.3122
2013    10      0       0.3902113       89.1759
2013    10      1       0.3175607       75.8635
2013    10      2       0.2240816       57.51958
2013    10      3       0.184792        49.30094
2013    10      4       0.1880527       49.93491
2013    10      5       0.1346073       38.0767
2013    10      6       0.06734014      21.89242
2013    10      7       0.05132348      17.77886
2013    11      0       0.05158505      17.78611
2013    11      1       0.05522308      18.63761
2013    11      2       0.05613384      18.90829
2013    11      3       0.06067927      20.05936
2013    11      4       0.1175288       34.05287
2013    11      5       0.1545433       42.66843
2013    11      6       0.08213285      25.59364
2013    11      7       0.05369179      18.40214
2013    12      0       0.04749993      16.79152
2013    12      1       0.05142797      17.77645
2013    12      2       0.0564209       19.05635
2013    12      3       0.1029868       30.68245
2013    12      4       0.3091744       74.97456
2013    12      5       0.4127041       94.09126
2013    12      6       0.2889653       71.3058
2013    12      7       0.1936393       51.50852
2013    13      0       0.1462929       40.85239
2013    13      1       0.1476959       41.19544
2013    13      2       0.1625559       44.59153
2013    13      3       0.4224078       95.90045
2013    13      4       0.4683116       103.8773
2013    13      5       0.4690075       104.1939
2013    13      6       0.3363225       80.63314
2013    13      7       0.2843717       70.52062
2013    14      0       0.2606192       65.8286
2013    14      1       0.2302693       59.64569
2013    14      2       0.1401901       39.77627
2013    14      3       0.09085065      27.97202
2013    14      4       0.2021966       53.96662
2013    14      5       0.191551        51.65161
2013    14      6       0.1401539       39.89983
2013    14      7       0.1118925       33.0857
2013    15      0       0.08110918      25.48025
2013    15      1       0.1024311       30.18533
2013    15      2       0.158773        42.4929
2013    15      3       0.2034593       53.42281
2013    15      4       0.3767128       88.61001
2013    15      5       0.4626645       103.8605
2013    15      6       0.3768065       88.74896
2013    15      7       0.2656058       67.13671
2013    16      0       0.1952358       52.22818
2013    16      1       0.1175251       34.22443
2013    16      2       0.1250757       35.86327
2013    16      3       0.1477575       41.01425
2013    16      4       0.2257456       58.85844
2013    16      5       0.3256875       79.35064
2013    16      6       0.3200352       77.97271
2013    16      7       0.3217271       78.22719
2013    17      0       0.2790998       69.56744
2013    17      1       0.292062        71.8776
2013    17      2       0.4048833       92.99168
2013    17      3       0.5006495       110.0213
2013    17      4       0.7811329       149.4288
2013    17      5       0.690044        137.3987
2013    17      6       0.5863694       121.7616
2013    17      7       0.6480736       130.3178
2013    18      0       0.5117938       109.5073
2013    18      1       0.5554029       115.8268
2013    18      2       0.4635362       101.2483
2013    18      3       0.4622949       101.629
2013    18      4       0.5695319       118.3774
2013    18      5       0.4778379       104.2466
2013    18      6       0.2723995       67.56003
2013    18      7       0.2252469       57.9561
2013    19      0       0.2400317       60.97957
2013    19      1       0.1789069       47.87099
2013    19      2       0.1854502       48.89038
2013    19      3       0.2138997       54.89036
2013    19      4       0.2952069       71.00965
2013    19      5       0.3466639       80.35793
2013    19      6       0.4144419       91.81768
2013    19      7       0.3856959       86.76707
2013    20      0       0.542038        112.875
2013    20      1       0.6026227       121.6396
2013    20      2       0.5136429       108.9762
2013    20      3       0.5324743       112.5756
2013    20      4       0.5970631       121.8588
2013    20      5       0.620469        124.7871
2013    20      6       0.6059125       122.486
2013    20      7       0.5562645       114.4165
2013    21      0       0.5147067       107.918
2013    21      1       0.5987766       120.8048
2013    21      2       0.619845        123.9604
2013    21      3       0.6089461       123.1023
2013    21      4       0.7664019       144.4104
2013    21      5       0.7221473       139.6107
2013    21      6       0.6414855       129.3683
2013    21      7       0.4585756       102.1237
2013    22      0       0.235383        60.32111
2013    22      1       0.1304728       36.19845
2013    22      2       0.1198332       34.3816
2013    22      3       0.1814738       48.42196
2013    22      4       0.1876607       49.87279
2013    22      5       0.1831395       48.74757
2013    22      6       0.2097309       53.92348
2013    22      7       0.3012719       72.068
2013    23      0       0.4136969       93.00246
2013    23      1       0.4273625       96.15772
2013    23      2       0.2973194       72.61397
2013    23      3       0.3358655       79.69542
2013    23      4       0.3629425       84.81704
2013    23      5       0.3119605       75.70775
2013    23      6       0.2319974       59.92779
2013    23      7       0.156983        43.5802
2013    24      0       0.1242957       35.86837
2013    24      1       0.1284652       36.68328
2013    24      2       0.1272659       36.26676
2013    24      3       0.1074484       31.66506
2013    24      4       0.08869819      27.35903
2013    24      5       0.08126558      25.57199
2013    24      6       0.07735129      24.53243
2013    24      7       0.08899335      27.33733
2013    25      0       0.07948842      25.01209
2013    25      1       0.06549373      21.56
2013    25      2       0.05418929      18.62717
2013    25      3       0.05074646      17.70495
2013    25      4       0.08349813      26.1082
2013    25      5       0.1247317       36.16829
2013    25      6       0.09698942      29.34892
2013    25      7       0.08051533      25.27039
2013    26      0       0.08097271      25.37844
2013    26      1       0.09030103      27.66184
2013    26      2       0.09699493      29.29521
2013    26      3       0.09632998      29.12398
2013    26      4       0.1142791       33.44144
2013    26      5       0.1182136       34.33005
2013    26      6       0.1204686       34.68993
2013    26      7       0.1128192       32.84532
2013    27      0       0.1076155       31.5947
2013    27      1       0.104352        30.75473
2013    27      2       0.09739928      29.04931
2013    27      3       0.09326176      28.1237
2013    27      4       0.1287532       36.9829
2013    27      5       0.1479067       41.6079
2013    27      6       0.145679        40.9397
2013    27      7       0.1544173       42.4038
2013    28      0       0.1192909       34.36571
2013    28      1       0.1000533       29.7676
2013    28      2       0.09333769      28.26091
2013    28      3       0.09504643      28.81969
2013    28      4       0.1373931       39.02413
2013    28      5       0.1792332       48.59248
2013    28      6       0.2010641       53.28223
2013    28      7       0.2467278       62.87739
2013    29      0       0.2517261       63.8752
2013    29      1       0.1984916       52.71103
2013    29      2       0.1371996       38.8989
2013    29      3       0.08864619      27.31383
2013    29      4       0.09883128      29.89379
2013    29      5       0.08520926      26.5407
2013    29      6       0.05208416      18.03917
2013    29      7       0.04586933      16.29718
2013    30      0       0.0345243       13.26122
2013    30      1       0.02765621      11.48569
2013    30      2       0.02431566      10.58284
2013    30      3       0.02420647      10.55394
2013    30      4       0.04557196      16.47081
2013    30      5       0.05887429      19.94815
2013    30      6       0.04697957      16.53219
2013    30      7       0.04758691      16.75879
2014    1       0       0.3001197       73.89942
2014    1       1       0.3624695       85.94841
2014    1       2       0.4118016       94.49388
2014    1       3       0.4809909       104.5221
2014    1       4       0.6644422       131.5507
2014    1       5       0.6672706       132.1301
2014    1       6       0.6191064       126.9398
2014    1       7       0.3661966       86.29848
2014    2       0       0.2143036       56.50143
2014    2       1       0.1043384       31.31584
2014    2       2       0.04417644      16.02473
2014    2       3       0.06888601      22.24476
2014    2       4       0.1868552       49.74438
2014    2       5       0.2784756       68.35167
2014    2       6       0.2569824       63.96929
2014    2       7       0.2242618       57.4022
2014    3       0       0.1506283       41.60149
2014    3       1       0.07571404      23.81179
2014    3       2       0.1040287       30.65412
2014    3       3       0.1052544       30.84935
2014    3       4       0.1376828       38.51855
2014    3       5       0.2422096       61.36488
2014    3       6       0.1638449       44.76131
2014    3       7       0.1318352       37.51937
2014    4       0       0.1390582       39.09765
2014    4       1       0.1548549       42.50757
2014    4       2       0.1458151       40.48282
2014    4       3       0.1822265       48.67429
2014    4       4       0.2522808       63.44032
2014    4       5       0.2493301       62.88716
2014    4       6       0.1785096       48.01019
2014    4       7       0.1297787       36.88312
2014    5       0       0.09025276      27.55934
2014    5       1       0.07870743      24.61752
2014    5       2       0.1205169       34.4557
2014    5       3       0.2194342       56.62834
2014    5       4       0.2500641       63.45297
2014    5       5       0.2157451       56.55119
2014    5       6       0.1162637       34.0879
2014    5       7       0.09353789      28.524
2014    6       0       0.1147808       33.64042
2014    6       1       0.1364396       38.76102
2014    6       2       0.1234921       35.67728
2014    6       3       0.09215795      28.04085
2014    6       4       0.09706621      29.19163
2014    6       5       0.09217741      27.89377
2014    6       6       0.08963899      27.15921
2014    6       7       0.108614        31.75941
2014    7       0       0.1262552       36.02006
2014    7       1       0.1267941       36.32155
2014    7       2       0.133359        37.83347
2014    7       3       0.1389557       39.10055
2014    7       4       0.1990849       52.75811
2014    7       5       0.2168484       56.66457
2014    7       6       0.1936549       51.58868
2014    7       7       0.1649285       45.12969
2014    8       0       0.1621273       44.37585
2014    8       1       0.16211         44.23052
2014    8       2       0.1747102       46.91462
2014    8       3       0.2025298       52.97288
2014    8       4       0.2429249       61.66466
2014    8       5       0.2316194       59.38795
2014    8       6       0.1708239       46.0278
2014    8       7       0.1447911       40.12041
2014    9       0       0.127471        36.09215
2014    9       1       0.1155948       33.29118
2014    9       2       0.1172625       33.65382
2014    9       3       0.1505048       41.4541
2014    9       4       0.2016562       52.90121
2014    9       5       0.184607        49.1565
2014    9       6       0.1269944       35.94348
2014    9       7       0.1185664       33.90695
2014    10      0       0.1128202       32.48821
2014    10      1       0.1007417       29.79515
2014    10      2       0.102008        30.24521
2014    10      3       0.1221784       35.11889
2014    10      4       0.1631714       44.70259
2014    10      5       0.1655473       45.34417
2014    10      6       0.1030907       30.705
2014    10      7       0.09289236      28.14006
2014    11      0       0.0795355       24.85708
2014    11      1       0.06979087      22.47576
2014    11      2       0.06224787      20.60739
2014    11      3       0.06744906      21.97563
2014    11      4       0.1170945       34.25028
2014    11      5       0.1495308       41.88488
2014    11      6       0.1218048       35.47256
2014    11      7       0.08731502      27.0597
2014    12      0       0.06855286      22.29671
2014    12      1       0.06641813      21.73275
2014    12      2       0.06437683      21.20122
2014    12      3       0.07572608      24.09673
2014    12      4       0.1405251       39.89967
2014    12      5       0.1830191       49.61052
2014    12      6       0.1526274       42.85409
2014    12      7       0.1207618       35.37323
2014    13      0       0.09909114      30.10147
2014    13      1       0.1157635       34.0183
2014    13      2       0.1762033       47.72503
2014    13      3       0.2339391       60.0361
2014    13      4       0.3191978       76.97422
2014    13      5       0.4120057       93.62772
2014    13      6       0.4648158       102.265
2014    13      7       0.5132743       109.8174
2014    14      0       0.490184        106.2198
2014    14      1       0.522018        111.2278
2014    14      2       0.6213453       125.852
2014    14      3       0.6221631       126.5473
2014    14      4       0.755642        144.3637
2014    14      5       0.8380772       154.3169
2014    14      6       0.7533905       144.2628
2014    14      7       0.7401536       142.7625
2014    15      0       0.6170945       126.5358
2014    15      1       0.7179641       140.382
2014    15      2       0.797872        150.3882
2014    15      3       1.00809         173.5087
2014    15      4       0.9382968       166.0604
2014    15      5       0.7012793       138.1206
2014    15      6       0.3377947       80.90113
2014    15      7       0.2065204       54.43508
2014    16      0       0.1459546       40.86203
2014    16      1       0.1035696       31.00871
2014    16      2       0.063277        20.47238
2014    16      3       0.08917795      26.59798
2014    16      4       0.1244334       35.25015
2014    16      5       0.1492556       41.44445
2014    16      6       0.1594415       43.69379
2014    16      7       0.1721682       46.43242
2014    17      0       0.2027936       52.9054
2014    17      1       0.2282062       58.25579
2014    17      2       0.2460143       62.1292
2014    17      3       0.2689282       67.08579
2014    17      4       0.3274837       78.8073
2014    17      5       0.3538352       83.9051
2014    17      6       0.2604964       65.8792
2014    17      7       0.2029906       53.78465
2014    18      0       0.1477597       41.462
2014    18      1       0.1197655       34.74568
2014    18      2       0.1380274       38.93872
2014    18      3       0.2048454       54.09738
2014    18      4       0.2419153       62.08659
2014    18      5       0.357062        84.56944
2014    18      6       0.4426914       99.9054
2014    18      7       0.3388724       81.16871
2014    19      0       0.3201951       77.71009
2014    19      1       0.2632909       66.52241
2014    19      2       0.2038965       53.90276
2014    19      3       0.1779982       48.23021
2014    19      4       0.2779293       69.46701
2014    19      5       0.458261        102.4554
2014    19      6       0.5054957       110.3076
2014    19      7       0.4083946       93.78325
2014    20      0       0.3941429       91.30347
2014    20      1       0.4055596       93.22908
2014    20      2       0.4564428       101.8635
2014    20      3       0.5593333       118.3746
2014    20      4       0.4677135       103.2563
2014    20      5       0.4884237       106.4373
2014    20      6       0.431961        96.46819
2014    20      7       0.4837247       105.2292
2014    21      0       0.4452569       99.2189
2014    21      1       0.4208316       95.29189
2014    21      2       0.4065239       92.90103
2014    21      3       0.4446385       99.32628
2014    21      4       0.5375842       113.9353
2014    21      5       0.5706754       118.9306
2014    21      6       0.4750272       104.3181
2014    21      7       0.312903        75.93502
2014    22      0       0.2463911       62.62622
2014    22      1       0.2621559       65.8684
2014    22      2       0.2948975       72.31434
2014    22      3       0.3805667       88.08314
2014    22      4       0.6405141       128.6822
2014    22      5       0.6728553       132.4519
2014    22      6       0.550672        115.796
2014    22      7       0.6652718       131.407
2014    23      0       0.3234907       77.0893
2014    23      1       0.5483331       113.6549
2014    23      2       0.4097936       92.95206
2014    23      3       0.7279138       140.291
2014    23      4       0.6499714       127.6089
2014    23      5       0.6437505       129.337
2014    23      6       0.3496397       81.27534
2014    23      7       0.1981118       52.03712
2014    24      0       0.2009717       52.41031
2014    24      1       0.2114613       53.84509
2014    24      2       0.2431923       60.57819
2014    24      3       0.3496979       81.3061
2014    24      4       0.3950488       89.50653
2014    24      5       0.2742772       67.34938
2014    24      6       0.2743505       67.60851
2014    24      7       0.2505767       62.82746
2014    25      0       0.1642195       44.68465
2014    25      1       0.05977433      20.08227
2014    25      2       0.04329709      15.59874
2014    25      3       0.05000676      17.15429
2014    25      4       0.08758228      26.60833
2014    25      5       0.0931439       28.10634
2014    25      6       0.08078557      24.96407
2014    25      7       0.0688123       21.98072
2014    26      0       0.08119402      25.04187
2014    26      1       0.08361773      25.62208
2014    26      2       0.08687715      26.44167
2014    26      3       0.09031         27.26857
2014    26      4       0.1133165       32.71733
2014    26      5       0.2029742       51.77647
2014    26      6       0.1747959       46.02037
2014    26      7       0.1651125       43.90163
2014    27      0       0.1528393       41.36176
2014    27      1       0.2366684       59.45076
2014    27      2       0.2394891       59.88101
2014    27      3       0.07088013      22.59471
2014    27      4       0.04866895      17.0005
2014    27      5       0.03467987      13.01211
2014    27      6       0.04392105      15.42747
2014    27      7       0.07468843      22.80986
2014    28      0       0.1659552       43.44391
2014    28      1       0.1269625       35.44427
2014    28      2       0.1802787       47.57604
2014    28      3       0.2661654       66.21776
2014    28      4       0.2671115       66.07542
2014    28      5       0.2829699       69.1999
2014    28      6       0.2647965       65.67096
2014    28      7       0.3163465       76.522
2014    29      0       0.3177853       77.18892
2014    29      1       0.3065359       75.25406
2014    29      2       0.3205139       77.97159
2014    29      3       0.1842385       49.84943
2014    29      4       0.1625175       44.5115
2014    29      5       0.1680853       45.78523
2014    29      6       0.2027773       52.68766
2014    29      7       0.168898        45.30232
2014    30      0       0.1490349       40.90364
2014    30      1       0.1706363       45.45245
2014    30      2       0.2165805       55.68439
2014    30      3       0.2211703       57.02364
2014    30      4       0.2858134       70.21003
2014    30      5       0.3533807       82.98558
2014    30      6       0.3700565       86.09661
2014    30      7       0.3274295       78.14333
2015    1       0       0.2944186       73.6607
2015    1       1       0.2967002       73.90225
2015    1       2       0.3191038       78.34036
2015    1       3       0.3714994       88.42825
2015    1       4       0.5335957       116.2184
2015    1       5       0.6728469       136.6127
2015    1       6       0.6068724       127.3451
2015    1       7       0.5011821       110.7176
2015    2       0       0.4415444       100.4863
2015    2       1       0.469793        104.8223
2015    2       2       0.4173419       95.89588
2015    2       3       0.6068846       125.0171
2015    2       4       0.9407513       164.4934
2015    2       5       0.8483991       154.7781
2015    2       6       0.8975815       160.7197
2015    2       7       0.8546114       156.3616
2015    3       0       0.8157265       152.0637
2015    3       1       0.7347036       142.0291
2015    3       2       0.7693549       146.632
2015    3       3       1.243168        193.8402
2015    3       4       1.271279        195.6326
2015    3       5       1.036744        175.953
2015    3       6       1.003453        172.5859
2015    3       7       0.8233624       153.5886
2015    4       0       0.6566011       132.8378
2015    4       1       0.6782734       135.9163
2015    4       2       0.9693239       170.4075
2015    4       3       0.8610009       156.6475
2015    4       4       1.322913        198.6499
2015    4       5       1.085452        180.288
2015    4       6       0.7994476       151.029
2015    4       7       0.7525368       144.9894
2015    5       0       0.653701        132.1372
2015    5       1       0.3466092       82.41198
2015    5       2       0.311644        75.39714
2015    5       3       0.5772484       118.8549
2015    5       4       0.603054        122.0991
2015    5       5       0.4898881       106.6555
2015    5       6       0.5514017       116.838
2015    5       7       0.4720762       104.6058
2015    6       0       0.1919816       51.11237
2015    6       1       0.1236111       35.38246
2015    6       2       0.1006617       29.77191
2015    6       3       0.10731         31.28993
2015    6       4       0.1721424       46.72554
2015    6       5       0.2280671       58.96509
2015    6       6       0.1914688       50.82403
2015    6       7       0.1799259       48.3874
2015    7       0       0.1525538       42.10655
2015    7       1       0.1373338       38.32453
2015    7       2       0.1465969       40.2495
2015    7       3       0.1791618       47.50439
2015    7       4       0.2784271       68.58142
2015    7       5       0.3576104       83.76988
2015    7       6       0.2663673       66.58269
2015    7       7       0.2429145       61.70119
2015    8       0       0.2342588       59.8586
2015    8       1       0.188147        49.96528
2015    8       2       0.1570865       43.04578
2015    8       3       0.1888991       50.15533
2015    8       4       0.2600616       65.16188
2015    8       5       0.2591947       65.12043
2015    8       6       0.1489011       41.33511
2015    8       7       0.1172729       33.93148
2015    9       0       0.07833073      24.60779
2015    9       1       0.06452223      21.21811
2015    9       2       0.06958611      22.30481
2015    9       3       0.09165798      27.5453
2015    9       4       0.1303097       36.76908
2015    9       5       0.1268891       35.69906
2015    9       6       0.1149455       32.79965
2015    9       7       0.09872717      28.97865
2015    10      0       0.1199125       33.39781
2015    10      1       0.1196564       33.32591
2015    10      2       0.09298437      27.77994
2015    10      3       0.117148        33.5657
2015    10      4       0.1809681       48.25913
2015    10      5       0.2050292       53.35169
2015    10      6       0.1977056       51.5506
2015    10      7       0.230548        58.44913
2015    11      0       0.2173493       55.63744
2015    11      1       0.1921923       50.11164
2015    11      2       0.1724124       45.89841
2015    11      3       0.177641        47.26657
2015    11      4       0.2344602       59.6015
2015    11      5       0.2642914       65.8101
2015    11      6       0.2731463       67.37556
2015    11      7       0.2929099       71.15204
2015    12      0       0.2802143       68.707
2015    12      1       0.2573075       64.14328
2015    12      2       0.2215185       56.85396
2015    12      3       0.2061403       53.91833
2015    12      4       0.2196917       57.1877
2015    12      5       0.1799907       48.84951
2015    12      6       0.1465612       41.3157
2015    12      7       0.1276021       36.89715
2015    13      0       0.1167855       34.28763
2015    13      1       0.1154121       33.9506
2015    13      2       0.1075909       32.02816
2015    13      3       0.117355        34.36691
2015    13      4       0.1617069       44.83426
2015    13      5       0.1905627       51.38819
2015    13      6       0.1779047       48.57474
2015    13      7       0.1565508       43.75316
2015    14      0       0.1328974       38.19083
2015    14      1       0.1701334       46.80811
2015    14      2       0.2271508       59.29464
2015    14      3       0.37324         88.02549
2015    14      4       0.5831842       121.9859
2015    14      5       0.6309989       128.7076
2015    14      6       0.5469582       116.7396
2015    14      7       0.3172625       76.96711
2015    15      0       0.1794737       48.34321
2015    15      1       0.02944069      12.03603
2015    15      2       0.04130489      14.98658
2015    15      3       0.06826962      21.60219
2015    15      4       0.1396326       38.2075
2015    15      5       0.2290609       56.761
2015    15      6       0.2402376       58.87389
2015    15      7       0.2708931       65.04298
2015    16      0       0.2030338       51.62642
2015    16      1       0.1603785       42.65107
2015    16      2       0.1065479       30.68383
2015    16      3       0.1181128       33.44458
2015    16      4       0.1690797       44.93219
2015    16      5       0.2137351       54.22269
2015    16      6       0.1280785       35.7066
2015    16      7       0.1134516       32.33115
2015    17      0       0.135677        37.68762
2015    17      1       0.09456149      28.32944
2015    17      2       0.06610638      21.39535
2015    17      3       0.09972488      29.54576
2015    17      4       0.1108471       32.24601
2015    17      5       0.07876785      24.59881
2015    17      6       0.06803931      21.86296
2015    17      7       0.06995092      22.40433
2015    18      0       0.06851884      22.04823
2015    18      1       0.05675443      19.09115
2015    18      2       0.04787352      16.78776
2015    18      3       0.04600544      16.32212
2015    18      4       0.1056278       31.10738
2015    18      5       0.1240654       35.36941
2015    18      6       0.0838461       25.88851
2015    18      7       0.05360852      18.2821
2015    19      0       0.04245089      15.30783
2015    19      1       0.09987985      29.74086
2015    19      2       0.09449278      28.46831
2015    19      3       0.0551958       18.72799
2015    19      4       0.08041217      24.99323
2015    19      5       0.09066599      27.43543
2015    19      6       0.07665656      23.76735
2015    19      7       0.07152214      22.32344
2015    20      0       0.07863135      24.07126
2015    20      1       0.1037296       29.61661
2015    20      2       0.1353604       36.54015
2015    20      3       0.1574863       41.48366
2015    20      4       0.2204498       55.30106
2015    20      5       0.2290157       57.61043
2015    20      6       0.1565856       42.86735
2015    20      7       0.1238192       35.61189
2015    21      0       0.1089467       32.15237
2015    21      1       0.09927005      29.83605
2015    21      2       0.0901057       27.57754
2015    21      3       0.09097816      27.72732
2015    21      4       0.124918        35.86759
2015    21      5       0.1305628       37.18818
2015    21      6       0.1026792       30.54528
2015    21      7       0.1003039       29.93982
2015    22      0       0.132603        37.51986
2015    22      1       0.2076966       54.2461
2015    22      2       0.1901698       50.44851
2015    22      3       0.2166497       56.29705
2015    22      4       0.3579957       84.50947
2015    22      5       0.5514701       116.928
2015    22      6       0.7819925       148.8408
2015    22      7       0.5944523       123.9503
2015    23      0       0.6814417       136.2426
2015    23      1       0.3814563       88.92759
2015    23      2       0.3276543       79.00416
2015    23      3       0.3435877       82.08388
2015    23      4       0.5433267       115.9317
2015    23      5       0.4677267       104.09
2015    23      6       0.3306061       79.72449
2015    23      7       0.2092604       55.12907
2015    24      0       0.2128577       55.8997
2015    24      1       0.2876959       71.28108
2015    24      2       0.3167882       76.90112
2015    24      3       0.4104427       93.54013
2015    24      4       0.3874408       89.55942
2015    24      5       0.3918086       90.36346
2015    24      6       0.3236735       77.78522
2015    24      7       0.2464301       62.44418
2015    25      0       0.2184878       56.75108
2015    25      1       0.1019949       30.4924
2015    25      2       0.122811        35.37347
2015    25      3       0.2054899       54.20058
2015    25      4       0.2973294       73.21185
2015    25      5       0.3872719       90.05814
2015    25      6       0.2421074       61.64196
2015    25      7       0.1824824       48.38162
2015    26      0       0.1463709       39.98605
2015    26      1       0.1374916       37.80977
2015    26      2       0.1669459       43.79293
2015    26      3       0.1217985       34.46916
2015    26      4       0.1227216       35.37629
2015    26      5       0.153996        42.50088
2015    26      6       0.1421873       39.73339
2015    26      7       0.1339375       37.69776
2015    27      0       0.1390876       38.70976
2015    27      1       0.151774        41.2695
2015    27      2       0.1667556       44.67893
2015    27      3       0.1552176       42.61875
2015    27      4       0.1978645       52.07233
2015    27      5       0.1947377       51.48796
2015    27      6       0.1250957       35.92534
2015    27      7       0.0762718       23.9866
2015    28      0       0.07408132      23.18323
2015    28      1       0.09343837      27.71277
2015    28      2       0.09546996      28.61627
2015    28      3       0.1093804       31.86057
2015    28      4       0.138367        38.69526
2015    28      5       0.1914729       50.51232
2015    28      6       0.1735495       46.41882
2015    28      7       0.2481635       62.06456
2015    29      0       0.3270517       77.86328
2015    29      1       0.3183844       76.41735
2015    29      2       0.384444        88.95427
2015    29      3       0.3253398       77.97626
2015    29      4       0.3325962       79.3399
2015    29      5       0.4152775       93.98497
2015    29      6       0.2800315       69.31719
2015    29      7       0.1469524       41.10965
2015    30      0       0.06827117      22.23811
2015    30      1       0.04738427      16.76053
2015    30      2       0.03995093      14.72339
2015    30      3       0.04970541      17.29051
2015    30      4       0.07212764      22.91373
2015    30      5       0.1029714       30.40981
2015    30      6       0.08015914      24.97211
2015    30      7       0.06208697      20.5624
2016    1       0       0.5477697       118.0978
2016    1       1       0.47781         106.7509
2016    1       2       0.3636552       86.7062
2016    1       3       0.4167604       96.50927
2016    1       4       0.4888732       108.6393
2016    1       5       0.2607203       66.67243
2016    1       6       0.1305252       37.73746
2016    1       7       0.09395192      28.81899
2016    2       0       0.07646648      24.28728
2016    2       1       0.07839945      24.60657
2016    2       2       0.0901715       27.36193
2016    2       3       0.1000781       29.6984
2016    2       4       0.1262105       35.92276
2016    2       5       0.1695258       45.76532
2016    2       6       0.1823793       48.72563
2016    2       7       0.1410153       39.64042
2016    3       0       0.1002419       29.97684
2016    3       1       0.0867779       26.65723
2016    3       2       0.09458031      28.62704
2016    3       3       0.1321846       37.6766
2016    3       4       0.1769851       47.93352
2016    3       5       0.1863676       50.16315
2016    3       6       0.1518302       42.54085
2016    3       7       0.1291588       37.08613
2016    4       0       0.1183105       34.38248
2016    4       1       0.1187211       34.468
2016    4       2       0.1412984       39.77037
2016    4       3       0.2120425       55.72139
2016    4       4       0.416807        95.63571
2016    4       5       0.7471536       144.4656
2016    4       6       1.151277        186.6265
2016    4       7       0.8209302       152.2302
2016    5       0       0.5955263       124.3566
2016    5       1       0.7930045       150.0548
2016    5       2       0.9407779       166.2677
2016    5       3       1.233715        194.4451
2016    5       4       1.370279        201.5804
2016    5       5       0.8300392       154.3654
2016    5       6       0.3985085       92.14522
2016    5       7       0.3298648       79.2336
2016    6       0       0.3850562       89.11511
2016    6       1       0.1723968       46.73854
2016    6       2       0.08684132      26.835
2016    6       3       0.0686295       22.3802
2016    6       4       0.05813542      19.74887
2016    6       5       0.03533233      13.76876
2016    6       6       0.03486885      13.60903
2016    6       7       0.04407362      15.96063
2016    7       0       0.06088714      20.14746
2016    7       1       0.08554457      25.6807
2016    7       2       0.1018734       29.55206
2016    7       3       0.1143031       32.56567
2016    7       4       0.1641011       43.86898
2016    7       5       0.2974283       71.35269
2016    7       6       0.3190432       75.58972
2016    7       7       0.3492342       80.85081
2016    8       0       0.3852605       87.3525
2016    8       1       0.3670396       84.29815
2016    8       2       0.2813115       68.47194
2016    8       3       0.2137817       54.83091
2016    8       4       0.1719712       46.30114
2016    8       5       0.1490204       41.67041
2016    8       6       0.1173127       34.40808
2016    8       7       0.1032768       30.99871
2016    9       0       0.09205437      28.11075
2016    9       1       0.105261        30.88463
2016    9       2       0.1008179       29.80703
2016    9       3       0.1121773       32.44969
2016    9       4       0.2148978       56.24969
2016    9       5       0.2701525       67.96447
2016    9       6       0.2255379       58.73655
2016    9       7       0.1485346       41.28238
2016    10      0       0.1468497       40.54572
2016    10      1       0.1398378       38.90293
2016    10      2       0.1444389       39.87309
2016    10      3       0.1467405       40.40289
2016    10      4       0.2293666       59.19307
2016    10      5       0.2294947       58.84296
2016    10      6       0.1948506       50.43008
2016    10      7       0.1489371       40.42894
2016    11      0       0.1387354       38.33334
2016    11      1       0.1240838       35.12836
2016    11      2       0.1382499       38.47865
2016    11      3       0.1549865       42.45684
2016    11      4       0.1720866       46.56853
2016    11      5       0.1843367       49.52097
2016    11      6       0.1837945       49.49748
2016    11      7       0.1930327       51.60996
2016    12      0       0.1996332       53.0375
2016    12      1       0.205462        53.99797
2016    12      2       0.2193628       57.00125
2016    12      3       0.2155571       56.2575
2016    12      4       0.2556407       65.14369
2016    12      5       0.2848224       70.89487
2016    12      6       0.2339391       59.85636
2016    12      7       0.2147402       56.42597
2016    13      0       0.2359352       61.20721
2016    13      1       0.2140974       56.49579
2016    13      2       0.1792439       48.79175
2016    13      3       0.1874696       50.9254
2016    13      4       0.2837532       71.41659
2016    13      5       0.3971342       92.71391
2016    13      6       0.391028        91.36268
2016    13      7       0.3451027       82.66433
2016    14      0       0.2369989       61.01998
2016    14      1       0.1454859       40.56311
2016    14      2       0.128397        36.45126
2016    14      3       0.1173481       34.10839
2016    14      4       0.1765944       48.22204
2016    14      5       0.1915777       51.68123
2016    14      6       0.1365836       39.0579
2016    14      7       0.1419404       40.47377
2016    15      0       0.1516142       42.84963
2016    15      1       0.1243683       36.34908
2016    15      2       0.108426        32.45049
2016    15      3       0.1048584       31.60315
2016    15      4       0.1781411       48.97774
2016    15      5       0.2302832       60.50872
2016    15      6       0.2722547       69.45053
2016    15      7       0.2599254       66.91686
2016    16      0       0.2503096       64.97946
2016    16      1       0.2133853       56.91731
2016    16      2       0.1953106       52.88034
2016    16      3       0.1961168       53.03911
2016    16      4       0.2672785       68.02618
2016    16      5       0.3300556       80.18279
2016    16      6       0.3450199       82.83928
2016    16      7       0.3700651       87.40667
2016    17      0       0.3457421       82.8343
2016    17      1       0.3082778       75.68468
2016    17      2       0.3054824       75.04636
2016    17      3       0.3517282       83.89764
2016    17      4       0.49824         109.234
2016    17      5       0.4276469       97.51716
2016    17      6       0.3739963       88.05124
2016    17      7       0.3366744       81.07927
2016    18      0       0.3549281       84.22722
2016    18      1       0.3849433       89.47024
2016    18      2       0.4401372       99.25847
2016    18      3       0.4957617       108.2928
2016    18      4       0.7074207       138.4201
2016    18      5       0.7403159       143.5473
2016    18      6       0.5433379       116.18
2016    18      7       0.4879728       107.5163
2016    19      0       0.454312        101.8721
2016    19      1       0.4010294       92.71789
2016    19      2       0.3759731       88.29413
2016    19      3       0.4633757       103.5536
2016    19      4       0.7209142       140.8373
2016    19      5       1.021983        174.4217
2016    19      6       1.112844        181.576
2016    19      7       0.9489268       166.1999
2016    20      0       1.053541        177.6909
2016    20      1       0.7813021       149.7213
2016    20      2       0.4668036       104.6783
2016    20      3       0.3823938       89.60271
2016    20      4       0.6289392       129.0046
2016    20      5       0.8404739       155.5505
2016    20      6       0.7250495       141.2621
2016    20      7       0.6109439       126.4258
2016    21      0       0.3923772       91.10017
2016    21      1       0.4914909       107.9095
2016    21      2       0.4154794       94.12774
2016    21      3       0.3624945       83.66164
2016    21      4       0.6349189       128.3784
2016    21      5       0.4551526       102.3143
2016    21      6       0.229941        59.24204
2016    21      7       0.2144008       55.72546
2016    22      0       0.2236112       57.84535
2016    22      1       0.3102317       74.97086
2016    22      2       0.323756        77.26766
2016    22      3       0.3285308       77.88658
2016    22      4       0.3499007       80.91443
2016    22      5       0.2730649       66.70675
2016    22      6       0.3482782       82.54681
2016    22      7       0.2396508       61.46326
2016    23      0       0.1607993       44.08382
2016    23      1       0.1885905       50.2787
2016    23      2       0.2452073       62.72845
2016    23      3       0.2082806       55.05472
2016    23      4       0.1329854       37.85061
2016    23      5       0.1335472       37.97111
2016    23      6       0.1196232       34.48353
2016    23      7       0.1362372       38.2542
2016    24      0       0.1757055       47.02295
2016    24      1       0.1854636       49.27247
2016    24      2       0.1684018       45.77743
2016    24      3       0.1549767       42.87128
2016    24      4       0.1536774       42.90469
2016    24      5       0.1286453       37.21903
2016    24      6       0.1080814       32.39656
2016    24      7       0.09395424      28.97318
2016    25      0       0.09164472      28.32689
2016    25      1       0.08903217      27.59684
2016    25      2       0.09432369      28.90551
2016    25      3       0.1107669       32.94543
2016    25      4       0.2063369       54.93119
2016    25      5       0.2640285       67.11766
2016    25      6       0.3100675       76.17953
2016    25      7       0.2106683       55.3963
2016    26      0       0.1657959       45.24743
2016    26      1       0.0836882       26.07827
2016    26      2       0.05888697      19.78362
2016    26      3       0.04988291      17.44787
2016    26      4       0.06997029      22.71225
2016    26      5       0.09272028      28.56103
2016    26      6       0.04862292      17.15015
2016    26      7       0.04496984      16.16509
2016    27      0       0.04960108      17.33369
2016    27      1       0.05208856      17.90604
2016    27      2       0.05169913      17.74568
2016    27      3       0.05119983      17.5288
2016    27      4       0.07318107      23.10977
2016    27      5       0.09673258      28.96984
2016    27      6       0.1039794       31.04518
2016    27      7       0.1166401       34.21977
2016    28      0       0.1449212       40.78657
2016    28      1       0.1570311       43.69373
2016    28      2       0.1557536       43.64206
2016    28      3       0.1452847       41.34716
2016    28      4       0.1525782       43.0093
2016    28      5       0.1517561       42.72543
2016    28      6       0.1268006       36.81625
2016    28      7       0.1016432       30.70836
2016    29      0       0.08096723      25.57924
2016    29      1       0.07787793      24.88871
2016    29      2       0.09096525      28.07575
2016    29      3       0.08988127      27.79907
2016    29      4       0.105644        31.66957
2016    29      5       0.1434355       40.46724
2016    29      6       0.2496185       63.29117
2016    29      7       0.4917212       106.1663
2016    30      0       0.7149195       137.7833
2016    30      1       0.604488        122.3169
2016    30      2       0.1168959       33.51445
2016    30      3       0.03462945      13.4528
2016    30      4       0.03096354      12.44079
2016    30      5       0.02842973      11.70357
2016    30      6       0.03288762      12.80215
2016    30      7       0.0641112       20.54119
2017    1       0       0.6651237       133.1715
2017    1       1       0.4958243       107.9213
2017    1       2       0.4598622       102.4638
2017    1       3       0.4496768       101.1861
2017    1       4       0.4296281       97.99121
2017    1       5       0.4612674       103.018
2017    1       6       0.3538856       84.48806
2017    1       7       0.2972785       73.53671
2017    2       0       0.2679112       67.67229
2017    2       1       0.4034789       93.66151
2017    2       2       0.3802284       89.55492
2017    2       3       0.4452895       100.9767
2017    2       4       0.5583034       119.0011
2017    2       5       0.6189842       127.6424
2017    2       6       0.5684274       119.9623
2017    2       7       0.6318385       128.2201
2017    3       0       0.5391997       115.7993
2017    3       1       0.4776253       106.3322
2017    3       2       0.3712815       87.7145
2017    3       3       0.3631547       86.30217
2017    3       4       0.4738411       105.728
2017    3       5       0.4848746       107.6435
2017    3       6       0.4524528       102.3961
2017    3       7       0.4027116       93.99151
2017    4       0       0.3690758       87.79916
2017    4       1       0.4204578       96.78572
2017    4       2       0.4094153       94.79981
2017    4       3       0.3943693       92.24108
2017    4       4       0.4970853       109.9018
2017    4       5       0.5364357       116.0256
2017    4       6       0.4968211       109.7311
2017    4       7       0.4528489       102.5876
2017    5       0       0.4367545       99.83069
2017    5       1       0.420976        97.06705
2017    5       2       0.4351808       99.50435
2017    5       3       0.4929441       109.1966
2017    5       4       0.5496211       118.2743
2017    5       5       0.7105377       140.9416
2017    5       6       0.8109285       153.235
2017    5       7       0.7122867       141.1377
2017    6       0       0.7212633       142.1842
2017    6       1       0.7271427       142.613
2017    6       2       0.5490245       117.5256
2017    6       3       0.4012224       93.10047
2017    6       4       0.5343402       114.2922
2017    6       5       0.6616074       133.5398
2017    6       6       0.8241337       154.0862
2017    6       7       0.5175833       112.5443
2017    7       0       0.4490104       101.341
2017    7       1       0.4948938       107.6818
2017    7       2       0.5049237       109.2949
2017    7       3       0.7316816       142.4094
2017    7       4       1.077619        178.6886
2017    7       5       1.099073        180.839
2017    7       6       0.8335016       153.7792
2017    7       7       0.7063345       138.4179
2017    8       0       0.6838888       135.6328
2017    8       1       0.5756425       120.5049
2017    8       2       0.5319168       113.8261
2017    8       3       0.6564718       131.6201
2017    8       4       0.9079534       162.4076
2017    8       5       0.8431159       154.9187
2017    8       6       0.6935082       137.233
2017    8       7       0.593132        123.6004
2017    9       0       0.5742599       120.8346
2017    9       1       0.5909951       123.2162
2017    9       2       0.5583054       118.5975
2017    9       3       0.8611307       158.7286
2017    9       4       0.9056071       163.6532
2017    9       5       1.014525        174.7757
2017    9       6       0.7040701       139.1884
2017    9       7       0.5309519       114.3439
2017    10      0       0.4916603       108.2583
2017    10      1       0.5053833       110.342
2017    10      2       0.5075146       110.6004
2017    10      3       0.5299578       113.8296
2017    10      4       1.148862        185.014
2017    10      5       1.131104        183.1983
2017    10      6       0.6731897       133.7858
2017    10      7       0.8703879       158.2073
2017    11      0       1.008523        172.4498
2017    11      1       0.88585         159.9339
2017    11      2       0.8709123       158.4172
2017    11      3       1.079666        178.7176
2017    11      4       1.080837        179.461
2017    11      5       0.8397022       154.7617
2017    11      6       0.6652957       132.5658
2017    11      7       0.5502938       116.0379
2017    12      0       0.6285505       127.2263
2017    12      1       0.7076582       138.5358
2017    12      2       0.626215        127.6174
2017    12      3       0.6820905       134.545
2017    12      4       0.9205534       163.9134
2017    12      5       0.6813736       135.9327
2017    12      6       0.2826791       70.8117
2017    12      7       0.1361363       39.01876
2017    13      0       0.1081541       32.12932
2017    13      1       0.3633426       85.67836
2017    13      2       0.5352922       114.335
2017    13      3       0.5016353       109.3238
2017    13      4       0.397076        91.8194
2017    13      5       0.5606739       118.2286
2017    13      6       0.3671571       86.22588
2017    13      7       0.2617815       66.18203
2017    14      0       0.3328822       79.94802
2017    14      1       0.3763272       87.49451
2017    14      2       0.2917744       70.7935
2017    14      3       0.3105263       75.05281
2017    14      4       0.2628122       65.59275
2017    14      5       0.1883003       49.96454
2017    14      6       0.08662085      26.69456
2017    14      7       0.05039392      17.49609
2017    15      0       0.04770027      16.78518
2017    15      1       0.04112775      15.10116
2017    15      2       0.07360641      23.2114
2017    15      3       0.1273556       36.09482
2017    15      4       0.1502028       41.30163
2017    15      5       0.1343267       37.7322
2017    15      6       0.1265672       35.94185
2017    15      7       0.1398467       39.18106
2017    16      0       0.1770105       47.83745
2017    16      1       0.1678108       45.58648
2017    16      2       0.2268201       58.50188
2017    16      3       0.2583892       65.10242
2017    16      4       0.2298337       59.13878
2017    16      5       0.1919714       50.91321
2017    16      6       0.2154998       55.69217
2017    16      7       0.1739219       46.68692
2017    17      0       0.1752937       47.20155
2017    17      1       0.2303468       59.2774
2017    17      2       0.2002752       52.83559
2017    17      3       0.09944678      29.45233
2017    17      4       0.09185147      27.49936
2017    17      5       0.1168401       33.46528
2017    17      6       0.1432472       39.65253
2017    17      7       0.1220249       34.67386
2017    18      0       0.0889294       26.76719
2017    18      1       0.08524593      25.97448
2017    18      2       0.1180431       33.93587
2017    18      3       0.1365101       38.24485
2017    18      4       0.1295676       36.54424
2017    18      5       0.1380628       38.61957
2017    18      6       0.1392019       39.22553
2017    18      7       0.1222334       35.36487
2017    19      0       0.08220092      25.72681
2017    19      1       0.05593527      19.09915
2017    19      2       0.04706209      16.72459
2017    19      3       0.05267109      18.12483
2017    19      4       0.05668045      19.13617
2017    19      5       0.0604947       20.03534
2017    19      6       0.07041168      22.42924
2017    19      7       0.08071983      24.93363
2017    20      0       0.08543485      26.06482
2017    20      1       0.08744873      26.52353
2017    20      2       0.09260993      27.83796
2017    20      3       0.1046128       30.7492
2017    20      4       0.1214318       34.85318
2017    20      5       0.1241283       35.50926
2017    20      6       0.1165928       33.75652
2017    20      7       0.1127468       32.83949
2017    21      0       0.1040928       30.93652
2017    21      1       0.06395882      21.18243
2017    21      2       0.03888245      14.50136
2017    21      3       0.08255055      25.36671
2017    21      4       0.1367833       38.14213
2017    21      5       0.1537794       42.39652
2017    21      6       0.178239        48.02304
2017    21      7       0.1949222       51.81781
2017    22      0       0.1765479       47.88284
2017    22      1       0.1680652       45.95884
2017    22      2       0.173451        47.09165
2017    22      3       0.1549784       43.03702
2017    22      4       0.1318385       37.64382
2017    22      5       0.1273624       36.58557
2017    22      6       0.1120247       32.95863
2017    22      7       0.09456834      28.69106
2017    23      0       0.09258566      28.23138
2017    23      1       0.1039747       31.02433
2017    23      2       0.1096157       32.38108
2017    23      3       0.1141758       33.4048
2017    23      4       0.1300658       37.06282
2017    23      5       0.1259262       36.07379
2017    23      6       0.1195169       34.56133
2017    23      7       0.1057117       31.29893
2017    24      0       0.09138814      27.78143
2017    24      1       0.09512205      28.64565
2017    24      2       0.0837602       25.97512
2017    24      3       0.107001        31.43627
2017    24      4       0.1859949       49.64235
2017    24      5       0.2051676       53.79541
2017    24      6       0.1780587       47.70264
2017    24      7       0.190102        50.23603
2017    25      0       0.1721482       46.34404
2017    25      1       0.1426792       39.6768
2017    25      2       0.1642417       44.5869
2017    25      3       0.1769593       47.54749
2017    25      4       0.2068225       54.15237
2017    25      5       0.2008244       52.95304
2017    25      6       0.1738975       47.04651
2017    25      7       0.1562166       43.12249
2017    26      0       0.1502419       41.7923
2017    26      1       0.1624194       44.48923
2017    26      2       0.1695528       46.01292
2017    26      3       0.1785002       48.05609
2017    26      4       0.2366734       60.45633
2017    26      5       0.2768077       68.61635
2017    26      6       0.2867825       70.62732
2017    26      7       0.2868521       70.78524
2017    27      0       0.271931        67.78187
2017    27      1       0.2686531       67.04539
2017    27      2       0.3005333       73.22145
2017    27      3       0.4404975       98.7701
2017    27      4       0.596042        122.8037
2017    27      5       0.5909112       122.0965
2017    27      6       0.4657815       102.7515
2017    27      7       0.4089019       93.3873
2017    28      0       0.3451811       82.13468
2017    28      1       0.3087385       75.34365
2017    28      2       0.2594011       65.54101
2017    28      3       0.2368504       61.08489
2017    28      4       0.2925293       72.38024
2017    28      5       0.3420442       81.89441
2017    28      6       0.2494889       63.61991
2017    28      7       0.1537598       42.75242
2017    29      0       0.1015129       30.33546
2017    29      1       0.07372189      23.55751
2017    29      2       0.0616935       20.50493
2017    29      3       0.06238363      20.68716
2017    29      4       0.06633796      21.76921
2017    29      5       0.06117924      20.53792
2017    29      6       0.05759806      19.64191
2017    29      7       0.06975961      22.75423
2017    30      0       0.07271456      23.48326
2017    30      1       0.07701844      24.55232
2017    30      2       0.0818628       25.77118
2017    30      3       0.08713101      27.11351
2017    30      4       0.155109        43.26973
2017    30      5       0.1801839       48.94913
2017    30      6       0.1536322       43.03341
2017    30      7       0.132402        38.13429
2018    1       0       0.2582928       66.32692
2018    1       1       0.223788        58.93173
2018    1       2       0.1937248       52.38298
2018    1       3       0.3147965       77.93406
2018    1       4       0.5573542       120.344
2018    1       5       0.4748185       106.8379
2018    1       6       0.4438027       101.5009
2018    1       7       0.3978665       93.15829
2018    2       0       0.3525936       84.79521
2018    2       1       0.3006912       74.74154
2018    2       2       0.2656588       67.42493
2018    2       3       0.3662999       87.23616
2018    2       4       0.7188494       142.334
2018    2       5       1.15534         188.1991
2018    2       6       0.9618233       170.0962
2018    2       7       0.7520414       145.6211
2018    3       0       0.6917976       137.7345
2018    3       1       0.5939314       124.069
2018    3       2       0.5268212       113.8256
2018    3       3       0.5179155       112.4764
2018    3       4       1.070785        179.5913
2018    3       5       0.9678983       168.9089
2018    3       6       0.8839128       160.3166
2018    3       7       0.7010727       138.7719
2018    4       0       0.5354334       114.9949
2018    4       1       0.5451774       115.9448
2018    4       2       0.6859474       135.8472
2018    4       3       0.9644797       167.6964
2018    4       4       1.291871        197.5584
2018    4       5       0.8793985       159.6873
2018    4       6       0.8696113       159.1399
2018    4       7       0.6531495       131.1661
2018    5       0       0.7329165       142.0323
2018    5       1       0.7121578       140.4373
2018    5       2       0.6817441       136.4881
2018    5       3       0.753911        146.5664
2018    5       4       1.107985        182.4118
2018    5       5       1.105783        182.0671
2018    5       6       0.8908553       162.2435
2018    5       7       0.6255759       129.6126
2018    6       0       0.2682905       67.82381
2018    6       1       0.1247566       35.84705
2018    6       2       0.2021188       53.81566
2018    6       3       0.2910621       72.568
2018    6       4       0.6035022       125.8059
2018    6       5       0.7556801       145.8065
2018    6       6       0.7275977       141.8881
2018    6       7       0.7148392       140.7574
2018    7       0       0.4665146       104.4236
2018    7       1       0.3137977       76.8969
2018    7       2       0.2026236       53.92489
2018    7       3       0.3586319       85.77795
2018    7       4       0.7276843       142.6459
2018    7       5       0.8156552       152.7648
2018    7       6       0.8449724       157.5979
2018    7       7       0.4262974       97.79613
2018    8       0       0.4082152       94.35745
2018    8       1       0.4465763       100.8403
2018    8       2       0.3907844       90.99314
2018    8       3       0.5019738       109.9302
2018    8       4       0.6010135       125.0168
2018    8       5       0.5178781       112.5528
2018    8       6       0.3908878       91.35574
2018    8       7       0.3243761       78.66596
2018    9       0       0.3283482       79.07394
2018    9       1       0.4276825       97.16314
2018    9       2       0.4894667       107.7361
2018    9       3       0.6802337       135.3969
2018    9       4       0.6757515       135.2057
2018    9       5       0.9094788       163.5896
2018    9       6       0.6404149       131.569
2018    9       7       0.5140513       112.2799
2018    10      0       0.4528296       102.142
2018    10      1       0.435577        98.93542
2018    10      2       0.6280824       128.0491
2018    10      3       1.119653        183.5102
2018    10      4       0.9784437       169.6966
2018    10      5       0.9546114       168.8464
2018    10      6       0.6028331       125.4005
2018    10      7       0.3485861       83.43044
2018    11      0       0.2213333       57.96648
2018    11      1       0.09737649      29.57873
2018    11      2       0.07966683      25.1342
2018    11      3       0.08825845      27.25923
2018    11      4       0.1060988       31.71345
2018    11      5       0.1568474       43.80179
2018    11      6       0.09759911      29.75915
2018    11      7       0.06977918      22.81575
2018    12      0       0.05769338      19.70734
2018    12      1       0.05438257      18.82478
2018    12      2       0.0692246       22.63193
2018    12      3       0.3114233       76.29243
2018    12      4       0.4655404       103.6085
2018    12      5       0.5706928       118.5346
2018    12      6       0.3395443       80.4622
2018    12      7       0.2746928       67.78125
2018    13      0       0.2190515       56.38158
2018    13      1       0.2451557       62.42869
2018    13      2       0.7175891       141.1593
2018    13      3       0.4313972       98.24858
2018    13      4       0.4189772       96.07275
2018    13      5       0.4580396       102.6839
2018    13      6       0.4514575       101.6929
2018    13      7       0.4880361       107.9064
2018    14      0       0.5308722       114.7041
2018    14      1       0.5588399       118.5315
2018    14      2       0.6002152       124.0376
2018    14      3       0.7927534       149.0642
2018    14      4       0.9930966       171.3911
2018    14      5       0.8560686       156.5253
2018    14      6       0.6752218       135.545
2018    14      7       0.3232075       78.54274
2018    15      0       0.1205443       35.16196
2018    15      1       0.05721863      19.44808
2018    15      2       0.04631049      16.56313
2018    15      3       0.05984416      19.94599
2018    15      4       0.1339683       38.18512
2018    15      5       0.1598134       44.22531
2018    15      6       0.09338062      28.31638
2018    15      7       0.08729996      26.66538
2018    16      0       0.0911851       27.63808
2018    16      1       0.09154532      27.84387
2018    16      2       0.1013266       30.19425
2018    16      3       0.1186348       34.3594
2018    16      4       0.21592         56.58792
2018    16      5       0.2179634       57.00838
2018    16      6       0.203412        53.5153
2018    16      7       0.1876208       50.00188
2018    17      0       0.1751199       46.79713
2018    17      1       0.241291        59.99441
2018    17      2       0.3753452       86.28258
2018    17      3       0.6532303       130.4448
2018    17      4       0.843244        154.6705
2018    17      5       0.9388743       165.1425
2018    17      6       0.77202         146.6444
2018    17      7       0.484314        106.5082
2018    18      0       0.1977682       52.73736
2018    18      1       0.1382361       39.06253
2018    18      2       0.1247108       35.88057
2018    18      3       0.1025382       30.59995
2018    18      4       0.09891731      29.76416
2018    18      5       0.1030058       31.02627
2018    18      6       0.1297334       37.26391
2018    18      7       0.2090754       55.1319
2018    19      0       0.2560254       64.3263
2018    19      1       0.2471154       62.04946
2018    19      2       0.1820882       48.59327
2018    19      3       0.1400921       39.6981
2018    19      4       0.2023686       53.65494
2018    19      5       0.2025502       53.77486
2018    19      6       0.1186912       34.70142
2018    19      7       0.06458595      21.38687
2018    20      0       0.05427078      18.67624
2018    20      1       0.04439233      16.11284
2018    20      2       0.03967232      14.71755
2018    20      3       0.0551132       18.52769
2018    20      4       0.1330013       37.44303
2018    20      5       0.1517147       41.62413
2018    20      6       0.1564284       42.68786
2018    20      7       0.143389        39.7747
2018    21      0       0.1283684       36.43043
2018    21      1       0.1313535       37.13963
2018    21      2       0.1292752       36.36884
2018    21      3       0.1352927       37.4747
2018    21      4       0.1804138       47.8076
2018    21      5       0.2821402       69.38438
2018    21      6       0.3061003       74.31548
2018    21      7       0.3110153       75.59629
2018    22      0       0.2263234       58.69676
2018    22      1       0.1340669       38.16345
2018    22      2       0.1053361       31.30053
2018    22      3       0.1016319       30.38836
2018    22      4       0.1411654       39.82384
2018    22      5       0.1693339       46.30484
2018    22      6       0.1675722       45.87418
2018    22      7       0.1756844       47.50175
2018    23      0       0.1638          44.55491
2018    23      1       0.1343118       38.0068
2018    23      2       0.1002504       30.03741
2018    23      3       0.0942074       28.41392
2018    23      4       0.08125065      25.03289
2018    23      5       0.0876691       26.65858
2018    23      6       0.09152722      27.48183
2018    23      7       0.08618839      26.47904
2018    24      0       0.08280805      25.60093
2018    24      1       0.09273649      28.08002
2018    24      2       0.09174774      27.77499
2018    24      3       0.1047941       30.69135
2018    24      4       0.1603551       43.77376
2018    24      5       0.2253681       57.9442
2018    24      6       0.2430759       61.67551
2018    24      7       0.264344        66.42598
2018    25      0       0.1654276       45.46439
2018    25      1       0.1042233       31.10858
2018    25      2       0.09059275      27.97003
2018    25      3       0.08316236      26.23743
2018    25      4       0.1287808       37.41057
2018    25      5       0.1334624       38.50388
2018    25      6       0.1012321       30.74849
2018    25      7       0.07947053      25.3084
2018    26      0       0.06979286      22.79285
2018    26      1       0.07318547      23.67986
2018    26      2       0.1142202       33.93384
2018    26      3       0.1439361       41.01423
2018    26      4       0.2648353       67.05386
2018    26      5       0.2010991       53.63086
2018    26      6       0.04114612      15.33084
2018    26      7       0.03038904      12.47925
2018    27      0       0.02712003      11.42797
2018    27      1       0.02767396      11.44282
2018    27      2       0.04464542      15.63625
2018    27      3       0.078608        23.89446
2018    27      4       0.1010301       29.12065
2018    27      5       0.117756        33.52745
2018    27      6       0.1412014       39.52915
2018    27      7       0.158869        43.74664
2018    28      0       0.1721493       46.89653
2018    28      1       0.1672811       45.89668
2018    28      2       0.2597872       65.65644
2018    28      3       0.3078268       75.01416
2018    28      4       0.5537874       116.2786
2018    28      5       0.5532858       116.9509
2018    28      6       0.2654436       66.5479
2018    28      7       0.1419464       39.85066
2018    29      0       0.1021455       30.31013
2018    29      1       0.08709314      26.58745
2018    29      2       0.1001008       30.08248
2018    29      3       0.1169984       34.33553
2018    29      4       0.1367959       38.82406
2018    29      5       0.2359677       60.21269
2018    29      6       0.234385        59.73322
2018    29      7       0.2264659       58.15528
2018    30      0       0.2629054       65.57576
2018    30      1       0.1910499       50.71686
2018    30      2       0.1154784       33.64241
2018    30      3       0.1035281       30.74934
2018    30      4       0.1715319       46.57496
2018    30      5       0.1464236       41.01756
2018    30      6       0.05854454      19.76666
2018    30      7       0.04229371      15.50139
