####################################################################################################
# Month: 07Jul                                                                                     #
# Station: BAJA                                                                                    #
# Frequency: 230 GHz                                                                               #
# Columns are: year    day     segment         tau     Tb (K)                                      #
####################################################################################################
2009    1       0       1.198804        194.2973
2009    1       1       0.9549052       171.994
2009    1       2       0.9084279       166.8987
2009    1       3       1.08173         183.7518
2009    1       4       1.210809        195.0699
2009    1       5       1.401242        208.9069
2009    1       6       1.344398        203.6402
2009    1       7       1.103366        185.2238
2009    2       0       1.014474        178.0019
2009    2       1       0.6664129       137.4561
2009    2       2       0.6074837       129.0263
2009    2       3       0.5926881       126.6998
2009    2       4       0.5705389       123.1691
2009    2       5       0.5219086       115.5082
2009    2       6       0.5484443       119.8768
2009    2       7       0.765215        150.8252
2009    3       0       0.6127996       130.1035
2009    3       1       0.4546891       105.0101
2009    3       2       0.3837761       92.19707
2009    3       3       0.3662345       88.69316
2009    3       4       0.397576        94.19584
2009    3       5       0.4075119       95.88036
2009    3       6       0.4175614       97.87003
2009    3       7       0.4420529       102.4652
2009    4       0       0.4669754       106.821
2009    4       1       0.3934786       93.70137
2009    4       2       0.3702584       89.20669
2009    4       3       0.355165        86.39682
2009    4       4       0.3980881       94.09789
2009    4       5       0.4008899       94.60875
2009    4       6       0.3686368       88.85263
2009    4       7       0.4392688       101.7806
2009    5       0       0.4400156       101.9576
2009    5       1       0.3481002       85.30497
2009    5       2       0.3576981       87.11173
2009    5       3       0.43355         100.9449
2009    5       4       0.3959509       94.08967
2009    5       5       0.3722744       89.70007
2009    5       6       0.3678334       88.87313
2009    5       7       0.4741054       107.7944
2009    6       0       0.4583222       105.3482
2009    6       1       0.3403194       84.14996
2009    6       2       0.2977758       75.81298
2009    6       3       0.2667666       69.39615
2009    6       4       0.1771769       49.55503
2009    6       5       0.1428413       41.38909
2009    6       6       0.1815377       50.46817
2009    6       7       0.206646        56.14301
2009    7       0       0.1776805       49.72882
2009    7       1       0.1266242       37.57894
2009    7       2       0.120116        35.86592
2009    7       3       0.1835693       50.85336
2009    7       4       0.4742965       108.3911
2009    7       5       0.5156778       115.2389
2009    7       6       0.3436512       84.61771
2009    7       7       0.2880229       73.56942
2009    8       0       0.2465504       65.08968
2009    8       1       0.2063045       56.26602
2009    8       2       0.1821736       50.73874
2009    8       3       0.177624        49.57964
2009    8       4       0.2140947       57.73135
2009    8       5       0.2400088       63.35885
2009    8       6       0.2934284       74.23211
2009    8       7       0.3546589       85.60036
2009    9       0       0.4691164       105.9203
2009    9       1       0.5577234       120.5696
2009    9       2       0.5941481       126.0253
2009    9       3       0.6217345       129.8514
2009    9       4       0.6885168       138.7323
2009    9       5       0.7273121       143.6648
2009    9       6       0.7205482       142.5219
2009    9       7       0.7282275       143.0863
2009    10      0       0.8025434       151.8548
2009    10      1       0.8008642       151.9084
2009    10      2       0.8697079       160.2459
2009    10      3       0.8858313       162.9371
2009    10      4       0.9526673       169.7947
2009    10      5       0.8400029       157.8588
2009    10      6       0.7505105       146.5339
2009    10      7       0.645276        132.29
2009    11      0       0.7290845       142.7122
2009    11      1       0.6897572       138.2615
2009    11      2       0.6917521       139.1553
2009    11      3       0.7457773       146.4127
2009    11      4       0.8041028       153.8907
2009    11      5       0.8425855       158.6967
2009    11      6       0.6903367       139.5804
2009    11      7       0.5887186       125.331
2009    12      0       0.5590269       121.0983
2009    12      1       0.5345669       117.6934
2009    12      2       0.5011712       112.3113
2009    12      3       0.4908865       110.5648
2009    12      4       0.4402467       101.8697
2009    12      5       0.3965768       94.12881
2009    12      6       0.4423431       102.0853
2009    12      7       0.4786333       108.3029
2009    13      0       0.4559312       104.6153
2009    13      1       0.3810835       91.37051
2009    13      2       0.3361892       82.4441
2009    13      3       0.4389335       100.723
2009    13      4       0.5236267       114.8863
2009    13      5       0.6481601       132.9263
2009    13      6       0.6808934       137.3892
2009    13      7       0.6725772       136.7496
2009    14      0       0.6596071       135.305
2009    14      1       0.6333877       131.7865
2009    14      2       0.6322349       131.8942
2009    14      3       0.6094564       128.7197
2009    14      4       0.6749222       138.4288
2009    14      5       0.7954776       154.2272
2009    14      6       0.8068998       155.4151
2009    14      7       0.784232        152.4486
2009    15      0       0.7433829       147.4479
2009    15      1       0.6417952       133.7687
2009    15      2       0.6712491       137.4945
2009    15      3       0.8853107       163.8416
2009    15      4       0.8408304       159.5062
2009    15      5       0.7490347       148.3311
2009    15      6       0.6256704       131.5511
2009    15      7       0.6243705       130.9058
2009    16      0       0.6472798       133.5996
2009    16      1       0.5531573       119.656
2009    16      2       0.4430304       101.4087
2009    16      3       0.4328761       99.62483
2009    16      4       0.5299774       115.7127
2009    16      5       0.6649622       135.2367
2009    16      6       0.7565457       147.3075
2009    16      7       0.8684426       161.1557
2009    17      0       0.7770645       150.6962
2009    17      1       0.6384183       132.4165
2009    17      2       0.6471031       133.5016
2009    17      3       0.7583772       148.1717
2009    17      4       0.7014724       139.7522
2009    17      5       0.6411467       131.4456
2009    17      6       0.7684862       148.1938
2009    17      7       0.8118662       153.5824
2009    18      0       0.8028379       153.3738
2009    18      1       0.926364        167.8871
2009    18      2       0.7931234       153.2629
2009    18      3       0.7709326       150.6028
2009    18      4       0.7371983       146.5612
2009    18      5       0.9093841       166.7887
2009    18      6       0.9157856       166.383
2009    18      7       0.9024004       164.8917
2009    19      0       0.7756899       150.682
2009    19      1       0.7503605       147.6261
2009    19      2       0.7373391       145.6055
2009    19      3       0.7937228       152.4353
2009    19      4       0.7730719       149.8146
2009    19      5       0.6427359       132.2092
2009    19      6       0.5641196       120.5337
2009    19      7       0.6291898       130.8423
2009    20      0       0.7110564       142.3363
2009    20      1       0.6775549       137.9664
2009    20      2       0.6970977       140.4712
2009    20      3       0.776758        150.362
2009    20      4       0.8424403       158.4757
2009    20      5       0.781234        151.1695
2009    20      6       0.6586779       134.9741
2009    20      7       0.8026069       153.9559
2009    21      0       0.8358555       158.3384
2009    21      1       0.5167025       114.4303
2009    21      2       0.3544448       85.39697
2009    21      3       0.4130527       96.01469
2009    21      4       0.5355635       116.8082
2009    21      5       0.6116122       128.536
2009    21      6       0.7178765       143.6616
2009    21      7       0.8686632       162.3905
2009    22      0       0.706942        142.5133
2009    22      1       0.6195686       130.3271
2009    22      2       0.5776363       123.8393
2009    22      3       0.5384286       117.5764
2009    22      4       0.579897        123.5514
2009    22      5       0.5858065       124.3914
2009    22      6       0.6173617       129.1657
2009    22      7       0.8102859       154.5435
2009    23      0       0.7757745       150.5028
2009    23      1       0.6443825       133.2503
2009    23      2       0.6259855       130.3876
2009    23      3       0.6711814       136.7295
2009    23      4       0.7421736       146.2197
2009    23      5       0.7273482       144.2966
2009    23      6       0.7145954       142.2598
2009    23      7       0.6706275       136.0028
2009    24      0       0.6879634       138.0441
2009    24      1       0.7785868       148.857
2009    24      2       0.8930229       162.0717
2009    24      3       0.9433341       167.6454
2009    24      4       0.9977351       173.8155
2009    24      5       0.9407713       168.1134
2009    24      6       0.9688451       171.1424
2009    24      7       1.072317        181.6381
2009    25      0       1.064535        181.426
2009    25      1       0.9038566       165.3235
2009    25      2       0.7308196       144.3723
2009    25      3       0.5961016       125.3947
2009    25      4       0.455548        102.7238
2009    25      5       0.5466133       116.7565
2009    25      6       0.8339921       156.779
2009    25      7       0.8226281       156.0397
2009    26      0       0.7168643       143.3777
2009    26      1       0.5697569       122.5771
2009    26      2       0.4818381       108.0311
2009    26      3       0.4439144       101.1824
2009    26      4       0.4209184       96.87845
2009    26      5       0.3968722       92.89573
2009    26      6       0.4857026       108.3873
2009    26      7       0.5070816       112.3851
2009    27      0       0.4810825       108.6117
2009    27      1       0.4066541       95.80091
2009    27      2       0.3741903       89.97299
2009    27      3       0.3736399       89.97177
2009    27      4       0.3256805       80.65666
2009    27      5       0.2544397       65.89034
2009    27      6       0.2686125       68.78029
2009    27      7       0.3811352       90.90222
2009    28      0       0.3571229       86.64164
2009    28      1       0.3363047       83.14453
2009    28      2       0.3037115       76.5986
2009    28      3       0.2897635       73.54653
2009    28      4       0.2663594       68.60765
2009    28      5       0.1933351       52.56805
2009    28      6       0.1686175       47.01267
2009    28      7       0.1623885       45.70269
2009    29      0       0.1424215       40.99187
2009    29      1       0.1280675       37.44818
2009    29      2       0.1292147       37.67627
2009    29      3       0.1321385       38.42168
2009    29      4       0.1552802       44.10761
2009    29      5       0.1891325       51.97261
2009    29      6       0.2066954       55.91593
2009    29      7       0.2256977       60.13226
2009    30      0       0.1908547       52.56394
2009    30      1       0.1646925       46.47633
2009    30      2       0.1427018       41.21924
2009    30      3       0.1257565       37.1633
2009    30      4       0.1272454       37.44864
2009    30      5       0.1250629       36.77155
2009    30      6       0.1128967       33.80177
2009    30      7       0.1183019       35.20495
2009    31      0       0.1303539       38.21354
2009    31      1       0.1208117       35.92114
2009    31      2       0.1354163       39.45501
2009    31      3       0.1591137       44.97771
2009    31      4       0.1647717       46.32322
2009    31      5       0.1722051       48.08264
2009    31      6       0.1818984       50.22806
2009    31      7       0.2139025       57.38372
2010    1       0       0.4256653       99.20924
2010    1       1       0.4189875       98.12244
2010    1       2       0.4565574       104.1698
2010    1       3       0.4266774       98.63166
2010    1       4       0.3829481       90.79709
2010    1       5       0.3750783       89.49374
2010    1       6       0.3982076       93.96073
2010    1       7       0.4043824       95.35061
2010    2       0       0.3620852       87.86786
2010    2       1       0.3176511       79.39922
2010    2       2       0.3329177       82.40447
2010    2       3       0.3432359       84.29203
2010    2       4       0.3152157       78.7785
2010    2       5       0.3069173       77.15377
2010    2       6       0.2535306       66.16215
2010    2       7       0.2148457       57.85501
2010    3       0       0.208157        56.46271
2010    3       1       0.1508207       43.36251
2010    3       2       0.09290991      29.25449
2010    3       3       0.05066311      18.22344
2010    3       4       0.03906421      15.02588
2010    3       5       0.03567808      14.07455
2010    3       6       0.04251674      15.96476
2010    3       7       0.05542594      19.46999
2010    4       0       0.06587626      22.25624
2010    4       1       0.06764504      22.73002
2010    4       2       0.06585515      22.23138
2010    4       3       0.06681482      22.44514
2010    4       4       0.07047261      23.35734
2010    4       5       0.07237608      23.84882
2010    4       6       0.06494988      21.96633
2010    4       7       0.05727387      19.99768
2010    5       0       0.04786052      17.46817
2010    5       1       0.0397288       15.22336
2010    5       2       0.03977924      15.21317
2010    5       3       0.04509635      16.64906
2010    5       4       0.04932298      17.79223
2010    5       5       0.04904797      17.72314
2010    5       6       0.04865881      17.60969
2010    5       7       0.06869832      22.90955
2010    6       0       0.0672215       22.57067
2010    6       1       0.03716028      14.50226
2010    6       2       0.040379        15.37016
2010    6       3       0.04717617      17.19955
2010    6       4       0.04586407      16.84325
2010    6       5       0.0443245       16.41696
2010    6       6       0.0432694       16.13513
2010    6       7       0.05497968      19.33178
2010    7       0       0.06246086      21.31635
2010    7       1       0.04248877      15.94363
2010    7       2       0.04484503      16.56181
2010    7       3       0.05212207      18.48377
2010    7       4       0.06668768      22.29948
2010    7       5       0.09452245      29.40861
2010    7       6       0.1202983       35.79807
2010    7       7       0.1446522       41.65645
2010    8       0       0.1299315       38.24827
2010    8       1       0.1109041       33.65941
2010    8       2       0.1202949       35.97095
2010    8       3       0.1142301       34.44645
2010    8       4       0.09642103      29.98793
2010    8       5       0.156299        44.3853
2010    8       6       0.1862944       51.19829
2010    8       7       0.2401934       63.10186
2010    9       0       0.2863275       72.86721
2010    9       1       0.3536628       86.41192
2010    9       2       0.5649245       122.4402
2010    9       3       0.7752145       150.803
2010    9       4       0.9338049       168.8846
2010    9       5       0.7731023       150.8651
2010    9       6       0.8426679       159.126
2010    9       7       0.8225902       156.68
2010    10      0       0.8035062       154.9561
2010    10      1       0.7475478       148.4626
2010    10      2       0.7813512       152.494
2010    10      3       0.6860014       139.7157
2010    10      4       0.6468587       134.016
2010    10      5       0.7028502       141.8734
2010    10      6       0.9738967       173.5948
2010    10      7       1.30683         202.6732
2010    11      0       0.8986455       165.4439
2010    11      1       0.7769959       151.0668
2010    11      2       0.8870375       163.3464
2010    11      3       1.02775         177.5336
2010    11      4       1.036575        178.3233
2010    11      5       1.042828        179.0521
2010    11      6       1.159964        189.641
2010    11      7       1.217581        194.5468
2010    12      0       1.260506        198.4927
2010    12      1       1.029931        179.005
2010    12      2       0.8224466       157.0645
2010    12      3       0.6586814       136.2841
2010    12      4       0.6097982       129.1503
2010    12      5       0.6318912       132.0249
2010    12      6       0.7391038       146.55
2010    12      7       0.8813153       163.8539
2010    13      0       0.698669        141.6055
2010    13      1       0.6237956       131.0491
2010    13      2       0.6672556       136.3931
2010    13      3       0.7134999       142.3364
2010    13      4       0.7834949       151.4871
2010    13      5       0.9539328       171.2967
2010    13      6       0.9034825       166.305
2010    13      7       0.9579616       171.9771
2010    14      0       0.7956017       153.7284
2010    14      1       0.6230035       130.8787
2010    14      2       0.6392182       133.0714
2010    14      3       0.7049267       141.9962
2010    14      4       0.693791        140.4566
2010    14      5       0.6901632       139.9702
2010    14      6       0.6619529       136.268
2010    14      7       0.7767528       151.5454
2010    15      0       0.6266167       131.4544
2010    15      1       0.5875317       125.3673
2010    15      2       0.6308517       131.4649
2010    15      3       0.7085436       141.5637
2010    15      4       0.699448        140.0611
2010    15      5       0.6290917       130.4145
2010    15      6       0.7145488       141.9921
2010    15      7       0.8989189       164.1625
2010    16      0       0.6932829       139.2571
2010    16      1       0.4640779       104.4549
2010    16      2       0.5059809       110.8714
2010    16      3       0.532969        115.1105
2010    16      4       0.4552516       102.6568
2010    16      5       0.382858        89.45107
2010    16      6       0.4154694       94.92284
2010    16      7       0.5410994       116.5482
2010    17      0       0.6607616       134.5386
2010    17      1       0.7405355       145.5789
2010    17      2       0.6618219       135.2629
2010    17      3       0.7218724       143.2802
2010    17      4       0.7311764       144.2566
2010    17      5       0.9005527       164.8739
2010    17      6       0.9504609       169.6922
2010    17      7       1.173913        190.7694
2010    18      0       0.9467506       169.5389
2010    18      1       0.8058798       153.7802
2010    18      2       0.6491391       133.652
2010    18      3       0.6271375       130.4399
2010    18      4       0.705085        141.4027
2010    18      5       0.7703724       150.217
2010    18      6       0.7492234       147.5733
2010    18      7       0.7431782       146.522
2010    19      0       0.7600521       149.132
2010    19      1       0.6198421       130.4489
2010    19      2       0.5663839       122.2045
2010    19      3       0.4520551       103.8329
2010    19      4       0.4108627       96.3419
2010    19      5       0.3720142       89.58163
2010    19      6       0.5958066       126.8777
2010    19      7       0.6664991       137.0819
2010    20      0       0.5445294       118.6624
2010    20      1       0.5720527       121.1857
2010    20      2       0.5408961       115.9924
2010    20      3       0.5127914       113.1098
2010    20      4       0.4538175       103.7578
2010    20      5       0.5077087       112.3359
2010    20      6       0.5058365       112.2724
2010    20      7       0.5711125       122.6603
2010    21      0       0.5952114       126.1359
2010    21      1       0.601504        127.0777
2010    21      2       0.6456004       133.7248
2010    21      3       0.8843938       163.1614
2010    21      4       0.7841869       151.5523
2010    21      5       0.6792389       138.18
2010    21      6       0.5869978       125.1143
2010    21      7       0.5605841       121.0452
2010    22      0       0.5240691       115.5696
2010    22      1       0.4973417       111.3649
2010    22      2       0.4645015       105.5193
2010    22      3       0.4587417       104.2937
2010    22      4       0.4223367       97.79176
2010    22      5       0.3372642       82.19854
2010    22      6       0.3449338       83.73697
2010    22      7       0.3584126       86.44698
2010    23      0       0.3738123       89.43794
2010    23      1       0.3630355       87.41375
2010    23      2       0.3147652       77.97877
2010    23      3       0.2741257       69.84606
2010    23      4       0.2511338       64.95369
2010    23      5       0.2282802       59.90436
2010    23      6       0.2637273       67.52395
2010    23      7       0.3364848       82.24798
2010    24      0       0.3546473       85.8396
2010    24      1       0.3015719       75.71803
2010    24      2       0.2201589       58.65606
2010    24      3       0.2510323       65.39395
2010    24      4       0.3252167       80.43952
2010    24      5       0.3798394       90.74324
2010    24      6       0.4517713       103.5479
2010    24      7       0.6234484       130.6216
2010    25      0       0.5513289       120.1925
2010    25      1       0.4936991       111.3669
2010    25      2       0.5470966       119.6997
2010    25      3       0.5853348       125.226
2010    25      4       0.6507076       134.431
2010    25      5       0.7387419       146.188
2010    25      6       0.6921276       140.3647
2010    25      7       0.8515407       160.2471
2010    26      0       0.9520645       171.3987
2010    26      1       0.8924277       165.0753
2010    26      2       0.7653729       149.9881
2010    26      3       0.5121684       113.838
2010    26      4       0.448058        102.8548
2010    26      5       0.4609892       105.1143
2010    26      6       0.4357631       100.9209
2010    26      7       0.4423902       102.0494
2010    27      0       0.4238844       99.09827
2010    27      1       0.3671484       88.82996
2010    27      2       0.3855184       92.21204
2010    27      3       0.4123968       97.06353
2010    27      4       0.4481946       103.1934
2010    27      5       0.5101451       113.4302
2010    27      6       0.5614491       121.6113
2010    27      7       0.5957887       126.7318
2010    28      0       0.593814        126.2639
2010    28      1       0.6049384       127.4329
2010    28      2       0.6245602       130.03
2010    28      3       0.6410923       132.4858
2010    28      4       0.7137631       142.6977
2010    28      5       0.7410924       146.5942
2010    28      6       0.7167676       143.6852
2010    28      7       0.6814897       138.7302
2010    29      0       0.6517575       134.7933
2010    29      1       0.6300457       132.0877
2010    29      2       0.638782        133.2907
2010    29      3       0.5917788       126.5444
2010    29      4       0.5034554       112.6069
2010    29      5       0.4352689       101.0212
2010    29      6       0.5555646       121.0306
2010    29      7       0.9650168       173.9877
2010    30      0       0.8327668       159.3467
2010    30      1       0.6917349       141.3448
2010    30      2       0.7666424       151.3534
2010    30      3       0.8070349       156.4285
2010    30      4       0.9135313       168.504
2010    30      5       0.9014807       166.9063
2010    30      6       0.9307491       169.5646
2010    30      7       1.013509        177.619
2010    31      0       0.9889169       174.9451
2010    31      1       0.9735487       172.7457
2010    31      2       0.9316303       168.3132
2010    31      3       0.9972565       174.8291
2010    31      4       0.9523683       170.2617
2010    31      5       1.012031        176.3327
2010    31      6       1.006443        175.192
2010    31      7       0.8967247       162.6383
2011    1       0       0.2699979       69.69686
2011    1       1       0.2355276       62.52301
2011    1       2       0.2142492       57.90177
2011    1       3       0.1937015       53.2477
2011    1       4       0.1779087       49.58961
2011    1       5       0.1793519       49.98052
2011    1       6       0.196989        54.03613
2011    1       7       0.2336368       62.12348
2011    2       0       0.229073        61.20593
2011    2       1       0.1909613       52.84307
2011    2       2       0.1695053       47.96065
2011    2       3       0.2155387       58.13527
2011    2       4       0.3258806       80.84126
2011    2       5       0.3719811       89.6593
2011    2       6       0.4380495       101.1042
2011    2       7       0.5198354       113.9353
2011    3       0       0.5600394       120.325
2011    3       1       0.5937297       125.8059
2011    3       2       0.6507421       134.7518
2011    3       3       0.7671116       150.3028
2011    3       4       0.8695912       161.9391
2011    3       5       0.8949261       164.2961
2011    3       6       0.7861203       151.5212
2011    3       7       1.030076        178.4665
2011    4       0       1.121756        187.4018
2011    4       1       0.8926333       164.451
2011    4       2       1.000456        175.2977
2011    4       3       0.8139426       155.7427
2011    4       4       0.6882967       139.8092
2011    4       5       0.5574377       120.7328
2011    4       6       0.5366112       117.2631
2011    4       7       0.6454911       133.1095
2011    5       0       0.7681538       149.1223
2011    5       1       0.8468323       159.015
2011    5       2       0.764614        149.1233
2011    5       3       0.7572786       148.1753
2011    5       4       0.7296624       144.5389
2011    5       5       0.7283055       144.0899
2011    5       6       0.8352816       156.3414
2011    5       7       0.8517536       157.5832
2011    6       0       0.9779132       171.7775
2011    6       1       0.7408651       144.9821
2011    6       2       0.6096764       126.8306
2011    6       3       0.6195593       128.3087
2011    6       4       0.6069633       126.5304
2011    6       5       0.6286326       129.6439
2011    6       6       0.7290453       143.6431
2011    6       7       0.9882642       174.1127
2011    7       0       1.05565         181.0714
2011    7       1       0.7153754       143.3733
2011    7       2       0.541833        118.3132
2011    7       3       0.4986291       111.3388
2011    7       4       0.51682         113.9695
2011    7       5       0.5864268       124.9112
2011    7       6       0.925544        167.3466
2011    7       7       0.829887        156.6337
2011    8       0       1.160617        190.2091
2011    8       1       0.8339763       157.3531
2011    8       2       0.740327        145.5844
2011    8       3       0.6967058       139.9597
2011    8       4       0.7017477       141.0386
2011    8       5       0.6650822       135.929
2011    8       6       0.6749629       137.7339
2011    8       7       0.7124284       143.3628
2011    9       0       0.652737        135.6107
2011    9       1       0.4916675       111.0929
2011    9       2       0.4641748       106.1224
2011    9       3       0.4297174       100.1438
2011    9       4       0.4186989       98.20893
2011    9       5       0.4511118       104.0066
2011    9       6       0.4978077       111.9572
2011    9       7       0.6102563       129.6004
2011    10      0       0.6922985       141.1622
2011    10      1       0.5207849       116.0827
2011    10      2       0.471905        107.8969
2011    10      3       0.5330318       117.7189
2011    10      4       0.5788835       124.7837
2011    10      5       0.5250429       116.3812
2011    10      6       0.4308487       100.5043
2011    10      7       0.4653084       106.3716
2011    11      0       0.4154454       97.7099
2011    11      1       0.2044074       55.5523
2011    11      2       0.1535266       43.69209
2011    11      3       0.1195023       35.38826
2011    11      4       0.1019502       30.90265
2011    11      5       0.1200817       35.31499
2011    11      6       0.1406211       40.30733
2011    11      7       0.1856055       50.74628
2011    12      0       0.1844919       50.41984
2011    12      1       0.126894        36.92235
2011    12      2       0.109392        32.52123
2011    12      3       0.1141019       33.47346
2011    12      4       0.1132879       33.17445
2011    12      5       0.09974942      30.06337
2011    12      6       0.09626575      29.32726
2011    12      7       0.1165616       34.50075
2011    13      0       0.1279361       37.44947
2011    13      1       0.09139817      28.57139
2011    13      2       0.0693208       22.95873
2011    13      3       0.0468856       17.0842
2011    13      4       0.0702311       23.0839
2011    13      5       0.08677321      27.36432
2011    13      6       0.07910946      25.44053
2011    13      7       0.07660665      24.82275
2011    14      0       0.08059442      25.89175
2011    14      1       0.06099115      20.88906
2011    14      2       0.03904772      14.98448
2011    14      3       0.03976083      15.08662
2011    14      4       0.05390885      18.85354
2011    14      5       0.06685544      22.18074
2011    14      6       0.07812394      25.08706
2011    14      7       0.1016251       31.12088
2011    15      0       0.1145915       34.4402
2011    15      1       0.104602        31.95231
2011    15      2       0.1042362       31.8275
2011    15      3       0.09996803      30.76369
2011    15      4       0.07981483      25.69709
2011    15      5       0.06479477      21.80973
2011    15      6       0.06241145      21.18776
2011    15      7       0.08402676      26.81716
2011    16      0       0.09423233      29.43224
2011    16      1       0.06632863      22.25258
2011    16      2       0.06355804      21.50386
2011    16      3       0.05978484      20.4748
2011    16      4       0.04919634      17.64678
2011    16      5       0.04286624      15.95364
2011    16      6       0.05076653      18.11637
2011    16      7       0.08597414      27.37968
2011    17      0       0.06786061      22.79881
2011    17      1       0.04216907      15.80123
2011    17      2       0.05030647      18.01469
2011    17      3       0.1067585       32.21951
2011    17      4       0.2042321       54.66044
2011    17      5       0.3371568       81.90382
2011    17      6       0.4870418       108.0814
2011    17      7       0.4727345       105.2639
2011    18      0       0.5286709       114.413
2011    18      1       0.6127139       126.9316
2011    18      2       0.7654339       149.0972
2011    18      3       0.7375268       146.0749
2011    18      4       0.748317        147.4415
2011    18      5       0.7804547       151.3437
2011    18      6       0.7603227       148.3972
2011    18      7       0.7401737       145.5291
2011    19      0       0.7338875       145.0526
2011    19      1       0.7989845       153.575
2011    19      2       0.7833605       151.7017
2011    19      3       0.7609111       148.6949
2011    19      4       0.7680737       149.6148
2011    19      5       0.749796        147.3576
2011    19      6       0.7356033       145.4385
2011    19      7       0.7656218       149.5469
2011    20      0       0.7383968       146.6047
2011    20      1       0.6878632       140.3648
2011    20      2       0.673093        138.1859
2011    20      3       0.6468898       134.186
2011    20      4       0.6437425       134.0638
2011    20      5       0.6382146       133.0411
2011    20      6       0.6708206       137.1088
2011    20      7       0.6808843       138.4675
2011    21      0       0.6226292       130.4178
2011    21      1       0.5809568       124.6406
2011    21      2       0.6076561       128.8074
2011    21      3       0.6424644       133.7421
2011    21      4       0.6022234       127.9803
2011    21      5       0.5748784       123.938
2011    21      6       0.5656784       122.4953
2011    21      7       0.5258181       116.1202
2011    22      0       0.4827719       109.1976
2011    22      1       0.4713885       107.4152
2011    22      2       0.4899526       110.5092
2011    22      3       0.503969        112.7918
2011    22      4       0.5221787       115.5198
2011    22      5       0.5222855       115.3908
2011    22      6       0.5121923       113.7977
2011    22      7       0.5312663       116.5522
2011    23      0       0.564722        121.6946
2011    23      1       0.5509945       119.7162
2011    23      2       0.5058907       112.5536
2011    23      3       0.462583        105.1163
2011    23      4       0.4555986       103.8757
2011    23      5       0.5019552       111.1843
2011    23      6       0.6708022       135.9556
2011    23      7       0.8133477       154.2445
2011    24      0       0.9516872       169.6358
2011    24      1       1.137795        187.4891
2011    24      2       1.08134         182.1988
2011    24      3       1.13816         188.1745
2011    24      4       1.019107        177.2156
2011    24      5       1.042004        179.2372
2011    24      6       1.145728        188.5132
2011    24      7       1.32666         203.6795
2011    25      0       1.00191         176.0182
2011    25      1       0.9945493       175.429
2011    25      2       1.111161        186.1479
2011    25      3       0.9781591       173.4357
2011    25      4       0.8443747       159.0896
2011    25      5       0.7590758       148.7941
2011    25      6       0.7541706       147.6905
2011    25      7       0.7607225       148.5657
2011    26      0       0.6228698       130.3177
2011    26      1       0.4988776       111.5017
2011    26      2       0.4592144       104.8331
2011    26      3       0.421728        98.28415
2011    26      4       0.4026037       94.80384
2011    26      5       0.3590907       86.54121
2011    26      6       0.3765993       90.09837
2011    26      7       0.4317808       100.1787
2011    27      0       0.3524508       85.62043
2011    27      1       0.2780016       70.42138
2011    27      2       0.2994278       74.61115
2011    27      3       0.3466752       83.42612
2011    27      4       0.425866        97.94969
2011    27      5       0.5623331       120.5324
2011    27      6       0.6208425       129.4499
2011    27      7       0.5789299       123.4892
2011    28      0       0.5589146       120.3029
2011    28      1       0.5775146       121.9714
2011    28      2       0.637388        130.2959
2011    28      3       0.5505813       117.877
2011    28      4       0.5206401       113.7304
2011    28      5       0.5424928       117.5269
2011    28      6       0.5931835       125.4222
2011    28      7       0.6872068       138.9283
2011    29      0       0.7368461       145.6001
2011    29      1       0.7059136       140.8583
2011    29      2       0.6939817       139.2511
2011    29      3       0.806726        153.952
2011    29      4       0.9611078       171.4512
2011    29      5       1.106485        185.4721
2011    29      6       1.182877        192.0806
2011    29      7       1.279478        199.3515
2011    30      0       1.190737        191.669
2011    30      1       1.253754        197.0909
2011    30      2       1.407634        208.6567
2011    30      3       1.310507        201.5275
2011    30      4       1.182025        191.6279
2011    30      5       1.170689        191.4815
2011    30      6       1.158527        190.499
2011    30      7       1.229712        196.4695
2011    31      0       1.33304         204.2171
2011    31      1       1.086349        184.1728
2011    31      2       0.9823634       174.4295
2011    31      3       1.055469        182.0591
2011    31      4       1.107497        187.0693
2011    31      5       0.9315283       169.812
2011    31      6       0.8223364       157.7055
2011    31      7       0.8811478       165.168
2012    1       0       0.4786245       106.4712
2012    1       1       0.3959492       93.05134
2012    1       2       0.3385329       82.90061
2012    1       3       0.2901918       73.37323
2012    1       4       0.2768582       70.34089
2012    1       5       0.2837207       71.78543
2012    1       6       0.2856408       72.3861
2012    1       7       0.282678        71.77535
2012    2       0       0.2336847       61.72742
2012    2       1       0.1787722       49.48472
2012    2       2       0.1629507       45.81003
2012    2       3       0.1375702       39.74436
2012    2       4       0.121236        35.7944
2012    2       5       0.1079127       32.57364
2012    2       6       0.1132618       33.85507
2012    2       7       0.1294497       37.84199
2012    3       0       0.1228564       36.27545
2012    3       1       0.1523431       43.21646
2012    3       2       0.2705177       69.27463
2012    3       3       0.3427161       83.58023
2012    3       4       0.3243826       79.96441
2012    3       5       0.3288463       80.80567
2012    3       6       0.385137        91.21749
2012    3       7       0.6191305       129.1513
2012    4       0       1.01883         175.8708
2012    4       1       0.9386408       168.9095
2012    4       2       1.006304        176.4565
2012    4       3       1.051516        181.0226
2012    4       4       0.6087215       128.5842
2012    4       5       0.2034539       54.98823
2012    4       6       0.09971038      30.4692
2012    4       7       0.2121919       56.61576
2012    5       0       0.3306898       81.35072
2012    5       1       0.3317789       81.44383
2012    5       2       0.3092915       76.66921
2012    5       3       0.2745948       69.61371
2012    5       4       0.2151355       57.21077
2012    5       5       0.1550669       43.80428
2012    5       6       0.1283904       37.57696
2012    5       7       0.1394576       40.30955
2012    6       0       0.1467227       42.07055
2012    6       1       0.1515225       43.19501
2012    6       2       0.1637452       45.94715
2012    6       3       0.1577997       44.58319
2012    6       4       0.1223621       36.17349
2012    6       5       0.1086608       32.83046
2012    6       6       0.1276951       37.42539
2012    6       7       0.1491183       42.5394
2012    7       0       0.1608722       45.34525
2012    7       1       0.1308001       38.34413
2012    7       2       0.1073512       32.59332
2012    7       3       0.1003325       30.81562
2012    7       4       0.1132776       33.98054
2012    7       5       0.1799737       49.53686
2012    7       6       0.2843276       71.80336
2012    7       7       0.3094341       76.90654
2012    8       0       0.2993776       75.1774
2012    8       1       0.2613899       67.4752
2012    8       2       0.3334726       81.78368
2012    8       3       0.4855405       109.0258
2012    8       4       0.5147161       113.4929
2012    8       5       0.4655075       105.2171
2012    8       6       0.5418307       117.3677
2012    8       7       0.6311343       130.6595
2012    9       0       0.6577996       134.6001
2012    9       1       0.684103        138.5447
2012    9       2       0.6741888       137.0944
2012    9       3       0.6157466       128.6289
2012    9       4       0.5358971       116.7833
2012    9       5       0.491916        110.1573
2012    9       6       0.5087011       113.1866
2012    9       7       0.6275927       131.3609
2012    10      0       0.7733327       150.5958
2012    10      1       0.7374438       146.0001
2012    10      2       0.7581821       148.9902
2012    10      3       0.7577924       149.0356
2012    10      4       0.5512818       119.7351
2012    10      5       0.6548341       134.3711
2012    10      6       0.9202089       165.658
2012    10      7       1.149765        187.7025
2012    11      0       1.040801        178.0929
2012    11      1       0.8692087       159.7345
2012    11      2       0.8334303       155.874
2012    11      3       0.742594        145.6323
2012    11      4       0.7741903       149.8192
2012    11      5       0.7313679       144.5325
2012    11      6       0.7533304       147.3103
2012    11      7       1.173788        190.6173
2012    12      0       1.280363        199.7593
2012    12      1       1.43532         210.8906
2012    12      2       0.9016773       164.7009
2012    12      3       0.9253078       167.3974
2012    12      4       0.9046163       165.1651
2012    12      5       0.9250104       167.1478
2012    12      6       0.9193926       166.0299
2012    12      7       1.07353         182.7988
2012    13      0       0.9202087       167.5185
2012    13      1       0.6310635       131.7797
2012    13      2       0.5946833       126.3064
2012    13      3       0.6209448       129.8965
2012    13      4       0.5492223       119.3581
2012    13      5       0.4689903       106.5087
2012    13      6       0.4308589       99.79793
2012    13      7       0.4655331       105.4344
2012    14      0       0.5013817       111.7178
2012    14      1       0.4256789       99.10786
2012    14      2       0.4792147       108.1304
2012    14      3       0.5813185       124.0286
2012    14      4       0.5595217       120.8521
2012    14      5       0.5372733       117.3735
2012    14      6       0.5402651       118.0932
2012    14      7       0.6734934       138.2083
2012    15      0       0.6934852       141.1792
2012    15      1       0.5227445       115.8933
2012    15      2       0.4196965       98.49953
2012    15      3       0.3732874       90.0483
2012    15      4       0.4221764       98.75515
2012    15      5       0.4362488       101.1424
2012    15      6       0.4044511       95.49473
2012    15      7       0.3615479       87.52937
2012    16      0       0.2589912       67.1084
2012    16      1       0.1095578       33.0406
2012    16      2       0.07731428      24.81239
2012    16      3       0.09148231      28.38834
2012    16      4       0.1704735       47.34035
2012    16      5       0.2613014       67.18371
2012    16      6       0.2358458       61.8052
2012    16      7       0.246137        63.98872
2012    17      0       0.2151701       57.24555
2012    17      1       0.166797        46.22704
2012    17      2       0.1597605       44.36116
2012    17      3       0.2295202       59.22161
2012    17      4       0.3650993       85.72119
2012    17      5       0.4711159       104.2994
2012    17      6       0.4436356       100.102
2012    17      7       0.4080196       94.47262
2012    18      0       0.4490252       101.7423
2012    18      1       0.5352264       115.4681
2012    18      2       0.6099557       126.6743
2012    18      3       0.5941136       124.5261
2012    18      4       0.5731786       121.3905
2012    18      5       0.5915324       123.9003
2012    18      6       0.5458977       116.9517
2012    18      7       0.5094046       111.0774
2012    19      0       0.5017013       110.344
2012    19      1       0.5277589       114.7603
2012    19      2       0.4985987       110.3588
2012    19      3       0.5353765       116.3688
2012    19      4       0.7550862       147.3941
2012    19      5       0.6852058       138.7807
2012    19      6       0.5323422       116.4958
2012    19      7       0.576338        123.3533
2012    20      0       0.4703417       106.6565
2012    20      1       0.3112173       77.78194
2012    20      2       0.2913323       73.58972
2012    20      3       0.3832553       91.24781
2012    20      4       0.4843841       109.0303
2012    20      5       0.525929        115.8709
2012    20      6       0.480544        108.5547
2012    20      7       0.5963105       126.829
2012    21      0       0.5823209       125.1068
2012    21      1       0.5287589       116.8151
2012    21      2       0.5221904       115.5697
2012    21      3       0.5215591       115.1961
2012    21      4       0.6558032       135.1455
2012    21      5       0.6488546       134.2296
2012    21      6       0.6832402       139.2146
2012    21      7       0.9284287       169.2496
2012    22      0       0.8917629       165.7358
2012    22      1       0.7147232       144.0255
2012    22      2       0.5420741       119.1174
2012    22      3       0.4636648       106.2868
2012    22      4       0.5303711       117.1744
2012    22      5       0.672719        138.0551
2012    22      6       0.9477056       171.7445
2012    22      7       1.216595        196.2787
2012    23      0       0.9345805       170.2834
2012    23      1       0.6386506       133.9704
2012    23      2       0.5906783       126.726
2012    23      3       0.571643        123.7769
2012    23      4       0.5959557       127.4098
2012    23      5       0.6513899       135.4619
2012    23      6       0.897081        166.2508
2012    23      7       1.162599        192.3214
2012    24      0       0.9075447       167.7397
2012    24      1       0.7240166       145.5788
2012    24      2       0.7136124       144.1283
2012    24      3       0.697929        142.0339
2012    24      4       0.6616004       136.9743
2012    24      5       0.4601139       105.6023
2012    24      6       0.3215677       79.71807
2012    24      7       0.3559537       86.2328
2012    25      0       0.3153844       78.34125
2012    25      1       0.2644749       67.95442
2012    25      2       0.2801862       71.19395
2012    25      3       0.2928666       73.77688
2012    25      4       0.2847222       72.05285
2012    25      5       0.2870362       72.44471
2012    25      6       0.3068265       76.48536
2012    25      7       0.3476857       84.53783
2012    26      0       0.3540819       85.91594
2012    26      1       0.2957793       74.6377
2012    26      2       0.2836855       72.23475
2012    26      3       0.3161138       78.64177
2012    26      4       0.3039458       75.81367
2012    26      5       0.264351        67.48663
2012    26      6       0.2768728       70.18203
2012    26      7       0.321809        79.17527
2012    27      0       0.3278028       80.44335
2012    27      1       0.2829816       71.65288
2012    27      2       0.2563638       66.13875
2012    27      3       0.2476005       64.2629
2012    27      4       0.22802         59.88621
2012    27      5       0.2144822       56.67123
2012    27      6       0.2372941       61.52399
2012    27      7       0.2690764       68.23233
2012    28      0       0.2719573       68.77927
2012    28      1       0.2427459       62.36199
2012    28      2       0.250449        63.71883
2012    28      3       0.3091402       75.15829
2012    28      4       0.4655858       102.7684
2012    28      5       0.6470434       130.1948
2012    28      6       0.7909164       149.1514
2012    28      7       0.9627021       169.0281
2012    29      0       1.056932        178.7151
2012    29      1       1.025599        175.4921
2012    29      2       1.199049        191.7099
2012    29      3       1.150348        187.5318
2012    29      4       0.8205935       154.3148
2012    29      5       0.674489        135.9943
2012    29      6       0.9148557       165.4836
2012    29      7       1.104895        184.859
2012    30      0       1.10227         184.6432
2012    30      1       1.129234        186.7558
2012    30      2       1.04056         178.4293
2012    30      3       1.075489        181.1685
2012    30      4       0.9684124       171.49
2012    30      5       1.054107        179.6147
2012    30      6       1.143212        186.4543
2012    30      7       1.260712        196.0045
2012    31      0       1.096153        182.6093
2012    31      1       0.9543421       170.1029
2012    31      2       0.7664694       149.4722
2012    31      3       0.5842269       124.7292
2012    31      4       0.456901        103.8171
2012    31      5       0.5832208       123.6296
2012    31      6       0.962377        171.1165
2012    31      7       0.8391062       157.8143
2013    1       0       0.9192404       166.506
2013    1       1       0.7598297       148.5902
2013    1       2       0.7815998       150.749
2013    1       3       0.8843142       161.6928
2013    1       4       0.9249882       166.4135
2013    1       5       0.7544081       147.3442
2013    1       6       0.8688603       160.2188
2013    1       7       0.8174247       153.9524
2013    2       0       0.6653483       135.1484
2013    2       1       0.6083282       127.2258
2013    2       2       0.6457714       131.7178
2013    2       3       0.6463141       131.5211
2013    2       4       0.5868457       124.5852
2013    2       5       0.6334927       131.3061
2013    2       6       0.7842133       150.3819
2013    2       7       0.8574973       159.3318
2013    3       0       0.8311944       157.1685
2013    3       1       0.7818783       151.0269
2013    3       2       0.7615384       148.7617
2013    3       3       0.7768296       151.1316
2013    3       4       0.6095225       129.0015
2013    3       5       0.4800109       108.7436
2013    3       6       0.5867746       124.9419
2013    3       7       0.8457843       158.8699
2013    4       0       0.7802042       151.5374
2013    4       1       0.666694        137.4115
2013    4       2       0.5735715       124.2715
2013    4       3       0.5706863       123.719
2013    4       4       0.5922532       126.8576
2013    4       5       0.5508123       120.065
2013    4       6       0.6068538       128.5869
2013    4       7       0.7444753       147.5169
2013    5       0       0.7971837       154.2895
2013    5       1       0.8856742       164.3283
2013    5       2       0.8300247       157.3292
2013    5       3       0.7412953       146.3103
2013    5       4       0.7184731       143.3683
2013    5       5       0.6858483       139.2644
2013    5       6       0.7328384       145.1029
2013    5       7       0.740678        146.1437
2013    6       0       0.7118826       142.597
2013    6       1       0.6364532       132.5199
2013    6       2       0.6001887       127.3184
2013    6       3       0.6205264       130.3278
2013    6       4       0.7095135       142.2957
2013    6       5       0.7404916       146.0728
2013    6       6       0.7267379       144.4285
2013    6       7       0.727497        144.7532
2013    7       0       0.6242322       131.4455
2013    7       1       0.476858        108.6169
2013    7       2       0.4185226       97.88282
2013    7       3       0.3961531       93.92993
2013    7       4       0.3597161       87.20449
2013    7       5       0.3646043       87.94561
2013    7       6       0.3948473       93.52738
2013    7       7       0.4376305       101.3182
2013    8       0       0.480465        108.2915
2013    8       1       0.5774031       123.2843
2013    8       2       0.6535693       135.0488
2013    8       3       0.5348277       117.5045
2013    8       4       0.5911638       125.3922
2013    8       5       0.7066145       141.1844
2013    8       6       0.7463835       146.1952
2013    8       7       0.8277676       156.2337
2013    9       0       0.7600222       148.8584
2013    9       1       0.735156        146.1453
2013    9       2       0.7025198       141.6188
2013    9       3       0.7888328       152.8624
2013    9       4       0.8155575       155.6014
2013    9       5       0.6881917       139.5136
2013    9       6       0.8336154       157.6767
2013    9       7       1.044372        179.6441
2013    10      0       1.037489        178.9087
2013    10      1       0.856527        159.3924
2013    10      2       0.9929705       174.4306
2013    10      3       0.8447254       159.3659
2013    10      4       0.8039129       154.3109
2013    10      5       0.7990324       153.7269
2013    10      6       1.302359        200.8476
2013    10      7       1.608497        220.6153
2013    11      0       1.084704        182.9916
2013    11      1       0.9357476       168.3396
2013    11      2       0.9511891       169.5078
2013    11      3       1.037325        178.7521
2013    11      4       1.314558        202.1382
2013    11      5       1.058936        180.8053
2013    11      6       1.03913         179.0274
2013    11      7       0.9669137       172.5127
2013    12      0       0.6182371       129.653
2013    12      1       0.5157737       114.023
2013    12      2       0.5489581       118.934
2013    12      3       0.5225406       114.6103
2013    12      4       0.5015243       111.1324
2013    12      5       0.4421966       101.4212
2013    12      6       0.7510571       148.2456
2013    12      7       0.7693359       150.5529
2013    13      0       0.5578202       121.1971
2013    13      1       0.3582737       86.8093
2013    13      2       0.3217297       79.54314
2013    13      3       0.3200108       79.07463
2013    13      4       0.3429203       83.36019
2013    13      5       0.4441277       101.4404
2013    13      6       0.6210926       129.5474
2013    13      7       0.9045864       165.6156
2013    14      0       0.7966013       153.2271
2013    14      1       0.696124        140.2634
2013    14      2       0.730974        144.929
2013    14      3       0.8160989       155.5951
2013    14      4       0.7433216       146.4286
2013    14      5       0.6620559       135.2588
2013    14      6       0.6056823       126.6605
2013    14      7       0.6676353       134.7204
2013    15      0       0.6214519       129.2764
2013    15      1       0.5403866       117.5272
2013    15      2       0.484811        108.6137
2013    15      3       0.5535143       119.5352
2013    15      4       0.6232474       129.807
2013    15      5       0.6240293       129.8355
2013    15      6       0.6406862       132.3486
2013    15      7       0.7050432       141.2649
2013    16      0       0.691698        139.6648
2013    16      1       0.6804773       138.1451
2013    16      2       0.6327855       131.4911
2013    16      3       0.632104        130.933
2013    16      4       0.6596863       134.2783
2013    16      5       0.6328387       130.4859
2013    16      6       0.6658425       135.4849
2013    16      7       0.7242895       143.3022
2013    17      0       0.6907803       139.0153
2013    17      1       0.6379594       131.963
2013    17      2       0.6265722       130.288
2013    17      3       0.6190568       129.1153
2013    17      4       0.5891195       124.7527
2013    17      5       0.5618684       120.7075
2013    17      6       0.5373443       117.0033
2013    17      7       0.5216688       114.5221
2013    18      0       0.4556948       103.6039
2013    18      1       0.4098533       95.72527
2013    18      2       0.4794328       107.7266
2013    18      3       0.6561537       134.526
2013    18      4       0.7251338       143.3208
2013    18      5       0.6699156       135.5565
2013    18      6       0.7369356       144.3819
2013    18      7       0.9117883       164.8777
2013    19      0       0.6915235       139.1646
2013    19      1       0.606312        127.3921
2013    19      2       0.7852217       151.52
2013    19      3       1.246413        198.0515
2013    19      4       1.130749        188.064
2013    19      5       0.938747        168.6763
2013    19      6       0.8582928       159.6253
2013    19      7       0.8929211       163.621
2013    20      0       0.9105995       165.3899
2013    20      1       0.9486766       169.4095
2013    20      2       0.9602659       170.3448
2013    20      3       1.035218        177.4321
2013    20      4       1.011733        174.9928
2013    20      5       0.9129744       165.4645
2013    20      6       1.026897        176.7875
2013    20      7       1.001749        174.0895
2013    21      0       0.9709653       171.1486
2013    21      1       0.8866765       162.8333
2013    21      2       0.8490477       158.6219
2013    21      3       0.9482379       169.2079
2013    21      4       0.8496684       158.9915
2013    21      5       0.8583911       159.3995
2013    21      6       0.8332732       156.7528
2013    21      7       1.007779        175.6281
2013    22      0       0.8911555       163.6353
2013    22      1       0.8296662       156.8674
2013    22      2       0.8103965       154.6628
2013    22      3       0.8056669       154.3246
2013    22      4       0.7855784       151.7315
2013    22      5       0.747754        146.8074
2013    22      6       0.801268        153.791
2013    22      7       1.064462        181.8425
2013    23      0       0.9058072       166.0031
2013    23      1       0.7289067       145.0983
2013    23      2       0.6056614       128.0117
2013    23      3       0.5140424       113.9056
2013    23      4       0.5173483       114.5066
2013    23      5       0.5559605       120.6141
2013    23      6       0.5721347       123.0985
2013    23      7       0.5779987       124.0728
2013    24      0       0.4785021       108.4708
2013    24      1       0.4359082       101.2956
2013    24      2       0.4006157       94.73948
2013    24      3       0.3192993       79.11846
2013    24      4       0.3076225       76.85135
2013    24      5       0.3484524       84.8331
2013    24      6       0.3448056       84.25232
2013    24      7       0.4610381       105.5582
2013    25      0       0.6655475       137.3403
2013    25      1       0.5345058       117.9159
2013    25      2       0.4113419       96.70643
2013    25      3       0.4785502       107.5538
2013    25      4       0.5940618       125.4593
2013    25      5       0.7680256       149.1755
2013    25      6       1.155294        189.3769
2013    25      7       1.383914        207.2846
2013    26      0       1.249193        197.0975
2013    26      1       1.200755        193.2266
2013    26      2       1.017397        177.3437
2013    26      3       0.9858328       174.6018
2013    26      4       1.169357        191.5412
2013    26      5       1.138652        189.2119
2013    26      6       0.9791825       174.4143
2013    26      7       1.094526        185.8754
2013    27      0       0.8931445       165.6402
2013    27      1       0.6100265       129.2677
2013    27      2       0.5749535       123.5877
2013    27      3       0.5954435       126.57
2013    27      4       0.5546045       120.1954
2013    27      5       0.4922375       109.9242
2013    27      6       0.4745497       106.9225
2013    27      7       0.534362        116.7565
2013    28      0       0.5649785       121.5188
2013    28      1       0.5317076       116.4536
2013    28      2       0.5031326       111.6021
2013    28      3       0.4893932       109.1628
2013    28      4       0.4911144       109.2531
2013    28      5       0.5298848       115.0483
2013    28      6       0.5204361       113.4767
2013    28      7       0.4630072       104.1132
2013    29      0       0.4715392       105.5005
2013    29      1       0.4801125       106.9658
2013    29      2       0.476702        106.4998
2013    29      3       0.4631743       104.5135
2013    29      4       0.4123251       95.69887
2013    29      5       0.3631932       86.89482
2013    29      6       0.4067038       95.1416
2013    29      7       0.451177        102.7962
2013    30      0       0.4757352       107.0621
2013    30      1       0.4184209       97.3554
2013    30      2       0.4014492       94.50985
2013    30      3       0.3352637       82.03627
2013    30      4       0.2921957       73.29725
2013    30      5       0.2794458       70.46186
2013    30      6       0.2507463       64.69614
2013    30      7       0.285761        71.69268
2013    31      0       0.3669008       87.36725
2013    31      1       0.3939794       92.64744
2013    31      2       0.3980819       93.54074
2013    31      3       0.4343107       99.77994
2013    31      4       0.4921138       109.4491
2013    31      5       0.5797682       123.5634
2013    31      6       0.6626549       135.1682
2013    31      7       0.7807761       150.1479
2014    1       0       0.2148939       57.84821
2014    1       1       0.1936528       53.14403
2014    1       2       0.1897359       52.02302
2014    1       3       0.2006484       54.37468
2014    1       4       0.218864        58.43155
2014    1       5       0.2325997       61.61177
2014    1       6       0.2603051       67.46406
2014    1       7       0.2967915       75.08906
2014    2       0       0.2869504       73.3391
2014    2       1       0.2308607       61.65891
2014    2       2       0.1899929       52.50881
2014    2       3       0.1933808       53.09887
2014    2       4       0.1867424       51.47178
2014    2       5       0.1642049       46.13978
2014    2       6       0.1875581       51.49205
2014    2       7       0.2416363       63.49169
2014    3       0       0.2247939       59.99688
2014    3       1       0.1710756       47.87297
2014    3       2       0.2043774       54.99949
2014    3       3       0.4120057       95.50057
2014    3       4       0.4972516       110.2857
2014    3       5       0.4489107       102.7576
2014    3       6       0.5922267       125.5043
2014    3       7       0.7486372       147.3991
2014    4       0       0.9205225       167.5851
2014    4       1       0.6741845       136.5911
2014    4       2       0.5550249       118.8771
2014    4       3       0.6718391       135.649
2014    4       4       0.6968661       139.6481
2014    4       5       0.900113        164.3917
2014    4       6       0.9106907       165.238
2014    4       7       0.9704048       171.1961
2014    5       0       1.181211        190.7553
2014    5       1       1.085879        182.2028
2014    5       2       0.8860227       162.2033
2014    5       3       0.8967261       163.1262
2014    5       4       0.8569231       159.0329
2014    5       5       0.692368        139.1389
2014    5       6       0.7595152       148.3872
2014    5       7       1.246761        197.4969
2014    6       0       1.069209        182.206
2014    6       1       0.8447939       158.1755
2014    6       2       0.7509902       147.0143
2014    6       3       0.7581879       147.916
2014    6       4       0.7627676       148.4527
2014    6       5       0.7274687       144.0808
2014    6       6       0.7618642       148.642
2014    6       7       1.099852        185.1551
2014    7       0       0.8826921       163.0374
2014    7       1       0.6996173       140.7992
2014    7       2       0.6440319       133.2603
2014    7       3       0.6013083       127.3618
2014    7       4       0.5083065       112.6857
2014    7       5       0.4261693       98.48491
2014    7       6       0.5050245       111.7174
2014    7       7       0.8242546       156.27
2014    8       0       0.7380162       146.0906
2014    8       1       0.6633873       136.1724
2014    8       2       0.5926488       125.9075
2014    8       3       0.4975348       111.0245
2014    8       4       0.387276        91.68273
2014    8       5       0.3451955       83.5155
2014    8       6       0.4994652       110.5853
2014    8       7       0.6487526       133.1795
2014    9       0       0.6455715       132.7078
2014    9       1       0.5703829       121.9776
2014    9       2       0.4281459       98.78695
2014    9       3       0.382573        90.56437
2014    9       4       0.3596204       86.5406
2014    9       5       0.2610895       67.32304
2014    9       6       0.2243153       59.48778
2014    9       7       0.3462791       84.31073
2014    10      0       0.4157509       96.90664
2014    10      1       0.3353255       82.06971
2014    10      2       0.2809993       71.27749
2014    10      3       0.3319376       81.34062
2014    10      4       0.332217        81.28414
2014    10      5       0.2650428       67.65134
2014    10      6       0.2209307       58.43134
2014    10      7       0.2037681       54.70939
2014    11      0       0.1918333       52.11438
2014    11      1       0.1670335       46.58606
2014    11      2       0.1259763       36.87519
2014    11      3       0.08838292      27.43908
2014    11      4       0.08771187      27.2591
2014    11      5       0.1032566       31.04855
2014    11      6       0.1584531       44.13103
2014    11      7       0.2060475       54.77423
2014    12      0       0.168514        46.26603
2014    12      1       0.1214906       35.12846
2014    12      2       0.1415631       39.78237
2014    12      3       0.2056742       53.96016
2014    12      4       0.3342127       78.92143
2014    12      5       0.4171054       94.44692
2014    12      6       0.4676456       104.442
2014    12      7       0.5781796       122.025
2014    13      0       0.6219159       128.3714
2014    13      1       0.6165251       128.0077
2014    13      2       0.6173603       128.8669
2014    13      3       0.7161768       142.2707
2014    13      4       0.7506716       146.7748
2014    13      5       0.7724832       149.9767
2014    13      6       0.8968664       164.7217
2014    13      7       1.086074        182.3646
2014    14      0       0.9606497       171.0316
2014    14      1       1.011197        176.9684
2014    14      2       0.9073513       165.4135
2014    14      3       1.04374         179.0074
2014    14      4       1.071022        181.222
2014    14      5       1.149816        187.2357
2014    14      6       1.153219        188.5624
2014    14      7       0.9629866       171.3652
2014    15      0       0.6839661       138.2063
2014    15      1       0.3996067       93.35375
2014    15      2       0.3196823       78.23296
2014    15      3       0.3689018       87.68787
2014    15      4       0.3231121       78.94611
2014    15      5       0.300697        74.38197
2014    15      6       0.330605        80.2941
2014    15      7       0.3379188       81.68115
2014    16      0       0.3102502       76.33378
2014    16      1       0.2933655       72.98145
2014    16      2       0.3226525       78.69068
2014    16      3       0.3902501       91.23507
2014    16      4       0.3984406       92.48463
2014    16      5       0.4069237       93.8177
2014    16      6       0.3919852       91.16229
2014    16      7       0.3599686       85.28694
2014    17      0       0.354585        84.08336
2014    17      1       0.3640626       85.72791
2014    17      2       0.3748207       87.67681
2014    17      3       0.3811255       88.70831
2014    17      4       0.3661806       86.08792
2014    17      5       0.3476614       82.77964
2014    17      6       0.3628215       85.43759
2014    17      7       0.3987317       91.73248
2014    18      0       0.4274248       96.73366
2014    18      1       0.5261834       112.5448
2014    18      2       0.6618995       131.9904
2014    18      3       0.6863511       135.8162
2014    18      4       0.600595        123.9518
2014    18      5       0.5582729       117.3966
2014    18      6       0.5547831       117.3585
2014    18      7       0.56556         119.2111
2014    19      0       0.5837228       122.6652
2014    19      1       0.6192258       127.6452
2014    19      2       0.7171384       141.3322
2014    19      3       0.5905733       125.0113
2014    19      4       0.4691864       105.9671
2014    19      5       0.4609638       103.7438
2014    19      6       0.4990982       109.6799
2014    19      7       0.5450961       117.3709
2014    20      0       0.4855602       108.569
2014    20      1       0.3663184       87.77167
2014    20      2       0.3363915       81.21891
2014    20      3       0.3698741       87.42897
2014    20      4       0.387873        91.0476
2014    20      5       0.2568177       65.28471
2014    20      6       0.1352025       38.40466
2014    20      7       0.1139914       33.79824
2014    21      0       0.1170856       34.48599
2014    21      1       0.09866731      29.74133
2014    21      2       0.09597793      29.08029
2014    21      3       0.1022349       30.5571
2014    21      4       0.1103682       32.40338
2014    21      5       0.1138184       33.35489
2014    21      6       0.1141796       33.63373
2014    21      7       0.1280292       37.36043
2014    22      0       0.1257371       37.05455
2014    22      1       0.1094448       32.89881
2014    22      2       0.1305739       37.79668
2014    22      3       0.149965        42.25472
2014    22      4       0.1781063       48.96157
2014    22      5       0.1974572       53.58412
2014    22      6       0.25819         66.80074
2014    22      7       0.3215951       79.83081
2014    23      0       0.3502251       85.38638
2014    23      1       0.4055695       95.5791
2014    23      2       0.5120655       113.7837
2014    23      3       0.6948723       140.5038
2014    23      4       0.7529365       147.831
2014    23      5       0.7441238       146.683
2014    23      6       0.8055051       153.8309
2014    23      7       0.7846618       151.6172
2014    24      0       0.6748194       137.8871
2014    24      1       0.5918737       126.1827
2014    24      2       0.6135711       129.5381
2014    24      3       0.7245444       144.8685
2014    24      4       0.7688828       150.0045
2014    24      5       0.7717846       150.0048
2014    24      6       1.287984        199.9844
2014    24      7       1.376404        206.7178
2014    25      0       1.179818        191.0274
2014    25      1       0.6754449       137.6247
2014    25      2       0.7391652       146.5832
2014    25      3       1.121651        188.2199
2014    25      4       1.109431        186.9085
2014    25      5       0.8976143       165.4641
2014    25      6       0.7710796       150.3301
2014    25      7       0.6851335       138.4017
2014    26      0       0.6852582       138.4895
2014    26      1       0.6239433       130.0315
2014    26      2       0.6291323       130.8048
2014    26      3       0.6766236       137.7021
2014    26      4       0.6930763       139.6955
2014    26      5       0.6671442       135.9837
2014    26      6       0.7641218       148.3695
2014    26      7       1.009347        175.5901
2014    27      0       1.007602        175.8736
2014    27      1       0.6651514       135.848
2014    27      2       0.8248943       156.3719
2014    27      3       0.8239184       155.9326
2014    27      4       1.12146         186.0135
2014    27      5       1.34305         203.1141
2014    27      6       1.157566        187.8425
2014    27      7       0.8357603       155.5921
2014    28      0       0.9673625       170.8494
2014    28      1       0.606317        126.2201
2014    28      2       0.5767783       122.0549
2014    28      3       0.5725252       121.8061
2014    28      4       0.7303252       142.4116
2014    28      5       0.6960878       138.6439
2014    28      6       0.5927056       124.8896
2014    28      7       0.5945757       125.3843
2014    29      0       0.6282079       130.2347
2014    29      1       0.6383037       131.5042
2014    29      2       0.5778747       122.8067
2014    29      3       0.5380756       116.7972
2014    29      4       0.576823        122.5206
2014    29      5       0.5915984       124.7465
2014    29      6       0.6115772       127.9278
2014    29      7       0.636341        131.9294
2014    30      0       0.6306572       131.4241
2014    30      1       0.5893154       125.3743
2014    30      2       0.5493642       119.331
2014    30      3       0.5724711       122.5795
2014    30      4       0.563319        120.8855
2014    30      5       0.526874        115.2001
2014    30      6       0.5069921       112.2686
2014    30      7       0.5914304       125.1206
2014    31      0       0.6012781       126.8735
2014    31      1       0.5917735       125.5337
2014    31      2       0.5543998       119.5666
2014    31      3       0.5590569       120.2783
2014    31      4       0.6606933       135.1848
2014    31      5       0.8079403       154.11
2014    31      6       0.8672358       161.2916
2014    31      7       0.8307262       156.5851
2015    1       0       0.828555        157.059
2015    1       1       0.6328655       131.8127
2015    1       2       0.6512703       134.3984
2015    1       3       0.764505        149.1762
2015    1       4       0.7773895       150.4601
2015    1       5       0.9020653       165.0839
2015    1       6       0.9826824       173.1576
2015    1       7       1.049209        179.6694
2015    2       0       0.9050141       165.1797
2015    2       1       0.7069459       140.9811
2015    2       2       0.4809348       108.1401
2015    2       3       0.325773        80.15719
2015    2       4       0.2612762       66.77037
2015    2       5       0.1957316       52.38864
2015    2       6       0.2445546       62.70779
2015    2       7       0.3982703       93.04405
2015    3       0       0.3429922       83.02787
2015    3       1       0.2928184       72.7576
2015    3       2       0.2803953       70.01005
2015    3       3       0.2871651       71.4305
2015    3       4       0.2639566       66.91795
2015    3       5       0.3236637       78.39516
2015    3       6       0.4129347       94.98232
2015    3       7       0.5084568       111.6892
2015    4       0       0.5328168       116.1606
2015    4       1       0.572595        122.8838
2015    4       2       0.6300996       131.7428
2015    4       3       0.6651641       136.4272
2015    4       4       0.6957121       140.3028
2015    4       5       0.6603213       135.6349
2015    4       6       0.6035308       127.8112
2015    4       7       0.7385388       146.5742
2015    5       0       0.6876217       140.1575
2015    5       1       0.5761543       124.5132
2015    5       2       0.4953515       111.5371
2015    5       3       0.5277089       116.2067
2015    5       4       0.5247035       115.3394
2015    5       5       0.4966876       110.5989
2015    5       6       0.4806025       108.0507
2015    5       7       0.4555657       103.9417
2015    6       0       0.4082431       95.52615
2015    6       1       0.3531661       85.48587
2015    6       2       0.366681        87.93436
2015    6       3       0.2999589       75.0604
2015    6       4       0.2322007       60.9859
2015    6       5       0.1891377       51.62027
2015    6       6       0.1450377       41.43838
2015    6       7       0.198071        53.62039
2015    7       0       0.1879191       51.38086
2015    7       1       0.1527052       43.27976
2015    7       2       0.1600789       44.85728
2015    7       3       0.193554        51.95371
2015    7       4       0.2128022       55.80052
2015    7       5       0.1899141       51.00557
2015    7       6       0.1922175       51.5351
2015    7       7       0.2034922       54.08669
2015    8       0       0.1586264       44.23826
2015    8       1       0.1218578       35.5894
2015    8       2       0.1208347       35.11457
2015    8       3       0.1296342       37.24604
2015    8       4       0.1003489       30.20372
2015    8       5       0.07891706      24.95592
2015    8       6       0.08264953      25.89999
2015    8       7       0.08409873      26.27731
2015    9       0       0.07495067      23.78108
2015    9       1       0.07324932      23.20843
2015    9       2       0.09819729      29.11573
2015    9       3       0.1213558       34.80051
2015    9       4       0.1662085       44.8235
2015    9       5       0.231772        58.4577
2015    9       6       0.1686136       46.50143
2015    9       7       0.1641384       45.6682
2015    10      0       0.1447251       41.06917
2015    10      1       0.126363        36.68241
2015    10      2       0.1362526       39.02082
2015    10      3       0.1384471       39.52998
2015    10      4       0.1413271       40.01649
2015    10      5       0.1453257       40.88021
2015    10      6       0.1550217       43.1755
2015    10      7       0.1747019       47.84562
2015    11      0       0.1859191       50.24542
2015    11      1       0.166702        45.89793
2015    11      2       0.1561015       43.32131
2015    11      3       0.1461277       41.04014
2015    11      4       0.1768661       47.66018
2015    11      5       0.2799608       68.62969
2015    11      6       0.3258546       78.51941
2015    11      7       0.3162046       77.68663
2015    12      0       0.2588663       66.23256
2015    12      1       0.2370017       61.1858
2015    12      2       0.2310271       59.60982
2015    12      3       0.3315346       80.14349
2015    12      4       0.4604343       103.5968
2015    12      5       0.4875713       108.4201
2015    12      6       0.5574823       119.7411
2015    12      7       0.596245        125.5291
2015    13      0       0.5742983       122.1776
2015    13      1       0.5325433       115.6607
2015    13      2       0.4753957       106.5178
2015    13      3       0.4149135       96.03956
2015    13      4       0.4391901       100.0643
2015    13      5       0.4707137       105.914
2015    13      6       0.4930909       110.1124
2015    13      7       0.506535        112.1777
2015    14      0       0.4519264       103.356
2015    14      1       0.4385422       101.1641
2015    14      2       0.4304716       99.67144
2015    14      3       0.3791455       90.16213
2015    14      4       0.4313019       99.4179
2015    14      5       0.4580442       104.1864
2015    14      6       0.4280095       98.95543
2015    14      7       0.3976299       93.5736
2015    15      0       0.3985851       93.7975
2015    15      1       0.3864371       91.81176
2015    15      2       0.380231        90.90598
2015    15      3       0.3549815       86.13862
2015    15      4       0.413174        96.70019
2015    15      5       0.572184        122.914
2015    15      6       0.5833566       124.6658
2015    15      7       0.5022571       111.949
2015    16      0       0.4307772       100.023
2015    16      1       0.3780026       90.74522
2015    16      2       0.4149798       97.37222
2015    16      3       0.4979315       111.4163
2015    16      4       0.456188        104.5748
2015    16      5       0.4066392       95.9466
2015    16      6       0.4362706       101.2338
2015    16      7       0.4658219       106.2117
2015    17      0       0.4642915       105.9538
2015    17      1       0.4131868       97.22533
2015    17      2       0.3482542       85.3109
2015    17      3       0.4199944       98.28395
2015    17      4       0.404097        95.26433
2015    17      5       0.4083218       95.90287
2015    17      6       0.4450509       102.3147
2015    17      7       0.6807818       138.5842
2015    18      0       0.9637686       172.3889
2015    18      1       0.6969481       140.4421
2015    18      2       0.6242542       129.2379
2015    18      3       0.6936814       137.821
2015    18      4       0.6816408       135.9837
2015    18      5       0.7046517       139.3362
2015    18      6       0.8133581       152.5838
2015    18      7       1.078766        180.8572
2015    19      0       1.092525        182.4057
2015    19      1       0.6851755       136.9619
2015    19      2       0.4754624       105.7929
2015    19      3       0.3367903       81.47807
2015    19      4       0.4053402       94.04229
2015    19      5       0.5730662       121.3721
2015    19      6       0.6289384       129.8248
2015    19      7       0.7381571       144.8957
2015    20      0       1.085682        181.7983
2015    20      1       0.7548071       145.9787
2015    20      2       0.5211701       113.8037
2015    20      3       0.3079743       76.25945
2015    20      4       0.1993373       53.55463
2015    20      5       0.1589681       44.30572
2015    20      6       0.1572591       44.00769
2015    20      7       0.1877809       51.13708
2015    21      0       0.1795688       49.3545
2015    21      1       0.1548823       43.58443
2015    21      2       0.1800795       49.42029
2015    21      3       0.2191685       58.22002
2015    21      4       0.2710509       69.2372
2015    21      5       0.2965309       74.48529
2015    21      6       0.2647911       68.1178
2015    21      7       0.2259573       59.99541
2015    22      0       0.1864108       51.20847
2015    22      1       0.1542886       43.78873
2015    22      2       0.1672913       46.78441
2015    22      3       0.1706308       47.482
2015    22      4       0.1588594       44.71939
2015    22      5       0.1477489       42.12677
2015    22      6       0.1264461       37.06755
2015    22      7       0.1200272       35.52975
2015    23      0       0.115863        34.5279
2015    23      1       0.1106002       33.23651
2015    23      2       0.1189377       35.26519
2015    23      3       0.1543046       43.66248
2015    23      4       0.2011589       54.29541
2015    23      5       0.2160742       57.53363
2015    23      6       0.2065803       55.36663
2015    23      7       0.2620036       66.87022
2015    24      0       0.2777735       70.18742
2015    24      1       0.2595038       66.24005
2015    24      2       0.284776        71.1508
2015    24      3       0.3276541       79.43729
2015    24      4       0.3308302       79.9429
2015    24      5       0.3373642       81.19395
2015    24      6       0.3752411       88.37348
2015    24      7       0.4196343       96.62735
2015    25      0       0.4018793       93.85304
2015    25      1       0.3118374       77.04165
2015    25      2       0.2734012       69.02311
2015    25      3       0.279433        70.07849
2015    25      4       0.2995713       74.2896
2015    25      5       0.3375625       81.81456
2015    25      6       0.3937959       92.26879
2015    25      7       0.4542489       102.9921
2015    26      0       0.4926707       109.7866
2015    26      1       0.5105971       112.933
2015    26      2       0.4368956       100.3983
2015    26      3       0.3686531       87.89278
2015    26      4       0.3584965       86.0628
2015    26      5       0.3684343       88.01542
2015    26      6       0.457007        103.6679
2015    26      7       0.5282722       115.4863
2015    27      0       0.4651488       105.921
2015    27      1       0.4468344       102.9256
2015    27      2       0.4445531       102.3637
2015    27      3       0.4282282       99.35406
2015    27      4       0.4335782       100.4458
2015    27      5       0.4305415       100.0839
2015    27      6       0.3150329       78.47933
2015    27      7       0.2636017       67.80453
2015    28      0       0.2604333       67.16974
2015    28      1       0.2162278       57.64109
2015    28      2       0.2165403       57.67675
2015    28      3       0.2444953       63.72059
2015    28      4       0.3051788       76.29923
2015    28      5       0.4121606       96.68802
2015    28      6       0.5704114       123.0545
2015    28      7       0.6175471       129.9702
2015    29      0       0.651305        134.4106
2015    29      1       0.5393467       117.4933
2015    29      2       0.4643663       104.9815
2015    29      3       0.4617404       104.3945
2015    29      4       0.4552681       103.2325
2015    29      5       0.5605281       120.2309
2015    29      6       0.6458993       132.6349
2015    29      7       0.9414279       169.0716
2015    30      0       0.847272        158.6684
2015    30      1       0.7493259       146.916
2015    30      2       0.6405764       132.4615
2015    30      3       0.5938848       125.957
2015    30      4       0.6601549       135.1505
2015    30      5       0.6802208       137.8716
2015    30      6       0.5330924       116.3594
2015    30      7       0.4984247       110.9495
2015    31      0       0.4626795       105.1635
2015    31      1       0.3630135       87.23778
2015    31      2       0.3334199       81.28682
2015    31      3       0.3146074       77.51138
2015    31      4       0.312901        77.15356
2015    31      5       0.2748139       69.17246
2015    31      6       0.3483388       83.29538
2015    31      7       0.4852739       107.5098
2016    1       0       0.6239294       130.7024
2016    1       1       0.5280871       116.358
2016    1       2       0.4231571       98.74443
2016    1       3       0.3258631       80.70853
2016    1       4       0.3073124       77.02425
2016    1       5       0.2862256       72.77129
2016    1       6       0.2549432       66.26436
2016    1       7       0.2627127       67.9031
2016    2       0       0.1939663       52.98814
2016    2       1       0.1480036       42.27715
2016    2       2       0.1703445       47.31759
2016    2       3       0.1977644       53.5018
2016    2       4       0.2152398       57.42643
2016    2       5       0.211759        56.69117
2016    2       6       0.2395448       62.87434
2016    2       7       0.2425016       63.42264
2016    3       0       0.1729053       47.94616
2016    3       1       0.1297097       37.66559
2016    3       2       0.1451204       41.42678
2016    3       3       0.1650681       46.14718
2016    3       4       0.1667347       46.56438
2016    3       5       0.2110426       56.57147
2016    3       6       0.2384169       62.57692
2016    3       7       0.2983005       75.08494
2016    4       0       0.291484        73.76351
2016    4       1       0.2584767       66.91181
2016    4       2       0.3059928       76.50811
2016    4       3       0.3856269       91.68245
2016    4       4       0.4114689       96.43694
2016    4       5       0.4336352       100.3207
2016    4       6       0.4186445       97.50612
2016    4       7       0.388698        91.90861
2016    5       0       0.3560547       86.01777
2016    5       1       0.3172062       78.48684
2016    5       2       0.3275189       80.39267
2016    5       3       0.3532296       85.37372
2016    5       4       0.3743751       89.43644
2016    5       5       0.3996242       94.20432
2016    5       6       0.3692725       88.56399
2016    5       7       0.3632534       87.38923
2016    6       0       0.3415052       83.27067
2016    6       1       0.2689705       68.64502
2016    6       2       0.2480331       64.15551
2016    6       3       0.2792502       70.67968
2016    6       4       0.3113499       77.0728
2016    6       5       0.3075692       76.43371
2016    6       6       0.3083901       76.84501
2016    6       7       0.3008271       75.30319
2016    7       0       0.2834244       71.77764
2016    7       1       0.2593184       66.83236
2016    7       2       0.2642289       67.76655
2016    7       3       0.2683714       68.62847
2016    7       4       0.2860439       72.23149
2016    7       5       0.2967082       74.35239
2016    7       6       0.2923841       73.44951
2016    7       7       0.2820193       71.39044
2016    8       0       0.2731765       69.67174
2016    8       1       0.2757967       70.21848
2016    8       2       0.329869        80.99201
2016    8       3       0.3901776       92.27206
2016    8       4       0.4614453       104.7121
2016    8       5       0.4949683       110.2498
2016    8       6       0.4559763       103.8814
2016    8       7       0.4475613       102.441
2016    9       0       0.4557769       104.0142
2016    9       1       0.4683129       106.431
2016    9       2       0.4961861       111.1977
2016    9       3       0.5161128       114.4104
2016    9       4       0.5254291       115.7957
2016    9       5       0.50724         112.9125
2016    9       6       0.5256182       116.1113
2016    9       7       0.5444307       119.1434
2016    10      0       0.4905036       110.6419
2016    10      1       0.4227251       99.18673
2016    10      2       0.3882381       92.9413
2016    10      3       0.3720185       89.76321
2016    10      4       0.3593594       87.02788
2016    10      5       0.3605784       87.1547
2016    10      6       0.3522928       85.61883
2016    10      7       0.3330722       81.89832
2016    11      0       0.3116889       77.92824
2016    11      1       0.2561392       66.50692
2016    11      2       0.2409973       63.163
2016    11      3       0.2525923       65.4509
2016    11      4       0.270654        68.9421
2016    11      5       0.2787505       70.51962
2016    11      6       0.2548436       65.8996
2016    11      7       0.2181149       58.29648
2016    12      0       0.1833398       50.68671
2016    12      1       0.1612338       45.76905
2016    12      2       0.1681052       47.31463
2016    12      3       0.187506        51.60248
2016    12      4       0.1970685       53.53846
2016    12      5       0.2313136       60.89744
2016    12      6       0.2349574       61.83992
2016    12      7       0.2204664       58.68336
2016    13      0       0.2206695       58.64129
2016    13      1       0.2254841       59.6429
2016    13      2       0.2443145       63.82731
2016    13      3       0.267218        68.73158
2016    13      4       0.3282135       80.70139
2016    13      5       0.3627617       87.32744
2016    13      6       0.3668442       88.53138
2016    13      7       0.3247074       80.68308
2016    14      0       0.2844741       72.51017
2016    14      1       0.2815943       71.82603
2016    14      2       0.3967135       94.23199
2016    14      3       0.5834271       125.3057
2016    14      4       0.8289484       158.0327
2016    14      5       0.8703872       162.6925
2016    14      6       0.7194467       144.2119
2016    14      7       0.7297999       145.7126
2016    15      0       0.6405482       133.7879
2016    15      1       0.5538948       120.7027
2016    15      2       0.6240761       131.1443
2016    15      3       0.7355854       146.7216
2016    15      4       0.7934209       153.6814
2016    15      5       0.7735802       151.0484
2016    15      6       0.7279014       145.4202
2016    15      7       0.714695        143.485
2016    16      0       0.7163308       143.5733
2016    16      1       1.016833        176.8399
2016    16      2       0.7554437       148.5506
2016    16      3       0.6507558       134.168
2016    16      4       0.6981817       140.4627
2016    16      5       0.7280759       144.3847
2016    16      6       0.7644179       148.8464
2016    16      7       0.758208        148.2151
2016    17      0       0.736949        145.8215
2016    17      1       0.7067102       142.0044
2016    17      2       0.7114318       142.4261
2016    17      3       0.9209969       166.7578
2016    17      4       0.9363556       167.7563
2016    17      5       0.8033636       152.4604
2016    17      6       0.8755025       160.6243
2016    17      7       0.8807384       161.112
2016    18      0       0.7915668       151.4108
2016    18      1       0.7571874       147.7227
2016    18      2       0.7427135       145.5381
2016    18      3       0.7650639       147.8306
2016    18      4       0.735131        143.7922
2016    18      5       0.712804        141.3333
2016    18      6       0.6745459       136.3538
2016    18      7       0.6737035       136.2475
2016    19      0       0.6272417       129.755
2016    19      1       0.5534786       118.8518
2016    19      2       0.5300949       115.263
2016    19      3       0.6041975       126.6131
2016    19      4       0.7451022       145.8846
2016    19      5       0.7202521       142.773
2016    19      6       0.6233217       129.3189
2016    19      7       0.6955447       139.6235
2016    20      0       0.6723163       136.7668
2016    20      1       0.6207594       129.5054
2016    20      2       0.5836345       123.8939
2016    20      3       0.5825871       123.6747
2016    20      4       0.5855827       124.1032
2016    20      5       0.5834374       123.7529
2016    20      6       0.5942009       125.4299
2016    20      7       0.7196501       143.0321
2016    21      0       0.7655538       149.1264
2016    21      1       0.7354762       145.6471
2016    21      2       0.6075677       127.7523
2016    21      3       0.5217231       114.438
2016    21      4       0.5020372       111.4463
2016    21      5       0.4995101       111.1765
2016    21      6       0.510086        112.8412
2016    21      7       0.6183256       129.4304
2016    22      0       0.5959493       126.3302
2016    22      1       0.4949107       110.5978
2016    22      2       0.4318267       99.5733
2016    22      3       0.4085164       95.09851
2016    22      4       0.4490079       101.9814
2016    22      5       0.5309266       115.5758
2016    22      6       0.5692058       121.6234
2016    22      7       0.5642169       121.0
2016    23      0       0.6012133       126.4213
2016    23      1       0.5921544       124.8647
2016    23      2       0.6087928       127.3857
2016    23      3       0.6905254       138.8695
2016    23      4       0.624802        129.8722
2016    23      5       0.5185547       113.9684
2016    23      6       0.6262125       130.4258
2016    23      7       1.033624        178.5645
2016    24      0       0.7877547       152.286
2016    24      1       0.6716053       137.2271
2016    24      2       0.5967291       126.1305
2016    24      3       0.7261671       142.8665
2016    24      4       0.8209368       154.1663
2016    24      5       0.9761012       171.1538
2016    24      6       0.9379797       167.1121
2016    24      7       1.022188        176.3183
2016    25      0       1.076515        181.9514
2016    25      1       0.8973009       164.3241
2016    25      2       0.8938257       164.2016
2016    25      3       1.10658         185.2636
2016    25      4       0.9032704       165.2313
2016    25      5       1.2154          193.7828
2016    25      6       0.8755619       160.7188
2016    25      7       0.857589        160.0988
2016    26      0       0.8535614       160.2204
2016    26      1       0.7298869       144.9497
2016    26      2       0.7528234       147.7895
2016    26      3       0.8125313       155.0554
2016    26      4       0.7861639       152.007
2016    26      5       0.5862097       124.7111
2016    26      6       0.4599034       104.6743
2016    26      7       0.7061237       142.2045
2016    27      0       0.7550711       148.3383
2016    27      1       0.7267027       144.2139
2016    27      2       0.7826755       150.5877
2016    27      3       0.893391        164.423
2016    27      4       0.834206        158.4941
2016    27      5       1.175353        193.257
2016    27      6       1.047861        180.212
2016    27      7       1.013203        176.2811
2016    28      0       0.8919761       163.5271
2016    28      1       0.6957346       139.1461
2016    28      2       0.7132148       141.8079
2016    28      3       0.7224239       143.1971
2016    28      4       0.6567593       134.8522
2016    28      5       0.767708        149.1384
2016    28      6       1.139698        187.4349
2016    28      7       0.9524204       171.3799
2016    29      0       0.855899        161.1716
2016    29      1       0.6309415       131.8075
2016    29      2       0.5871342       124.8582
2016    29      3       0.7342975       146.0347
2016    29      4       0.9012871       166.7324
2016    29      5       1.099019        187.1249
2016    29      6       0.7955454       154.1038
2016    29      7       0.6766183       139.1796
2016    30      0       0.6431466       134.7799
2016    30      1       0.5250808       116.6347
2016    30      2       0.4900016       110.138
2016    30      3       0.6562252       134.8544
2016    30      4       0.5832018       125.5866
2016    30      5       0.7065161       142.9218
2016    30      6       0.9137208       166.5343
2016    30      7       1.360815        205.7275
2016    31      0       1.520076        216.4078
2016    31      1       0.920364        167.7177
2016    31      2       0.7224004       144.0967
2016    31      3       0.5488525       118.9941
2016    31      4       0.4984344       110.7965
2016    31      5       0.4997041       111.1316
2016    31      6       0.6800353       138.2118
2016    31      7       0.9273746       168.0543
2017    1       0       0.1475999       41.99055
2017    1       1       0.1365812       39.19538
2017    1       2       0.1437507       40.71662
2017    1       3       0.1814726       49.2475
2017    1       4       0.1920264       51.5293
2017    1       5       0.1684969       46.32022
2017    1       6       0.1513305       42.46048
2017    1       7       0.1591795       44.3521
2017    2       0       0.1950115       52.54221
2017    2       1       0.2424409       63.04485
2017    2       2       0.298913        74.95638
2017    2       3       0.2894833       73.03065
2017    2       4       0.323921        79.58141
2017    2       5       0.3844686       91.02227
2017    2       6       0.420211        97.66673
2017    2       7       0.4639029       105.2325
2017    3       0       0.4781138       107.7279
2017    3       1       0.4809643       108.4234
2017    3       2       0.4831848       108.4708
2017    3       3       0.5319278       115.8444
2017    3       4       0.6287421       130.219
2017    3       5       0.6499819       133.6393
2017    3       6       0.6029407       127.1872
2017    3       7       0.5756754       123.2521
2017    4       0       0.5678804       122.3614
2017    4       1       0.5399521       118.0744
2017    4       2       0.512109        113.4591
2017    4       3       0.519136        114.5258
2017    4       4       0.573175        122.6761
2017    4       5       0.6357582       131.7332
2017    4       6       0.5961975       125.9635
2017    4       7       0.6008897       126.405
2017    5       0       0.6253537       130.0122
2017    5       1       0.6193286       129.3597
2017    5       2       0.6409481       132.212
2017    5       3       0.6222175       129.4357
2017    5       4       0.6662495       135.8244
2017    5       5       0.6699108       136.0691
2017    5       6       0.8790183       162.0999
2017    5       7       1.189493        192.6662
2017    6       0       0.9048946       165.7983
2017    6       1       0.7480486       147.1435
2017    6       2       0.6841181       138.5352
2017    6       3       0.6718346       136.5269
2017    6       4       0.7330907       144.665
2017    6       5       0.8648211       160.4192
2017    6       6       0.9766477       171.4852
2017    6       7       0.9498329       169.1235
2017    7       0       0.7269391       144.3359
2017    7       1       0.5976629       126.6569
2017    7       2       0.517175        114.1956
2017    7       3       0.5587514       120.3169
2017    7       4       0.7200822       143.4466
2017    7       5       0.6264609       130.9605
2017    7       6       0.5574431       120.6126
2017    7       7       0.605657        127.8735
2017    8       0       0.5163449       114.6678
2017    8       1       0.3498193       85.61584
2017    8       2       0.4838364       108.3387
2017    8       3       0.7464299       145.9845
2017    8       4       0.623356        130.6205
2017    8       5       0.6432602       133.6462
2017    8       6       0.6975921       140.4692
2017    8       7       0.709412        142.115
2017    9       0       0.6740271       137.5293
2017    9       1       0.5652826       121.6316
2017    9       2       0.6318608       130.7038
2017    9       3       0.9741586       172.1982
2017    9       4       0.7898063       151.5238
2017    9       5       0.8078802       153.6497
2017    9       6       1.157376        189.1039
2017    9       7       1.008668        175.3174
2017    10      0       0.6627769       135.3086
2017    10      1       0.5258211       114.8422
2017    10      2       0.5488759       118.6041
2017    10      3       0.596813        125.8457
2017    10      4       0.5616402       120.5546
2017    10      5       0.5494715       118.7668
2017    10      6       0.5853597       124.454
2017    10      7       0.6804319       138.0227
2017    11      0       0.6390153       132.7157
2017    11      1       0.5860924       125.0734
2017    11      2       0.5105383       112.989
2017    11      3       0.5349094       116.8367
2017    11      4       0.6092043       127.6476
2017    11      5       0.6372068       131.4299
2017    11      6       0.639873        131.6846
2017    11      7       0.770739        149.3663
2017    12      0       0.8715678       162.0924
2017    12      1       0.6642491       135.8489
2017    12      2       0.597613        126.0867
2017    12      3       0.547679        118.4152
2017    12      4       0.5344963       116.2024
2017    12      5       0.5113799       112.3805
2017    12      6       0.5113958       112.5248
2017    12      7       0.5352391       116.8272
2017    13      0       0.5939551       126.4498
2017    13      1       0.4237035       98.71713
2017    13      2       0.4246598       98.67306
2017    13      3       0.5865787       124.9546
2017    13      4       0.7408737       146.0807
2017    13      5       0.6686738       136.6573
2017    13      6       1.101507        185.0386
2017    13      7       0.9178132       167.0616
2017    14      0       1.019968        178.2862
2017    14      1       0.6239598       131.1469
2017    14      2       0.6290496       131.3619
2017    14      3       0.6840444       139.0001
2017    14      4       0.6596041       136.0056
2017    14      5       0.7801467       152.0032
2017    14      6       0.9180137       167.6784
2017    14      7       1.163962        189.4825
2017    15      0       0.7335411       144.8557
2017    15      1       0.6610244       134.1216
2017    15      2       0.7609225       147.6963
2017    15      3       0.88316         163.1695
2017    15      4       1.199954        193.7229
2017    15      5       0.8407811       158.1307
2017    15      6       0.8625229       160.6671
2017    15      7       1.095894        184.5573
2017    16      0       0.9574936       171.3743
2017    16      1       0.8090937       155.0286
2017    16      2       0.8011601       154.403
2017    16      3       1.24286         199.0702
2017    16      4       1.042888        181.3957
2017    16      5       0.8835185       164.0342
2017    16      6       0.9461989       170.6414
2017    16      7       1.390635        208.0513
2017    17      0       1.051841        180.6171
2017    17      1       0.8045899       154.5756
2017    17      2       0.7069361       142.0675
2017    17      3       0.7335768       145.5564
2017    17      4       0.7825716       152.0009
2017    17      5       0.8113446       155.6545
2017    17      6       0.8867636       164.1745
2017    17      7       1.153156        190.5729
2017    18      0       0.9250653       169.1981
2017    18      1       0.7382555       147.058
2017    18      2       0.7706826       150.6882
2017    18      3       1.272689        199.9993
2017    18      4       1.073396        183.0706
2017    18      5       1.069154        181.8643
2017    18      6       1.382222        207.1975
2017    18      7       1.349175        205.0915
2017    19      0       1.015103        176.7129
2017    19      1       0.9493005       169.9246
2017    19      2       0.8125291       154.6003
2017    19      3       0.7500206       146.6771
2017    19      4       0.7845601       150.9716
2017    19      5       0.7851166       151.1545
2017    19      6       0.7489548       147.203
2017    19      7       0.9519664       170.6854
2017    20      0       0.88682         163.7441
2017    20      1       0.8040132       154.1451
2017    20      2       0.8093221       155.2384
2017    20      3       0.7821612       151.8649
2017    20      4       0.7716064       150.247
2017    20      5       0.7409061       146.3013
2017    20      6       0.7760133       150.7781
2017    20      7       0.8680233       162.0597
2017    21      0       0.8764398       163.5813
2017    21      1       0.808347        155.6992
2017    21      2       0.7514797       148.711
2017    21      3       0.7333248       146.3322
2017    21      4       0.7201373       144.49
2017    21      5       0.6853204       139.7194
2017    21      6       0.6772317       138.5206
2017    21      7       0.7721441       151.126
2017    22      0       0.7268877       145.6388
2017    22      1       0.6906698       140.7705
2017    22      2       0.7398734       147.4972
2017    22      3       0.7811785       153.146
2017    22      4       0.7249454       145.9543
2017    22      5       0.6675273       138.1218
2017    22      6       0.7650247       150.9482
2017    22      7       1.272355        201.4839
2017    23      0       1.025946        180.3937
2017    23      1       0.8155828       157.6719
2017    23      2       0.7579579       150.7191
2017    23      3       0.8138869       157.51
2017    23      4       0.814715        157.1316
2017    23      5       0.7598215       150.1296
2017    23      6       0.8768744       163.9057
2017    23      7       1.290401        202.0836
2017    24      0       1.236536        198.0142
2017    24      1       1.451949        212.9191
2017    24      2       1.366107        206.4764
2017    24      3       1.311635        202.4583
2017    24      4       1.136718        188.3358
2017    24      5       1.096039        184.8467
2017    24      6       1.222988        195.9526
2017    24      7       1.382097        208.1083
2017    25      0       1.194848        193.4686
2017    25      1       0.8434313       158.6314
2017    25      2       0.7253192       144.1585
2017    25      3       0.6988766       140.9356
2017    25      4       0.6828003       138.8691
2017    25      5       0.6714012       137.4822
2017    25      6       0.6621658       136.3693
2017    25      7       0.6111734       128.7338
2017    26      0       0.4738945       107.1679
2017    26      1       0.4357423       100.5666
2017    26      2       0.459696        104.6099
2017    26      3       0.4750712       107.1211
2017    26      4       0.4968394       110.599
2017    26      5       0.4665743       105.6912
2017    26      6       0.4757787       107.3757
2017    26      7       0.5136784       113.5375
2017    27      0       0.5157925       114.0222
2017    27      1       0.4820566       108.9181
2017    27      2       0.5123986       114.2142
2017    27      3       0.5842883       125.4545
2017    27      4       0.5601652       121.6287
2017    27      5       0.5630568       121.8843
2017    27      6       0.5839182       124.6507
2017    27      7       0.6733275       137.3226
2017    28      0       0.6904814       139.7238
2017    28      1       0.6701309       136.9571
2017    28      2       0.6593473       135.0887
2017    28      3       0.6716792       136.3429
2017    28      4       0.7507952       146.7865
2017    28      5       0.8255589       155.5612
2017    28      6       0.8242435       155.366
2017    28      7       0.820064        155.4435
2017    29      0       1.017867        176.7355
2017    29      1       0.8436662       158.0821
2017    29      2       0.813658        154.435
2017    29      3       0.7806382       150.3612
2017    29      4       0.7710047       148.9959
2017    29      5       0.6948699       139.2454
2017    29      6       0.6787116       137.1898
2017    29      7       0.8582365       159.9175
2017    30      0       0.8574017       160.0379
2017    30      1       0.6910402       139.4443
2017    30      2       0.7429801       146.2572
2017    30      3       0.9765063       172.9816
2017    30      4       0.9675234       172.4671
2017    30      5       0.6639752       136.0314
2017    30      6       0.8039684       154.0737
2017    30      7       1.255428        197.6952
2017    31      0       0.815184        155.0754
2017    31      1       0.7248706       144.2941
2017    31      2       0.6807573       138.2243
2017    31      3       0.7275184       144.5476
2017    31      4       0.7504653       147.7087
2017    31      5       0.7103184       142.4688
2017    31      6       0.7748619       150.6313
2017    31      7       0.8827179       163.5781
2018    1       0       0.0798182       25.39486
2018    1       1       0.06626349      21.84292
2018    1       2       0.06531846      21.59612
2018    1       3       0.06365328      21.15009
2018    1       4       0.06644027      21.84488
2018    1       5       0.09380147      28.93675
2018    1       6       0.1146345       34.20477
2018    1       7       0.1162002       34.61387
2018    2       0       0.1202895       35.67414
2018    2       1       0.1035779       31.50982
2018    2       2       0.09956012      30.47994
2018    2       3       0.09993334      30.5753
2018    2       4       0.09245247      28.67225
2018    2       5       0.08696548      27.21249
2018    2       6       0.09486718      29.23943
2018    2       7       0.1137425       34.00091
2018    3       0       0.09572342      29.63118
2018    3       1       0.06533011      21.85998
2018    3       2       0.07096051      23.26922
2018    3       3       0.08332957      26.33943
2018    3       4       0.1133834       33.89006
2018    3       5       0.1542494       43.85959
2018    3       6       0.1121779       33.72598
2018    3       7       0.1008351       30.95853
2018    4       0       0.08413079      26.75242
2018    4       1       0.07478234      24.05318
2018    4       2       0.07104488      22.94215
2018    4       3       0.07771199      24.47469
2018    4       4       0.09901813      29.63698
2018    4       5       0.1109926       32.51766
2018    4       6       0.1137891       33.29279
2018    4       7       0.1465991       41.49041
2018    5       0       0.1509387       42.73528
2018    5       1       0.09269889      28.56062
2018    5       2       0.108957        32.58549
2018    5       3       0.1946496       52.90168
2018    5       4       0.4680978       106.667
2018    5       5       0.5046014       112.7383
2018    5       6       0.4366033       101.2963
2018    5       7       0.3941322       93.82882
2018    6       0       0.3809374       91.48133
2018    6       1       0.4103217       96.6038
2018    6       2       0.7090583       141.1423
2018    6       3       0.7808391       150.6767
2018    6       4       0.6671625       136.5966
2018    6       5       0.5893098       125.7103
2018    6       6       0.6617544       136.5915
2018    6       7       0.7003219       141.5818
2018    7       0       0.7006256       141.3297
2018    7       1       0.6204269       130.181
2018    7       2       0.6386649       132.6369
2018    7       3       0.6937311       140.1664
2018    7       4       0.6958385       140.4498
2018    7       5       1.005831        176.2985
2018    7       6       0.8494668       159.4596
2018    7       7       0.7351797       145.4206
2018    8       0       0.5865575       124.9513
2018    8       1       0.5121829       113.58
2018    8       2       0.5671934       122.1832
2018    8       3       0.8222601       156.4941
2018    8       4       0.9204463       167.7627
2018    8       5       0.6796462       138.2333
2018    8       6       0.9961115       174.0996
2018    8       7       0.8962343       162.7948
2018    9       0       0.4776172       106.3409
2018    9       1       0.5493967       117.5773
2018    9       2       0.648085        133.826
2018    9       3       0.9820242       173.6701
2018    9       4       0.6494087       132.9856
2018    9       5       0.5829992       123.0335
2018    9       6       0.6043655       127.0267
2018    9       7       0.5607916       120.8329
2018    10      0       0.5077648       111.4422
2018    10      1       0.5181511       113.2266
2018    10      2       0.5558581       119.3459
2018    10      3       0.572872        122.4366
2018    10      4       0.5539771       119.544
2018    10      5       0.5155758       113.1045
2018    10      6       0.5048877       111.3771
2018    10      7       0.5196351       113.7346
2018    11      0       0.6574566       134.2742
2018    11      1       0.6946297       139.2635
2018    11      2       0.6656029       135.715
2018    11      3       0.6848837       138.2282
2018    11      4       0.6590524       134.6913
2018    11      5       0.6545293       133.9765
2018    11      6       0.7301409       144.2386
2018    11      7       0.9167806       166.5722
2018    12      0       0.9129821       166.3717
2018    12      1       0.7607638       148.9769
2018    12      2       0.6585203       135.6458
2018    12      3       0.6380262       132.666
2018    12      4       0.5989326       126.8661
2018    12      5       0.5786054       123.6408
2018    12      6       0.650271        134.094
2018    12      7       0.7488727       147.3224
2018    13      0       0.7045873       141.7705
2018    13      1       0.7035583       141.9258
2018    13      2       0.7213519       144.5109
2018    13      3       0.7240486       144.9684
2018    13      4       0.6637419       136.6702
2018    13      5       0.6131574       129.2004
2018    13      6       0.5324477       116.8696
2018    13      7       0.4212547       98.32537
2018    14      0       0.4578314       104.7988
2018    14      1       0.4101194       96.36706
2018    14      2       0.3697881       88.72976
2018    14      3       0.3695652       88.58791
2018    14      4       0.4092053       95.7615
2018    14      5       0.4562293       104.0282
2018    14      6       0.564666        121.7218
2018    14      7       0.7465875       147.4788
2018    15      0       0.6841971       139.4859
2018    15      1       0.4885019       109.7712
2018    15      2       0.3734764       89.12342
2018    15      3       0.4107014       95.95679
2018    15      4       0.4683546       105.7964
2018    15      5       0.598619        125.7818
2018    15      6       0.8684268       160.0361
2018    15      7       0.9306892       167.3925
2018    16      0       0.9944111       174.7268
2018    16      1       1.135525        187.6956
2018    16      2       1.13789         188.1003
2018    16      3       1.206297        193.9639
2018    16      4       0.9613906       171.0497
2018    16      5       0.8180725       154.3777
2018    16      6       0.8904502       162.4617
2018    16      7       1.033556        178.2745
2018    17      0       1.061368        181.8731
2018    17      1       1.155587        190.3459
2018    17      2       1.074705        183.3686
2018    17      3       0.9569041       171.8913
2018    17      4       1.208485        194.79
2018    17      5       1.223493        196.3767
2018    17      6       1.124536        187.954
2018    17      7       0.9111449       166.3788
2018    18      0       0.7433643       147.1461
2018    18      1       0.4729947       107.2367
2018    18      2       0.5796627       124.3054
2018    18      3       0.8752963       162.9808
2018    18      4       0.8710334       162.0802
2018    18      5       1.731457        227.7021
2018    18      6       0.9547211       169.4272
2018    18      7       0.6704065       136.3669
2018    19      0       0.5232933       115.2062
2018    19      1       0.3057722       76.84334
2018    19      2       0.4420023       101.8648
2018    19      3       0.5278642       115.8394
2018    19      4       0.604828        127.414
2018    19      5       0.6340749       131.5279
2018    19      6       0.569092        121.8586
2018    19      7       0.5473884       118.3782
2018    20      0       0.5639239       121.2439
2018    20      1       0.5494062       119.2662
2018    20      2       0.5603221       121.0083
2018    20      3       0.5525442       119.7688
2018    20      4       0.645127        133.5767
2018    20      5       0.658967        135.6407
2018    20      6       0.5271357       115.5476
2018    20      7       0.4718677       106.6849
2018    21      0       0.4498781       103.014
2018    21      1       0.4977005       109.4861
2018    21      2       0.5010205       111.0969
2018    21      3       0.4767032       107.6728
2018    21      4       0.4816546       107.8643
2018    21      5       0.4956851       109.5696
2018    21      6       0.4782979       106.4065
2018    21      7       0.5062287       111.2554
2018    22      0       0.5190053       113.6595
2018    22      1       0.4763269       106.5268
2018    22      2       0.4797149       107.0706
2018    22      3       0.4908286       108.8825
2018    22      4       0.5483639       118.2058
2018    22      5       0.5842862       123.7928
2018    22      6       0.5536897       119.1763
2018    22      7       0.5211733       114.3283
2018    23      0       0.4950143       110.2255
2018    23      1       0.4887129       109.4438
2018    23      2       0.466467        106.0793
2018    23      3       0.4812702       108.4182
2018    23      4       0.5114553       113.2759
2018    23      5       0.4933796       110.28
2018    23      6       0.4672253       106.0485
2018    23      7       0.5049909       111.5692
2018    24      0       0.5071786       112.9223
2018    24      1       0.4394799       101.6885
2018    24      2       0.449019        103.129
2018    24      3       0.5437167       118.6922
2018    24      4       0.4934459       111.0798
2018    24      5       0.5570958       120.9157
2018    24      6       0.5186814       115.3001
2018    24      7       0.5658642       123.1058
2018    25      0       0.5018505       112.534
2018    25      1       0.4658877       106.3217
2018    25      2       0.7614594       150.6872
2018    25      3       1.353999        207.6036
2018    25      4       1.035752        181.4737
2018    25      5       0.9248476       168.8433
2018    25      6       0.9228802       166.9736
2018    25      7       0.6831556       137.7995
2018    26      0       0.5578429       120.5548
2018    26      1       0.5306358       116.8416
2018    26      2       0.6709626       138.1643
2018    26      3       0.888959        165.6112
2018    26      4       0.7382738       147.5189
2018    26      5       0.5230259       116.074
2018    26      6       0.4808727       109.0202
2018    26      7       0.4608831       105.4535
2018    27      0       0.4320427       100.8166
2018    27      1       0.4770041       108.688
2018    27      2       0.6958312       141.1188
2018    27      3       1.09285         184.3854
2018    27      4       1.178155        191.4616
2018    27      5       1.107725        185.7252
2018    27      6       0.9295637       168.5239
2018    27      7       0.8423571       159.4871
2018    28      0       1.065371        182.6348
2018    28      1       0.8599691       162.0251
2018    28      2       0.8508219       160.6437
2018    28      3       0.8163982       156.1968
2018    28      4       0.8487106       160.966
2018    28      5       0.8114902       156.7799
2018    28      6       0.9895088       175.3612
2018    28      7       0.8877533       163.8426
2018    29      0       0.9614401       172.1385
2018    29      1       1.063034        181.8928
2018    29      2       0.9262152       167.2023
2018    29      3       0.9967889       174.9436
2018    29      4       1.235525        196.8939
2018    29      5       1.153663        190.0975
2018    29      6       1.003053        176.4016
2018    29      7       0.9856981       174.749
2018    30      0       0.9919527       175.7911
2018    30      1       0.9020726       166.2869
2018    30      2       0.9014117       166.4299
2018    30      3       1.014477        178.8951
2018    30      4       0.9907188       176.1912
2018    30      5       0.9959131       176.2157
2018    30      6       1.035063        180.3478
2018    30      7       1.169841        192.7946
2018    31      0       1.251345        199.5404
2018    31      1       1.117343        187.8224
2018    31      2       1.129943        188.1577
2018    31      3       0.9765308       173.8034
2018    31      4       0.933289        169.1082
2018    31      5       0.8845936       163.7677
2018    31      6       1.021979        177.8105
2018    31      7       1.264369        198.9227
