####################################################################################################
# Month: 07Jul                                                                                     #
# Station: CNI                                                                                     #
# Frequency: 345 GHz                                                                               #
# Columns are: year    day     segment         tau     Tb (K)                                      #
####################################################################################################
2009    1       0       1.036148        180.7719
2009    1       1       0.9765567       174.7848
2009    1       2       0.9438229       171.1678
2009    1       3       0.8893492       165.4862
2009    1       4       0.8788993       164.7063
2009    1       5       0.9068044       167.6336
2009    1       6       0.8792098       164.5763
2009    1       7       0.8385738       160.0068
2009    2       0       0.7947988       154.7386
2009    2       1       0.7446214       148.3938
2009    2       2       0.6802842       139.6819
2009    2       3       0.6540869       135.789
2009    2       4       0.6343774       132.7834
2009    2       5       0.6456959       134.318
2009    2       6       0.6617195       136.5758
2009    2       7       0.6576378       136.0375
2009    3       0       0.6345938       132.7972
2009    3       1       0.58755         125.699
2009    3       2       0.580958        124.5111
2009    3       3       0.6572607       135.8355
2009    3       4       0.6950775       141.4727
2009    3       5       0.6802797       139.8182
2009    3       6       0.6780245       139.5277
2009    3       7       0.6745467       138.9979
2009    4       0       0.6462446       135.0429
2009    4       1       0.617869        130.9738
2009    4       2       0.6138382       130.3819
2009    4       3       0.6379258       134.0256
2009    4       4       0.712685        144.6256
2009    4       5       0.7719963       152.5791
2009    4       6       0.7407755       148.6551
2009    4       7       0.7024962       143.418
2009    5       0       0.6594173       136.8773
2009    5       1       0.6094778       129.0312
2009    5       2       0.5801102       124.1748
2009    5       3       0.5803762       123.7563
2009    5       4       0.6750401       137.7192
2009    5       5       1.092525        186.9404
2009    5       6       1.087597        186.1359
2009    5       7       1.15848         192.4275
2009    6       0       1.248424        200.0585
2009    6       1       1.276488        202.1513
2009    6       2       1.259596        200.3531
2009    6       3       1.221074        197.0239
2009    6       4       1.207251        196.2535
2009    6       5       1.219023        197.5287
2009    6       6       1.170483        193.5172
2009    6       7       1.341056        207.3015
2009    7       0       1.119059        188.2386
2009    7       1       1.087417        185.0381
2009    7       2       1.151881        190.6303
2009    7       3       1.23084         197.0527
2009    7       4       1.244079        198.0802
2009    7       5       1.240166        198.1285
2009    7       6       1.23016         197.7869
2009    7       7       1.201738        195.6647
2009    8       0       1.116724        188.4382
2009    8       1       1.04618         181.881
2009    8       2       0.979107        174.9585
2009    8       3       0.8655446       162.5056
2009    8       4       0.7877146       153.2483
2009    8       5       0.7506959       148.795
2009    8       6       0.6940582       141.4163
2009    8       7       0.6345746       133.1845
2009    9       0       0.6139941       130.0717
2009    9       1       0.6248516       131.1161
2009    9       2       0.5909216       125.5951
2009    9       3       0.5661481       121.4014
2009    9       4       0.6215805       129.7196
2009    9       5       0.7348665       145.2252
2009    9       6       0.8859569       162.5868
2009    9       7       0.8194945       154.4916
2009    10      0       1.057412        180.8537
2009    10      1       1.229647        196.0231
2009    10      2       1.386235        207.9098
2009    10      3       1.483014        214.3013
2009    10      4       1.581895        220.5894
2009    10      5       1.702135        227.5008
2009    10      6       1.662656        225.7279
2009    10      7       1.573991        220.9253
2009    11      0       1.484304        215.8639
2009    11      1       1.320958        205.3974
2009    11      2       1.241291        199.3514
2009    11      3       1.385538        209.9508
2009    11      4       1.487312        217.279
2009    11      5       1.521306        220.2928
2009    11      6       1.191472        195.7275
2009    11      7       0.9515137       172.763
2009    12      0       0.9222526       169.7266
2009    12      1       1.038631        181.4488
2009    12      2       1.098079        186.6667
2009    12      3       1.006672        177.4752
2009    12      4       0.9142783       167.96
2009    12      5       0.7663829       151.598
2009    12      6       0.5776756       125.694
2009    12      7       0.5085622       114.291
2009    13      0       0.4896286       110.4983
2009    13      1       0.4791082       108.2465
2009    13      2       0.5556705       119.7237
2009    13      3       0.663224        135.9984
2009    13      4       0.7332786       146.1757
2009    13      5       0.7976046       154.9681
2009    13      6       0.8984362       167.5028
2009    13      7       0.968439        175.5002
2009    14      0       1.046708        183.3447
2009    14      1       1.131589        191.1417
2009    14      2       1.264645        202.2736
2009    14      3       1.426207        213.8177
2009    14      4       1.453635        215.6046
2009    14      5       1.388075        211.3946
2009    14      6       1.400619        212.1531
2009    14      7       1.383926        210.8865
2009    15      0       1.320262        206.4502
2009    15      1       1.310231        205.5406
2009    15      2       1.144025        192.031
2009    15      3       0.9155894       169.6466
2009    15      4       0.9030206       168.2037
2009    15      5       0.8388972       160.8598
2009    15      6       0.7202651       145.6861
2009    15      7       0.7583074       150.3554
2009    16      0       0.9360606       170.8122
2009    16      1       1.135986        189.0807
2009    16      2       1.231022        195.9308
2009    16      3       1.32589         202.3752
2009    16      4       1.530743        215.8982
2009    16      5       1.708755        225.8084
2009    16      6       1.736961        227.443
2009    16      7       1.815333        231.1974
2009    17      0       1.888005        234.132
2009    17      1       1.81962         230.8797
2009    17      2       1.673318        223.8845
2009    17      3       1.557094        217.6561
2009    17      4       1.710617        226.5435
2009    17      5       1.976705        238.9506
2009    17      6       2.213477        247.1707
2009    17      7       2.3173          250.5773
2009    18      0       2.123336        244.5841
2009    18      1       2.147653        245.4669
2009    18      2       2.022547        239.9785
2009    18      3       2.093864        242.1509
2009    18      4       1.870781        233.2285
2009    18      5       1.419349        209.4592
2009    18      6       1.130469        188.1761
2009    18      7       0.9613789       172.8569
2009    19      0       0.8718632       163.3738
2009    19      1       0.7345307       146.3492
2009    19      2       0.5756363       123.6112
2009    19      3       0.5110272       113.3889
2009    19      4       0.5257626       115.9178
2009    19      5       0.5781018       124.5623
2009    19      6       0.7647464       151.3827
2009    19      7       1.034939        182.321
2009    20      0       1.068668        186.0987
2009    20      1       1.13273         191.9822
2009    20      2       1.176999        195.6687
2009    20      3       1.103548        189.1097
2009    20      4       1.122438        190.6911
2009    20      5       1.14861         193.0817
2009    20      6       1.150711        193.474
2009    20      7       1.100002        188.8474
2009    21      0       1.019492        180.7418
2009    21      1       1.011441        179.4733
2009    21      2       1.098284        187.5849
2009    21      3       1.213177        197.1209
2009    21      4       1.199772        196.0009
2009    21      5       1.252205        200.2174
2009    21      6       1.478703        216.9204
2009    21      7       1.75843         233.5695
2009    22      0       1.896673        240.0034
2009    22      1       1.551027        221.901
2009    22      2       1.333722        207.6872
2009    22      3       1.193975        196.8101
2009    22      4       1.109274        189.6022
2009    22      5       1.189802        196.5092
2009    22      6       1.299307        204.7433
2009    22      7       1.314648        205.6403
2009    23      0       1.246741        200.6281
2009    23      1       1.177373        194.9599
2009    23      2       1.281417        203.3493
2009    23      3       1.233525        199.3154
2009    23      4       1.147766        192.3631
2009    23      5       1.251294        200.7325
2009    23      6       1.482881        216.5438
2009    23      7       1.611702        223.8283
2009    24      0       1.614332        224.027
2009    24      1       1.944745        238.7996
2009    24      2       1.836401        233.9876
2009    24      3       1.716944        228.0895
2009    24      4       1.779298        230.9396
2009    24      5       1.731101        228.8472
2009    24      6       1.641376        224.4753
2009    24      7       1.530511        218.1989
2009    25      0       1.521474        217.2313
2009    25      1       1.604477        221.6248
2009    25      2       1.460075        212.8228
2009    25      3       1.324399        203.1511
2009    25      4       1.372151        206.5594
2009    25      5       1.380573        207.4154
2009    25      6       1.275862        200.3185
2009    25      7       1.135931        188.2492
2009    26      0       1.296508        202.6613
2009    26      1       1.256264        200.1332
2009    26      2       0.9572608       173.4183
2009    26      3       0.8833935       164.9131
2009    26      4       1.109173        186.9474
2009    26      5       1.266311        200.0412
2009    26      6       1.275871        201.2645
2009    26      7       1.254011        199.8721
2009    27      0       1.257491        200.1287
2009    27      1       1.273112        201.262
2009    27      2       1.287291        202.6968
2009    27      3       1.275468        201.9398
2009    27      4       1.228981        198.3725
2009    27      5       1.099648        187.5159
2009    27      6       0.9566352       173.9916
2009    27      7       0.8948337       167.7165
2009    28      0       0.8539897       162.8668
2009    28      1       0.8113627       157.4908
2009    28      2       0.7769191       153.1569
2009    28      3       0.7330223       147.6292
2009    28      4       0.7367147       148.0629
2009    28      5       0.8379935       160.2282
2009    28      6       0.9067759       168.205
2009    28      7       0.8812538       165.376
2009    29      0       0.8884563       165.893
2009    29      1       0.9779479       175.1095
2009    29      2       0.9945672       176.8359
2009    29      3       0.9291049       170.0483
2009    29      4       0.9697956       174.1772
2009    29      5       1.066797        183.6515
2009    29      6       1.105371        187.2518
2009    29      7       1.091025        185.621
2009    30      0       1.191877        194.5272
2009    30      1       1.268733        200.7132
2009    30      2       1.468681        214.5193
2009    30      3       1.85484         234.6028
2009    30      4       2.159805        245.6988
2009    30      5       1.971083        239.7554
2009    30      6       1.874808        235.583
2009    30      7       2.126926        244.9322
2009    31      0       2.042462        242.1714
2009    31      1       2.066847        242.782
2009    31      2       2.116507        245.0557
2009    31      3       2.085595        244.75
2009    31      4       1.924114        238.6486
2009    31      5       1.96264         240.2846
2009    31      6       1.9655          240.1939
2009    31      7       1.825576        233.3822
2010    1       0       0.5728233       123.8014
2010    1       1       0.5802389       124.6565
2010    1       2       0.5430372       119.0628
2010    1       3       0.500716        112.4845
2010    1       4       0.5131567       114.5461
2010    1       5       0.5569072       121.3895
2010    1       6       0.6242449       131.3842
2010    1       7       0.5866252       126.1972
2010    2       0       0.4912202       111.0231
2010    2       1       0.4018131       95.28567
2010    2       2       0.3860027       92.39774
2010    2       3       0.3939223       93.56092
2010    2       4       0.454498        103.7123
2010    2       5       0.7263866       142.5728
2010    2       6       1.120288        184.6466
2010    2       7       1.436775        209.5479
2010    3       0       1.449489        211.3953
2010    3       1       1.242704        197.8817
2010    3       2       1.049353        182.0359
2010    3       3       0.9275429       170.2253
2010    3       4       0.7633694       151.1994
2010    3       5       0.5958049       127.555
2010    3       6       0.4814793       108.2597
2010    3       7       0.4577771       103.4496
2010    4       0       0.4871278       108.639
2010    4       1       0.5110852       112.7744
2010    4       2       0.5209714       114.6187
2010    4       3       0.5398826       117.5937
2010    4       4       0.5998407       126.5737
2010    4       5       0.6993101       140.7289
2010    4       6       0.7602562       148.7981
2010    4       7       0.7760689       151.0104
2010    5       0       0.7036021       141.573
2010    5       1       0.5491564       119.1982
2010    5       2       0.429638        99.49852
2010    5       3       0.4385207       101.2699
2010    5       4       0.5646327       122.5827
2010    5       5       0.6968239       141.9637
2010    5       6       0.7687685       151.5326
2010    5       7       0.8194428       158.1169
2010    6       0       0.7470624       148.9372
2010    6       1       0.6548714       136.0377
2010    6       2       0.681519        139.3221
2010    6       3       0.7425659       147.2347
2010    6       4       0.8258868       158.2393
2010    6       5       0.8810485       165.2945
2010    6       6       0.9081837       168.5213
2010    6       7       0.8778993       165.1309
2010    7       0       0.782089        153.6507
2010    7       1       0.7080169       143.8804
2010    7       2       0.684045        140.5265
2010    7       3       0.6289817       132.5808
2010    7       4       0.5853993       125.7221
2010    7       5       0.5849252       125.5203
2010    7       6       0.5577605       121.468
2010    7       7       0.5463967       119.7149
2010    8       0       0.5696593       123.6307
2010    8       1       0.5650772       123.0725
2010    8       2       0.5353855       118.3506
2010    8       3       0.5071931       113.5195
2010    8       4       0.4775207       108.3334
2010    8       5       0.4989853       111.7838
2010    8       6       0.6293045       131.8702
2010    8       7       0.9791292       174.8569
2010    9       0       1.655353        226.3966
2010    9       1       1.844137        236.1467
2010    9       2       1.890809        238.7348
2010    9       3       2.026397        244.2018
2010    9       4       2.111502        246.5349
2010    9       5       2.060471        244.2381
2010    9       6       1.991473        241.5961
2010    9       7       2.125056        246.0646
2010    10      0       2.257676        250.5113
2010    10      1       2.153185        247.0739
2010    10      2       2.165036        247.2116
2010    10      3       2.25209         249.8046
2010    10      4       2.272937        250.5381
2010    10      5       2.216585        248.8977
2010    10      6       2.148768        246.8939
2010    10      7       1.717232        230.3313
2010    11      0       1.580532        223.1941
2010    11      1       1.753553        231.9784
2010    11      2       1.73444         231.1136
2010    11      3       1.701076        229.2261
2010    11      4       1.691975        228.6428
2010    11      5       1.618489        224.7986
2010    11      6       1.655179        227.0145
2010    11      7       1.718976        230.1828
2010    12      0       1.714066        230.0896
2010    12      1       1.828049        235.9867
2010    12      2       1.562752        222.189
2010    12      3       1.30612         205.0491
2010    12      4       1.396537        211.513
2010    12      5       1.51636         219.4725
2010    12      6       1.504751        218.9238
2010    12      7       1.348915        208.1968
2010    13      0       1.166494        193.6487
2010    13      1       1.046968        182.6943
2010    13      2       1.127299        190.6714
2010    13      3       1.047679        182.9351
2010    13      4       0.9801652       176.6409
2010    13      5       0.8613607       163.8128
2010    13      6       0.59217         127.912
2010    13      7       0.4271801       100.8389
2010    14      0       0.4138815       98.62738
2010    14      1       0.3925203       94.71108
2010    14      2       0.3336129       83.12945
2010    14      3       0.2872273       73.36399
2010    14      4       0.2861638       72.89184
2010    14      5       0.3091728       77.68681
2010    14      6       0.3187347       79.80008
2010    14      7       0.3306372       82.22142
2010    15      0       0.3329113       82.68298
2010    15      1       0.3289828       81.87751
2010    15      2       0.3468737       85.24177
2010    15      3       0.3853512       92.40346
2010    15      4       0.4524259       104.45
2010    15      5       0.4832383       109.6079
2010    15      6       0.6564368       136.8929
2010    15      7       0.4916607       111.3311
2010    16      0       0.4910136       111.3739
2010    16      1       0.4990627       112.8314
2010    16      2       0.5144032       115.3823
2010    16      3       0.5077222       114.2813
2010    16      4       0.4710217       108.1528
2010    16      5       0.4307085       101.2501
2010    16      6       0.3573742       87.89765
2010    16      7       0.2898809       74.62365
2010    17      0       0.2640929       69.25154
2010    17      1       0.2529263       66.86374
2010    17      2       0.2535976       66.98679
2010    17      3       0.2627388       68.90217
2010    17      4       0.2549122       67.33469
2010    17      5       0.2455031       65.44348
2010    17      6       0.2257487       61.3147
2010    17      7       0.2139792       58.6714
2010    18      0       0.2335398       62.79487
2010    18      1       0.3218335       81.02722
2010    18      2       0.4856576       110.8463
2010    18      3       0.804537        156.9372
2010    18      4       0.9803218       176.4349
2010    18      5       1.069989        185.3016
2010    18      6       1.128461        190.6799
2010    18      7       1.1627          193.6948
2010    19      0       1.156532        192.9339
2010    19      1       1.157428        192.8606
2010    19      2       1.122307        190.0392
2010    19      3       0.9867805       177.1971
2010    19      4       0.8636317       163.5493
2010    19      5       0.6612545       137.3445
2010    19      6       0.4255717       99.59931
2010    19      7       0.3430233       84.28948
2010    20      0       0.3414017       84.39102
2010    20      1       0.3422852       84.67799
2010    20      2       0.2944394       74.92113
2010    20      3       0.2928342       74.52836
2010    20      4       0.4126932       97.60459
2010    20      5       0.4988916       112.4244
2010    20      6       0.5150466       114.8056
2010    20      7       0.5382011       118.667
2010    21      0       0.5475108       120.2579
2010    21      1       0.5499419       120.4425
2010    21      2       0.5236964       115.9151
2010    21      3       0.5120243       113.6323
2010    21      4       0.5200107       114.837
2010    21      5       0.5361436       117.6427
2010    21      6       0.5720346       123.5991
2010    21      7       0.6386301       133.9763
2010    22      0       0.6830415       140.5432
2010    22      1       0.6727295       139.3068
2010    22      2       0.6117005       130.3135
2010    22      3       0.5458234       119.9995
2010    22      4       0.4682238       106.8844
2010    22      5       0.4119134       96.86085
2010    22      6       0.3765355       90.65764
2010    22      7       0.3562033       86.95225
2010    23      0       0.3552978       86.64052
2010    23      1       0.3490908       85.15758
2010    23      2       0.3321076       81.73834
2010    23      3       0.3507942       85.51934
2010    23      4       0.3484454       85.51908
2010    23      5       0.322572        81.02808
2010    23      6       0.3028179       77.36615
2010    23      7       0.3036436       77.55995
2010    24      0       0.3518278       86.97393
2010    24      1       0.4230018       100.0035
2010    24      2       0.4906871       111.806
2010    24      3       0.492552        112.191
2010    24      4       0.4844877       110.8309
2010    24      5       0.5085808       114.9271
2010    24      6       0.5600965       123.1282
2010    24      7       0.7188734       145.6132
2010    25      0       0.8641935       163.3117
2010    25      1       0.9333027       171.0151
2010    25      2       1.088214        185.9891
2010    25      3       1.203641        196.0225
2010    25      4       1.036413        181.5379
2010    25      5       0.8683764       163.8504
2010    25      6       0.9192726       169.1428
2010    25      7       0.9759811       175.0799
2010    26      0       0.7691882       152.1848
2010    26      1       0.5457802       121.3844
2010    26      2       0.4679655       108.8718
2010    26      3       0.3678502       91.05154
2010    26      4       0.2823144       74.06636
2010    26      5       0.2176173       60.08696
2010    26      6       0.1855675       52.68872
2010    26      7       0.1686601       48.64795
2010    27      0       0.1634584       47.34565
2010    27      1       0.1649754       47.62391
2010    27      2       0.1757753       50.18115
2010    27      3       0.185966        52.56844
2010    27      4       0.2019534       56.14811
2010    27      5       0.220554        60.24266
2010    27      6       0.2372524       63.59049
2010    27      7       0.2519296       66.31258
2010    28      0       0.2890412       73.90707
2010    28      1       0.3578094       87.27986
2010    28      2       0.4082404       96.23004
2010    28      3       0.4301232       99.84974
2010    28      4       0.4566441       104.4889
2010    28      5       0.5696936       123.5427
2010    28      6       0.7469817       149.4953
2010    28      7       0.9023866       169.0889
2010    29      0       0.9812602       178.1318
2010    29      1       0.8892382       167.941
2010    29      2       0.9639309       175.8329
2010    29      3       1.003343        179.9433
2010    29      4       1.17361         196.2682
2010    29      5       1.376178        212.0469
2010    29      6       1.455558        216.9387
2010    29      7       1.824382        237.004
2010    30      0       1.882044        238.602
2010    30      1       1.921935        239.636
2010    30      2       1.913693        239.2049
2010    30      3       1.958609        241.0497
2010    30      4       2.223008        250.3219
2010    30      5       2.339216        253.7871
2010    30      6       2.230607        250.8367
2010    30      7       2.113989        247.0562
2010    31      0       2.138604        247.8285
2010    31      1       2.225565        250.266
2010    31      2       2.039006        243.9076
2010    31      3       1.911428        238.9735
2010    31      4       2.106912        246.4095
2010    31      5       2.331812        253.7247
2010    31      6       2.292231        252.9594
2010    31      7       2.229249        250.8007
2011    1       0       0.4714887       108.1256
2011    1       1       0.5524326       121.4616
2011    1       2       0.7208407       145.5139
2011    1       3       0.8522751       161.7683
2011    1       4       0.8694826       164.1247
2011    1       5       0.8241065       159.1756
2011    1       6       0.772192        152.9317
2011    1       7       0.7140765       145.3692
2011    2       0       0.6334417       134.0522
2011    2       1       0.6106437       130.5997
2011    2       2       0.6505558       136.1948
2011    2       3       0.6884649       141.3886
2011    2       4       0.7492307       149.6419
2011    2       5       0.8290235       159.7672
2011    2       6       0.8400676       161.3331
2011    2       7       0.7964144       156.1741
2011    3       0       0.8330005       160.4024
2011    3       1       0.9180525       169.8237
2011    3       2       0.9657411       174.9502
2011    3       3       1.123767        190.4095
2011    3       4       1.317971        206.5809
2011    3       5       1.35893         209.5539
2011    3       6       1.155356        193.6111
2011    3       7       0.8265978       159.9809
2011    4       0       0.5100178       115.0852
2011    4       1       0.3850893       92.84068
2011    4       2       0.3364219       83.16199
2011    4       3       0.326546        80.84272
2011    4       4       0.5280619       117.0872
2011    4       5       0.9203636       170.4367
2011    4       6       1.120937        190.8027
2011    4       7       0.9812884       177.1827
2011    5       0       0.7111562       144.5185
2011    5       1       0.5584993       121.8506
2011    5       2       0.5153899       114.8443
2011    5       3       0.5123492       114.3553
2011    5       4       0.4853168       110.0911
2011    5       5       0.43692         102.0031
2011    5       6       0.3849168       92.62971
2011    5       7       0.4497357       104.8978
2011    6       0       0.4278373       101.2139
2011    6       1       0.2842774       73.62159
2011    6       2       0.1930381       53.98108
2011    6       3       0.2489351       66.38284
2011    6       4       0.3691434       90.6094
2011    6       5       0.4442588       104.3061
2011    6       6       0.4649379       107.8999
2011    6       7       0.4832186       111.0947
2011    7       0       0.5796313       126.7712
2011    7       1       0.5813136       126.6031
2011    7       2       0.585234        127.0415
2011    7       3       0.5856747       126.8655
2011    7       4       0.7714629       153.094
2011    7       5       0.7912912       155.4041
2011    7       6       0.7767412       153.5769
2011    7       7       0.6950834       142.802
2011    8       0       0.6761267       140.0934
2011    8       1       0.6967087       142.7428
2011    8       2       0.6599299       137.5481
2011    8       3       0.6125475       130.6561
2011    8       4       0.6097991       130.1527
2011    8       5       0.6129496       130.677
2011    8       6       0.5610347       122.7848
2011    8       7       0.4880162       110.9699
2011    9       0       0.3929524       94.41737
2011    9       1       0.2985123       76.33762
2011    9       2       0.2834898       73.26007
2011    9       3       0.3097231       78.71015
2011    9       4       0.367014        89.90879
2011    9       5       0.4252716       100.6161
2011    9       6       0.4447764       104.146
2011    9       7       0.4378699       103.0305
2011    10      0       0.4253089       100.8238
2011    10      1       0.4001401       96.24381
2011    10      2       0.3595453       88.54769
2011    10      3       0.3232825       81.34974
2011    10      4       0.2992614       76.45728
2011    10      5       0.2769305       71.88341
2011    10      6       0.2829426       73.25361
2011    10      7       0.3413976       85.03173
2011    11      0       0.3958602       95.24976
2011    11      1       0.3952366       95.15528
2011    11      2       0.3582543       88.17117
2011    11      3       0.3290084       82.26415
2011    11      4       0.3424137       84.47965
2011    11      5       0.3650012       88.04384
2011    11      6       0.3943475       92.08802
2011    11      7       0.4173166       95.51014
2011    12      0       0.4195005       95.40782
2011    12      1       0.4317031       97.26281
2011    12      2       0.4207425       95.79236
2011    12      3       0.4156309       95.73675
2011    12      4       0.4721915       106.1797
2011    12      5       0.5027761       112.1771
2011    12      6       0.5855817       126.2164
2011    12      7       0.7781241       153.2363
2011    13      0       0.9008857       167.8848
2011    13      1       0.9124888       169.2139
2011    13      2       0.9034254       168.2302
2011    13      3       0.9646144       174.9295
2011    13      4       1.091643        187.3943
2011    13      5       1.233882        199.8395
2011    13      6       1.273015        202.768
2011    13      7       1.232962        199.0452
2011    14      0       1.255735        200.8514
2011    14      1       1.280622        202.4969
2011    14      2       1.27936         201.9623
2011    14      3       1.2286          197.7555
2011    14      4       1.280976        202.0558
2011    14      5       1.329456        205.9161
2011    14      6       1.298607        203.4598
2011    14      7       1.250906        199.3835
2011    15      0       1.276181        200.9347
2011    15      1       1.335057        204.8672
2011    15      2       1.332031        204.0946
2011    15      3       1.329795        203.6203
2011    15      4       1.329791        203.3923
2011    15      5       1.343754        204.2006
2011    15      6       1.313258        200.7602
2011    15      7       1.550599        216.81
2011    16      0       1.423716        209.2718
2011    16      1       1.306884        201.4145
2011    16      2       1.45914         211.8148
2011    16      3       1.542           217.1893
2011    16      4       1.483291        214.0221
2011    16      5       1.445679        212.1624
2011    16      6       1.509117        216.2574
2011    16      7       1.549665        218.6972
2011    17      0       1.466642        214.4169
2011    17      1       1.359803        207.7694
2011    17      2       1.451316        213.4772
2011    17      3       1.636044        224.0206
2011    17      4       1.502036        216.8605
2011    17      5       1.316576        205.1332
2011    17      6       1.164176        193.3061
2011    17      7       0.8940418       166.6194
2011    18      0       0.6657161       138.1802
2011    18      1       0.5102792       115.145
2011    18      2       0.4869876       111.7485
2011    18      3       0.525571        118.231
2011    18      4       0.6333244       134.7067
2011    18      5       0.7162377       146.1675
2011    18      6       0.6207976       132.5178
2011    18      7       0.49605         112.6465
2011    19      0       0.4104419       97.76831
2011    19      1       0.3394596       84.6377
2011    19      2       0.3287123       82.53191
2011    19      3       0.3302289       82.6604
2011    19      4       0.3093523       78.39919
2011    19      5       0.2913024       74.74888
2011    19      6       0.2793898       72.41167
2011    19      7       0.3206795       80.93984
2011    20      0       0.5342995       118.8986
2011    20      1       0.8067368       155.9158
2011    20      2       0.9941888       176.7272
2011    20      3       1.080926        185.3285
2011    20      4       1.348276        207.7813
2011    20      5       1.582552        223.2597
2011    20      6       1.544341        221.483
2011    20      7       1.059258        184.3923
2011    21      0       0.7142685       144.279
2011    21      1       0.6531464       136.1173
2011    21      2       0.544819        120.3515
2011    21      3       0.5707247       124.4621
2011    21      4       0.6477072       136.0359
2011    21      5       0.6475396       136.1514
2011    21      6       0.6534554       137.1486
2011    21      7       0.6358815       134.775
2011    22      0       0.6272183       133.5043
2011    22      1       0.633699        134.1887
2011    22      2       0.6381177       134.776
2011    22      3       0.6192146       132.02
2011    22      4       0.5846002       126.7034
2011    22      5       0.5497574       121.3234
2011    22      6       0.5171297       116.0783
2011    22      7       0.4659223       107.6271
2011    23      0       0.4125781       98.29774
2011    23      1       0.384738        93.15148
2011    23      2       0.3660995       89.71704
2011    23      3       0.3305055       82.97906
2011    23      4       0.2831087       73.47492
2011    23      5       0.2610288       68.88277
2011    23      6       0.2565921       67.96411
2011    23      7       0.2419108       64.87363
2011    24      0       0.2047598       56.82191
2011    24      1       0.1816071       51.6342
2011    24      2       0.1804538       51.35862
2011    24      3       0.1867649       52.75849
2011    24      4       0.1993085       55.63817
2011    24      5       0.2159108       59.27982
2011    24      6       0.2164881       59.24554
2011    24      7       0.2069638       57.05084
2011    25      0       0.2058193       56.83907
2011    25      1       0.2149476       58.85315
2011    25      2       0.2060808       56.83384
2011    25      3       0.1924899       53.79033
2011    25      4       0.1831796       51.63591
2011    25      5       0.1815069       51.07295
2011    25      6       0.1910325       53.08276
2011    25      7       0.1896849       52.69667
2011    26      0       0.1983807       54.62836
2011    26      1       0.214966        58.3476
2011    26      2       0.2159332       58.72406
2011    26      3       0.2139696       58.47257
2011    26      4       0.210356        57.79694
2011    26      5       0.2083029       57.33304
2011    26      6       0.2078636       57.04486
2011    26      7       0.2062376       56.44925
2011    27      0       0.2289115       61.29603
2011    27      1       0.244476        64.51694
2011    27      2       0.2151521       58.0902
2011    27      3       0.1895243       52.38355
2011    27      4       0.1685336       47.5729
2011    27      5       0.1818397       50.61664
2011    27      6       0.2322363       61.92583
2011    27      7       0.3475032       85.50223
2011    28      0       0.6026501       128.4303
2011    28      1       0.8350133       159.1457
2011    28      2       0.9998336       176.7701
2011    28      3       1.225376        196.7012
2011    28      4       1.412871        211.0319
2011    28      5       1.676287        227.091
2011    28      6       2.103691        245.6864
2011    28      7       2.268395        251.3711
2011    29      0       2.3163          251.8049
2011    29      1       2.123418        245.8682
2011    29      2       2.369535        252.0361
2011    29      3       2.766833        259.9357
2011    29      4       2.842348        262.7326
2011    29      5       3.066305        264.828
2011    29      6       3.315129        268.0193
2011    29      7       3.302395        268.2141
2011    30      0       3.183971        268.1987
2011    30      1       2.623215        259.033
2011    30      2       2.590018        258.4383
2011    30      3       2.718878        260.4063
2011    30      4       2.550654        257.8503
2011    30      5       2.675402        260.5862
2011    30      6       2.75499         262.3118
2011    30      7       2.821737        263.8498
2011    31      0       2.775923        262.8948
2011    31      1       2.555185        258.6822
2011    31      2       2.282119        252.1739
2011    31      3       2.145509        248.5803
2011    31      4       1.919334        239.864
2011    31      5       1.56919         222.1223
2011    31      6       1.06055         182.5015
2011    31      7       0.9175631       169.072
2012    1       0       0.8697015       163.5506
2012    1       1       0.8554231       161.3917
2012    1       2       0.705103        142.8699
2012    1       3       0.4756892       108.6002
2012    1       4       0.3820433       92.21057
2012    1       5       0.3339211       83.02824
2012    1       6       0.3216772       80.59592
2012    1       7       0.3261626       81.24405
2012    2       0       0.3753214       90.13744
2012    2       1       0.4557192       103.9278
2012    2       2       0.5653027       121.5279
2012    2       3       0.7307695       145.5439
2012    2       4       0.8549185       161.1441
2012    2       5       0.9154594       168.2315
2012    2       6       0.9055715       167.4678
2012    2       7       0.8263528       158.6725
2012    3       0       0.7113838       144.1049
2012    3       1       0.6100383       129.6984
2012    3       2       0.5556344       121.3407
2012    3       3       0.5228173       116.1514
2012    3       4       0.4971217       111.9788
2012    3       5       0.446828        103.5756
2012    3       6       0.362142        88.56018
2012    3       7       0.444582        104.4469
2012    4       0       0.5972133       129.7733
2012    4       1       0.6632723       138.9462
2012    4       2       0.7141516       145.534
2012    4       3       0.8699478       164.301
2012    4       4       1.057564        182.7607
2012    4       5       1.366567        206.7563
2012    4       6       1.501653        215.6032
2012    4       7       1.779672        231.2819
2012    5       0       1.7134          228.934
2012    5       1       1.426344        211.8111
2012    5       2       1.180977        192.6864
2012    5       3       0.9101577       165.841
2012    5       4       0.8127502       154.4086
2012    5       5       0.7641577       148.5905
2012    5       6       0.6715919       136.1739
2012    5       7       0.5600105       120.0262
2012    6       0       0.5335578       116.2071
2012    6       1       0.520659        114.2697
2012    6       2       0.4801697       107.6352
2012    6       3       0.4455668       101.7217
2012    6       4       0.4125349       96.03543
2012    6       5       0.3872631       91.53291
2012    6       6       0.3730845       88.96443
2012    6       7       0.3620294       87.04797
2012    7       0       0.3571675       86.43953
2012    7       1       0.3476989       84.87779
2012    7       2       0.3406555       83.55364
2012    7       3       0.3411774       83.80997
2012    7       4       0.3496056       85.64202
2012    7       5       0.3951509       94.43578
2012    7       6       0.4189911       99.04329
2012    7       7       0.4275782       100.7916
2012    8       0       0.5611524       122.8262
2012    8       1       0.6625161       137.4625
2012    8       2       0.6066447       129.2491
2012    8       3       0.6436477       134.5505
2012    8       4       0.6455143       135.2136
2012    8       5       0.6400496       134.76
2012    8       6       0.6692462       138.9862
2012    8       7       0.7317715       147.5984
2012    9       0       0.7033295       143.8505
2012    9       1       0.656636        137.294
2012    9       2       0.7420136       148.7393
2012    9       3       0.8562189       162.6632
2012    9       4       0.9197794       169.8788
2012    9       5       0.9966172       177.7332
2012    9       6       1.107144        187.8733
2012    9       7       1.232099        198.274
2012    10      0       1.536773        219.3164
2012    10      1       1.960761        240.1721
2012    10      2       2.221859        249.1779
2012    10      3       2.302171        251.045
2012    10      4       2.447323        255.4686
2012    10      5       2.0039          241.1055
2012    10      6       1.872023        235.9479
2012    10      7       2.083889        244.9
2012    11      0       1.730805        229.9895
2012    11      1       1.641926        225.5083
2012    11      2       1.574424        221.5387
2012    11      3       1.570934        221.0242
2012    11      4       1.524966        218.3541
2012    11      5       1.532053        219.097
2012    11      6       1.473352        215.515
2012    11      7       1.427521        212.4545
2012    12      0       1.455564        214.1984
2012    12      1       1.306676        203.9317
2012    12      2       1.205082        196.4056
2012    12      3       1.231743        198.9528
2012    12      4       1.189454        195.974
2012    12      5       1.158177        193.6899
2012    12      6       1.131606        191.4415
2012    12      7       1.004807        179.6108
2012    13      0       0.9080054       169.2787
2012    13      1       0.8675511       164.5079
2012    13      2       0.8327548       160.4198
2012    13      3       0.8181147       158.5663
2012    13      4       0.8358475       160.6418
2012    13      5       0.8421778       161.4828
2012    13      6       0.9033794       168.3649
2012    13      7       0.9818391       176.5824
2012    14      0       1.064077        184.1947
2012    14      1       1.102585        187.1407
2012    14      2       1.120538        188.6664
2012    14      3       1.159939        192.2406
2012    14      4       1.280131        201.9977
2012    14      5       1.404403        210.7865
2012    14      6       1.415167        211.645
2012    14      7       1.38973         209.7662
2012    15      0       1.271539        200.7675
2012    15      1       1.220457        196.361
2012    15      2       1.181714        192.563
2012    15      3       1.132213        188.1174
2012    15      4       1.322002        204.457
2012    15      5       1.602362        222.7192
2012    15      6       1.839491        234.0198
2012    15      7       1.973838        239.4445
2012    16      0       1.761746        230.5257
2012    16      1       1.647202        224.9928
2012    16      2       1.709279        228.1042
2012    16      3       1.765607        230.4346
2012    16      4       1.765897        229.9328
2012    16      5       1.653214        224.4811
2012    16      6       1.638776        224.3443
2012    16      7       1.639354        224.8383
2012    17      0       1.578879        221.7236
2012    17      1       1.558689        220.194
2012    17      2       1.455917        213.6937
2012    17      3       1.325049        204.6948
2012    17      4       1.358321        207.1765
2012    17      5       1.419545        211.5422
2012    17      6       1.331459        205.6235
2012    17      7       1.233114        198.1558
2012    18      0       1.244287        198.8221
2012    18      1       1.255088        199.3226
2012    18      2       1.22915         196.9898
2012    18      3       1.187607        193.3242
2012    18      4       1.158419        190.707
2012    18      5       1.122983        187.7191
2012    18      6       1.006543        177.1156
2012    18      7       0.9145991       167.7192
2012    19      0       0.8475493       160.2544
2012    19      1       0.8111155       155.7395
2012    19      2       0.7436597       147.1501
2012    19      3       0.6677247       137.3685
2012    19      4       0.676724        138.7052
2012    19      5       0.6625705       136.8263
2012    19      6       0.6601014       136.3392
2012    19      7       0.8507881       159.5817
2012    20      0       0.9779025       172.9916
2012    20      1       0.9133215       166.3098
2012    20      2       0.8988776       165.0156
2012    20      3       1.009507        176.9841
2012    20      4       1.415298        210.8101
2012    20      5       1.774145        231.1637
2012    20      6       1.89119         236.0208
2012    20      7       1.854984        234.2604
2012    21      0       1.756256        230.1839
2012    21      1       1.803515        231.8913
2012    21      2       1.513738        216.793
2012    21      3       1.608651        222.06
2012    21      4       1.622032        223.2019
2012    21      5       1.736096        229.6446
2012    21      6       1.916457        238.1139
2012    21      7       2.179584        248.2004
2012    22      0       2.200344        248.6506
2012    22      1       2.119666        245.8896
2012    22      2       2.063237        243.5415
2012    22      3       2.03117         242.6244
2012    22      4       2.117827        246.4297
2012    22      5       2.179064        248.8067
2012    22      6       2.071981        244.9157
2012    22      7       1.997051        241.8475
2012    23      0       2.043727        243.3144
2012    23      1       2.097331        244.9967
2012    23      2       2.127031        245.8519
2012    23      3       2.197111        248.042
2012    23      4       2.160608        247.0803
2012    23      5       2.056658        243.9123
2012    23      6       1.971542        241.0662
2012    23      7       1.995747        241.9076
2012    24      0       2.021675        242.5206
2012    24      1       1.997497        241.627
2012    24      2       1.949716        240.1534
2012    24      3       1.975481        241.3958
2012    24      4       1.909366        239.0106
2012    24      5       1.799913        234.2122
2012    24      6       1.728286        230.4904
2012    24      7       1.666618        226.7358
2012    25      0       1.694695        227.7403
2012    25      1       1.730641        228.906
2012    25      2       1.644012        224.5845
2012    25      3       1.607884        222.8867
2012    25      4       1.469845        215.4173
2012    25      5       1.238832        199.6023
2012    25      6       0.8361203       159.921
2012    25      7       0.4015503       94.40181
2012    26      0       0.2836683       71.12105
2012    26      1       0.276032        70.00748
2012    26      2       0.4090786       95.85625
2012    26      3       0.6461633       134.0281
2012    26      4       0.7540135       149.0989
2012    26      5       0.6317034       132.8122
2012    26      6       0.4852212       110.0255
2012    26      7       0.4437488       103.0563
2012    27      0       0.4380155       102.1027
2012    27      1       0.4342189       101.2696
2012    27      2       0.3791871       91.16849
2012    27      3       0.3059986       77.13583
2012    27      4       0.2609597       68.01528
2012    27      5       0.2573818       67.38531
2012    27      6       0.2671303       69.48917
2012    27      7       0.2641276       68.83258
2012    28      0       0.2729554       70.66493
2012    28      1       0.3049955       77.32935
2012    28      2       0.3823984       92.53967
2012    28      3       0.4591979       106.1882
2012    28      4       0.465901        107.2738
2012    28      5       0.4822336       109.9276
2012    28      6       0.5846876       126.2175
2012    28      7       0.7374517       147.805
2012    29      0       0.8322578       159.6641
2012    29      1       0.8696371       163.7668
2012    29      2       0.831657        158.9904
2012    29      3       0.7326805       146.5252
2012    29      4       0.6868296       140.6199
2012    29      5       0.7259678       146.1194
2012    29      6       0.7088078       143.8499
2012    29      7       0.6309403       132.9221
2012    30      0       0.5235636       116.4732
2012    30      1       0.4948274       111.9837
2012    30      2       0.5166545       115.5637
2012    30      3       0.4901158       110.9334
2012    30      4       0.4707695       107.58
2012    30      5       0.5268353       116.1506
2012    30      6       0.677675        137.5905
2012    30      7       0.8573167       160.2332
2012    31      0       1.103247        185.801
2012    31      1       1.331373        205.1033
2012    31      2       1.469811        214.7324
2012    31      3       1.486193        215.4604
2012    31      4       1.526667        217.448
2012    31      5       1.509726        216.2719
2012    31      6       1.492736        215.8034
2012    31      7       1.511403        217.4354
2013    1       0       0.2355002       62.93537
2013    1       1       0.2360101       63.17509
2013    1       2       0.2453734       65.21623
2013    1       3       0.2419873       64.55296
2013    1       4       0.2340999       62.76408
2013    1       5       0.2296668       61.69787
2013    1       6       0.224269        60.30309
2013    1       7       0.2261917       60.44899
2013    2       0       0.2362587       62.45745
2013    2       1       0.2383014       62.43833
2013    2       2       0.3052075       75.83214
2013    2       3       0.3431545       82.88675
2013    2       4       0.3799627       89.8469
2013    2       5       0.415069        96.20607
2013    2       6       0.5196376       113.6322
2013    2       7       0.7700779       149.0524
2013    3       0       1.257034        199.1561
2013    3       1       1.488334        216.073
2013    3       2       1.447643        212.574
2013    3       3       1.402603        209.5132
2013    3       4       1.54264         219.4333
2013    3       5       1.230981        197.0816
2013    3       6       1.309851        202.7267
2013    3       7       1.296516        201.7773
2013    4       0       1.128021        188.0457
2013    4       1       0.8655451       162.0364
2013    4       2       0.6833177       139.5894
2013    4       3       0.6746224       137.9996
2013    4       4       0.7459868       147.2022
2013    4       5       0.7887761       152.1686
2013    4       6       0.7664452       148.8584
2013    4       7       0.6051516       126.8698
2013    5       0       0.4286984       99.08629
2013    5       1       0.3807771       90.63089
2013    5       2       0.3923341       92.76323
2013    5       3       0.4304352       99.92725
2013    5       4       0.4422943       102.5589
2013    5       5       0.4525782       104.7417
2013    5       6       0.5298771       117.9184
2013    5       7       0.6323437       133.5603
2013    6       0       0.780777        153.2968
2013    6       1       0.9534467       173.0883
2013    6       2       0.8909207       166.1966
2013    6       3       0.7849047       153.6518
2013    6       4       0.7807958       153.3446
2013    6       5       0.7871608       154.4861
2013    6       6       0.7353454       148.0255
2013    6       7       0.6591432       137.6537
2013    7       0       0.5665299       123.9971
2013    7       1       0.5087377       114.8029
2013    7       2       0.4699399       108.2997
2013    7       3       0.4290084       101.177
2013    7       4       0.4024225       96.48579
2013    7       5       0.3812311       92.58451
2013    7       6       0.3495478       86.3898
2013    7       7       0.3237578       81.14333
2013    8       0       0.320001        80.14923
2013    8       1       0.3464973       85.11385
2013    8       2       0.3999678       95.34935
2013    8       3       0.4489975       104.3973
2013    8       4       0.46548         107.3892
2013    8       5       0.4510116       104.9686
2013    8       6       0.4152983       98.57989
2013    8       7       0.4120379       97.70989
2013    9       0       0.4595543       106.0071
2013    9       1       0.5473545       120.5948
2013    9       2       0.6193431       131.6361
2013    9       3       0.6310086       133.2173
2013    9       4       0.6307759       132.8928
2013    9       5       0.6519497       135.8633
2013    9       6       0.6311698       133.2649
2013    9       7       0.6202446       131.9405
2013    10      0       0.7084747       144.1187
2013    10      1       0.8247973       158.4925
2013    10      2       0.9104508       167.9602
2013    10      3       0.9895722       176.3673
2013    10      4       1.016894        179.4413
2013    10      5       1.012127        179.0569
2013    10      6       0.9849035       176.0798
2013    10      7       0.9338538       170.3044
2013    11      0       0.9074451       166.9444
2013    11      1       0.8974289       165.4498
2013    11      2       0.8866545       164.0692
2013    11      3       0.9254336       168.2652
2013    11      4       1.054695        181.3869
2013    11      5       1.179854        192.8136
2013    11      6       1.169029        192.2299
2013    11      7       1.141542        189.9261
2013    12      0       1.142175        189.8005
2013    12      1       1.316765        204.403
2013    12      2       1.261792        199.3919
2013    12      3       1.256919        198.7158
2013    12      4       1.207272        194.7296
2013    12      5       1.170667        192.0066
2013    12      6       1.139409        190.0079
2013    12      7       1.173338        193.2682
2013    13      0       1.274068        201.0305
2013    13      1       1.250138        198.6718
2013    13      2       1.158508        190.8524
2013    13      3       1.24585         198.6895
2013    13      4       1.065957        183.1189
2013    13      5       1.081317        184.844
2013    13      6       1.035659        180.7096
2013    13      7       0.9689634       174.1287
2013    14      0       0.8757817       163.9028
2013    14      1       0.8260316       157.976
2013    14      2       0.8136127       156.4821
2013    14      3       0.7660467       150.4738
2013    14      4       0.7402006       147.2214
2013    14      5       0.7414666       147.5511
2013    14      6       0.7342542       146.9511
2013    14      7       0.698978        142.5512
2013    15      0       0.6775509       139.6089
2013    15      1       0.6796057       139.7244
2013    15      2       0.6637089       137.5458
2013    15      3       0.6332514       133.3359
2013    15      4       0.6016088       128.9218
2013    15      5       0.5718294       124.5806
2013    15      6       0.5178912       116.1924
2013    15      7       0.4676676       107.9788
2013    16      0       0.397568        95.68663
2013    16      1       0.3454041       85.91558
2013    16      2       0.3130127       79.34434
2013    16      3       0.3765391       91.302
2013    16      4       0.5230697       116.8173
2013    16      5       0.734774        147.7019
2013    16      6       0.8606301       162.9119
2013    16      7       0.8557846       162.1145
2013    17      0       0.907912        168.2519
2013    17      1       0.963918        174.2059
2013    17      2       0.9650315       174.2712
2013    17      3       0.9734475       175.3166
2013    17      4       1.08203         186.1574
2013    17      5       1.172928        194.3412
2013    17      6       1.346164        208.317
2013    17      7       1.381639        210.1863
2013    18      0       1.628624        225.0613
2013    18      1       1.745535        230.9459
2013    18      2       1.680293        227.5997
2013    18      3       1.634034        225.0358
2013    18      4       1.729249        229.9426
2013    18      5       1.930709        239.2747
2013    18      6       1.748807        230.9436
2013    18      7       1.512953        218.3667
2013    19      0       1.355881        208.4157
2013    19      1       1.148979        192.0694
2013    19      2       0.9346488       171.0253
2013    19      3       0.6615924       137.1938
2013    19      4       0.443247        103.1195
2013    19      5       0.3784227       91.95978
2013    19      6       0.4277269       101.0791
2013    19      7       0.4612663       106.5855
2013    20      0       0.5241673       116.7287
2013    20      1       0.5261966       117.2231
2013    20      2       0.5780699       125.1804
2013    20      3       0.8109865       156.2601
2013    20      4       0.9418499       170.9514
2013    20      5       0.9942954       176.4092
2013    20      6       0.9354344       170.3724
2013    20      7       0.8431559       160.2013
2013    21      0       0.817604        157.2651
2013    21      1       0.8078057       155.991
2013    21      2       0.7575552       149.7112
2013    21      3       0.6932566       141.376
2013    21      4       0.6546373       136.0678
2013    21      5       0.6539123       135.7943
2013    21      6       0.6190149       130.7625
2013    21      7       0.5762234       124.2313
2013    22      0       0.5834906       125.0609
2013    22      1       0.5791654       124.3427
2013    22      2       0.5389126       118.1393
2013    22      3       0.4990839       111.9484
2013    22      4       0.509425        113.8533
2013    22      5       0.5343595       117.9635
2013    22      6       0.5478918       120.3776
2013    22      7       0.5618428       122.7762
2013    23      0       0.6222316       131.8844
2013    23      1       0.717159        145.1858
2013    23      2       0.8626634       163.3207
2013    23      3       1.022676        180.4199
2013    23      4       1.062385        184.145
2013    23      5       0.9717173       175.1689
2013    23      6       0.9122861       169.2085
2013    23      7       0.7995978       156.2579
2013    24      0       0.6311708       133.5674
2013    24      1       0.4859703       110.7257
2013    24      2       0.4527699       104.8482
2013    24      3       0.5324637       117.7239
2013    24      4       0.6735248       138.1728
2013    24      5       0.8716158       162.3975
2013    24      6       0.9525411       171.2758
2013    24      7       0.8101439       156.2046
2013    25      0       0.8035525       156.6003
2013    25      1       1.044183        183.0277
2013    25      2       1.107662        188.4799
2013    25      3       0.9354535       170.9218
2013    25      4       0.7975823       154.9252
2013    25      5       0.7071845       143.3532
2013    25      6       0.5933633       126.8685
2013    25      7       0.5524619       120.3441
2013    26      0       0.7357043       146.1993
2013    26      1       0.8936414       165.2688
2013    26      2       0.8654821       162.3441
2013    26      3       0.7614255       150.2235
2013    26      4       0.664151        137.6228
2013    26      5       0.5759361       124.9111
2013    26      6       0.5984313       127.9492
2013    26      7       0.6443669       134.2682
2013    27      0       0.6143595       129.2606
2013    27      1       0.6195138       129.4947
2013    27      2       0.7822354       151.2772
2013    27      3       0.9663928       172.597
2013    27      4       1.051482        181.3371
2013    27      5       1.078226        183.8878
2013    27      6       1.050769        181.942
2013    27      7       1.053409        182.7345
2013    28      0       1.209429        196.5658
2013    28      1       1.288204        202.7491
2013    28      2       1.160368        192.5822
2013    28      3       1.110432        188.4104
2013    28      4       1.145218        191.9998
2013    28      5       1.216767        198.4232
2013    28      6       1.283774        203.7152
2013    28      7       1.423177        213.359
2013    29      0       1.529072        219.7055
2013    29      1       1.596884        223.1524
2013    29      2       1.556128        220.4651
2013    29      3       1.448583        213.5959
2013    29      4       1.376304        208.6584
2013    29      5       1.300609        203.4193
2013    29      6       1.262789        200.6923
2013    29      7       1.262778        200.6263
2013    30      0       0.9903317       176.5495
2013    30      1       0.5500992       120.3636
2013    30      2       0.5741704       124.4319
2013    30      3       0.562074        122.488
2013    30      4       0.5219545       116.3475
2013    30      5       0.47767         109.5354
2013    30      6       0.4502619       104.9003
2013    30      7       0.4189005       99.30407
2013    31      0       0.3951093       95.00315
2013    31      1       0.3896954       93.99672
2013    31      2       0.4139795       98.25787
2013    31      3       0.4513316       104.592
2013    31      4       0.5134565       115.0557
2013    31      5       0.5667029       123.5239
2013    31      6       0.5849539       126.2694
2013    31      7       0.6578721       136.8282
2014    1       0       1.256005        198.3767
2014    1       1       1.245921        198.0849
2014    1       2       1.367551        207.0915
2014    1       3       1.471182        213.8509
2014    1       4       1.60256         222.3546
2014    1       5       1.627382        223.9084
2014    1       6       1.46972         215.2139
2014    1       7       1.284493        202.7665
2014    2       0       1.185714        195.3553
2014    2       1       1.001854        178.3992
2014    2       2       0.7670191       151.8673
2014    2       3       0.4425268       103.1647
2014    2       4       0.4125126       97.9919
2014    2       5       0.5388651       119.7383
2014    2       6       0.5503223       121.5961
2014    2       7       0.4720583       108.6832
2014    3       0       0.5674758       124.7684
2014    3       1       0.7979665       156.5358
2014    3       2       0.7234171       146.3771
2014    3       3       0.5124994       114.7465
2014    3       4       0.4854318       109.8193
2014    3       5       0.5576792       121.3134
2014    3       6       0.6611          136.4301
2014    3       7       0.7513114       148.0622
2014    4       0       0.859088        160.8701
2014    4       1       0.9094727       166.3887
2014    4       2       0.8614665       161.1507
2014    4       3       0.8737245       162.9738
2014    4       4       0.9219816       168.7677
2014    4       5       0.8560739       161.7115
2014    4       6       0.6680379       138.033
2014    4       7       0.4955015       111.9772
2014    5       0       0.4355498       101.5761
2014    5       1       0.5137168       114.6549
2014    5       2       0.7582807       150.1129
2014    5       3       0.9355636       170.9086
2014    5       4       1.266307        200.7483
2014    5       5       1.786718        231.7548
2014    5       6       2.022725        241.4494
2014    5       7       1.987402        240.4488
2014    6       0       1.905835        237.703
2014    6       1       1.820278        234.3186
2014    6       2       1.687293        228.1282
2014    6       3       1.490888        217.328
2014    6       4       1.193257        196.0839
2014    6       5       0.9299895       170.8592
2014    6       6       0.701133        142.9332
2014    6       7       0.5945967       127.5647
2014    7       0       0.4101806       97.44761
2014    7       1       0.2450846       65.2171
2014    7       2       0.2142243       58.4619
2014    7       3       0.2315195       62.31385
2014    7       4       0.2341865       63.12981
2014    7       5       0.2371882       64.00241
2014    7       6       0.2495673       66.61207
2014    7       7       0.2559111       67.98199
2014    8       0       0.5211329       118.1416
2014    8       1       0.7626267       153.0382
2014    8       2       0.6843842       142.2185
2014    8       3       0.6370786       135.1205
2014    8       4       0.671777        139.711
2014    8       5       0.7014134       143.7947
2014    8       6       0.609288        130.8524
2014    8       7       0.5195501       116.8376
2014    9       0       0.5372401       119.476
2014    9       1       0.5861657       126.863
2014    9       2       0.5743852       124.903
2014    9       3       0.5287204       117.8206
2014    9       4       0.4700044       108.4097
2014    9       5       0.4179568       99.35961
2014    9       6       0.3741821       91.25889
2014    9       7       0.3364987       83.85493
2014    10      0       0.3711263       90.15568
2014    10      1       0.4255428       99.89462
2014    10      2       0.4080907       96.61892
2014    10      3       0.4781278       108.5954
2014    10      4       0.6176687       130.7203
2014    10      5       0.7649465       150.8041
2014    10      6       0.8299514       158.602
2014    10      7       0.7291503       146.0595
2014    11      0       0.595071        127.4969
2014    11      1       0.4990795       112.7053
2014    11      2       0.525225        116.7794
2014    11      3       0.5704041       123.6314
2014    11      4       0.6174141       130.6723
2014    11      5       0.5693809       123.6669
2014    11      6       0.5394572       119.0562
2014    11      7       0.5002158       112.8695
2014    12      0       0.43877         102.3627
2014    12      1       0.3946538       94.38184
2014    12      2       0.3481675       85.84865
2014    12      3       0.3118812       78.9848
2014    12      4       0.273449        71.1473
2014    12      5       0.2574243       67.7291
2014    12      6       0.2538353       67.05524
2014    12      7       0.2370691       63.5242
2014    13      0       0.2316517       62.26549
2014    13      1       0.2321448       62.33996
2014    13      2       0.2246391       60.71233
2014    13      3       0.2157506       58.7767
2014    13      4       0.2092097       57.3694
2014    13      5       0.2030447       56.03403
2014    13      6       0.1938787       54.03697
2014    13      7       0.1858157       52.24864
2014    14      0       0.1894363       53.07507
2014    14      1       0.1924883       53.76631
2014    14      2       0.1899621       53.16764
2014    14      3       0.1914254       53.4357
2014    14      4       0.1951002       54.19961
2014    14      5       0.1930488       53.74706
2014    14      6       0.1871053       52.41357
2014    14      7       0.1864949       52.24887
2014    15      0       0.1964708       54.58379
2014    15      1       0.2149984       58.69247
2014    15      2       0.2100393       57.43617
2014    15      3       0.20953         57.03685
2014    15      4       0.2053536       55.90136
2014    15      5       0.2132972       57.70392
2014    15      6       0.2670862       69.51536
2014    15      7       0.3011226       76.83975
2014    16      0       0.3417367       85.02124
2014    16      1       0.3436169       85.2311
2014    16      2       0.2841293       73.07326
2014    16      3       0.2163627       58.30842
2014    16      4       0.2060091       55.9907
2014    16      5       0.2163268       58.46383
2014    16      6       0.216565        58.72844
2014    16      7       0.2188309       59.37051
2014    17      0       0.2375208       63.44727
2014    17      1       0.2453208       65.10831
2014    17      2       0.2431658       64.68048
2014    17      3       0.2686732       70.06491
2014    17      4       0.2773014       71.937
2014    17      5       0.2825221       73.15086
2014    17      6       0.2740563       71.41018
2014    17      7       0.2574949       67.93839
2014    18      0       0.2657998       69.67085
2014    18      1       0.2732112       71.20899
2014    18      2       0.2603365       68.38053
2014    18      3       0.2464368       65.33349
2014    18      4       0.2436001       64.72166
2014    18      5       0.2473277       65.54666
2014    18      6       0.2491836       66.17234
2014    18      7       0.2472562       65.99886
2014    19      0       0.2654587       69.91711
2014    19      1       0.2983054       76.52989
2014    19      2       0.2904784       74.70758
2014    19      3       0.2823054       72.85361
2014    19      4       0.270875        70.4421
2014    19      5       0.2647675       69.11287
2014    19      6       0.2823507       72.4054
2014    19      7       0.3152694       78.80097
2014    20      0       0.4128471       97.66841
2014    20      1       0.5371432       118.7089
2014    20      2       0.6249232       131.1563
2014    20      3       0.6678488       136.3917
2014    20      4       0.6896509       139.6424
2014    20      5       0.7372333       146.2397
2014    20      6       0.7734732       150.9373
2014    20      7       0.8048573       154.5391
2014    21      0       0.8000246       154.1119
2014    21      1       0.7437204       147.4678
2014    21      2       0.7481978       148.3732
2014    21      3       0.756434        149.9258
2014    21      4       0.7750027       152.5576
2014    21      5       0.7911817       154.1291
2014    21      6       0.5679374       123.2451
2014    21      7       0.4048876       96.30855
2014    22      0       0.3915608       94.36754
2014    22      1       0.4011846       96.38092
2014    22      2       0.4950953       112.5034
2014    22      3       0.5787282       125.7416
2014    22      4       0.5538604       121.7603
2014    22      5       0.4856491       110.4774
2014    22      6       0.4082887       96.99725
2014    22      7       0.3311245       82.43555
2014    23      0       0.2878012       73.70681
2014    23      1       0.2691211       69.95163
2014    23      2       0.267009        69.69738
2014    23      3       0.275122        71.58119
2014    23      4       0.3134856       79.68171
2014    23      5       0.3790411       92.4572
2014    23      6       0.3965584       95.65107
2014    23      7       0.4024059       96.58995
2014    24      0       0.4033625       96.75872
2014    24      1       0.3641096       89.31194
2014    24      2       0.2852393       73.63652
2014    24      3       0.2498583       66.07293
2014    24      4       0.2588612       67.9444
2014    24      5       0.2785665       71.99521
2014    24      6       0.2709083       70.44881
2014    24      7       0.2487071       65.83742
2014    25      0       0.2557609       67.4008
2014    25      1       0.2624477       68.83887
2014    25      2       0.2634275       68.80327
2014    25      3       0.2712803       70.19111
2014    25      4       0.291569        74.18747
2014    25      5       0.3391226       83.26254
2014    25      6       0.3777813       90.38978
2014    25      7       0.3465021       85.06119
2014    26      0       0.3308668       82.61013
2014    26      1       0.3280145       82.22545
2014    26      2       0.3386801       84.22453
2014    26      3       0.3884887       93.60848
2014    26      4       0.4045189       96.60224
2014    26      5       0.3864112       93.43518
2014    26      6       0.3658322       89.69696
2014    26      7       0.354302        87.44635
2014    27      0       0.368483        90.05809
2014    27      1       0.3688655       90.02117
2014    27      2       0.3208861       80.74201
2014    27      3       0.2782847       72.15526
2014    27      4       0.2671036       69.83877
2014    27      5       0.2629055       68.96342
2014    27      6       0.2586764       68.1718
2014    27      7       0.2524458       66.98765
2014    28      0       0.2459253       65.5693
2014    28      1       0.2436114       65.02482
2014    28      2       0.2405277       64.41344
2014    28      3       0.23591         63.4485
2014    28      4       0.2282208       61.77409
2014    28      5       0.2246868       61.0173
2014    28      6       0.20584         56.8779
2014    28      7       0.1891506       53.0714
2014    29      0       0.1938231       54.18518
2014    29      1       0.2046199       56.60945
2014    29      2       0.1763891       50.10772
2014    29      3       0.1548223       45.00612
2014    29      4       0.1567166       45.38962
2014    29      5       0.1608433       46.3563
2014    29      6       0.165826        47.4872
2014    29      7       0.176925        49.98111
2014    30      0       0.2055948       56.45707
2014    30      1       0.2217117       60.02656
2014    30      2       0.2077458       56.94119
2014    30      3       0.2020239       55.65214
2014    30      4       0.1978332       54.76559
2014    30      5       0.183636        51.67793
2014    30      6       0.1682577       48.26812
2014    30      7       0.1976825       54.98104
2014    31      0       0.2946143       75.53956
2014    31      1       0.3627663       88.68801
2014    31      2       0.3697523       90.01694
2014    31      3       0.4157201       98.50755
2014    31      4       0.4226709       99.79972
2014    31      5       0.419381        99.17288
2014    31      6       0.4632945       106.7799
2014    31      7       0.5399525       119.389
2015    1       0       0.3245178       81.37036
2015    1       1       0.3387792       83.03765
2015    1       2       0.4031979       93.55309
2015    1       3       0.4492903       101.6959
2015    1       4       0.6690568       135.7165
2015    1       5       0.9793531       172.613
2015    1       6       1.265135        198.4272
2015    1       7       1.233724        196.0485
2015    2       0       0.9603597       171.2407
2015    2       1       0.9139019       166.9083
2015    2       2       0.9375132       170.3577
2015    2       3       0.8763391       164.2098
2015    2       4       0.8248232       158.8025
2015    2       5       0.7494321       149.967
2015    2       6       0.671347        139.63
2015    2       7       0.5650675       123.5904
2015    3       0       0.5050534       113.7784
2015    3       1       0.4901648       111.1657
2015    3       2       0.478063        109.1255
2015    3       3       0.4014367       95.28461
2015    3       4       0.4036458       95.68016
2015    3       5       0.4237484       99.53181
2015    3       6       0.421947        99.3488
2015    3       7       0.4305455       100.8808
2015    4       0       0.4961439       111.9972
2015    4       1       0.5796354       125.1772
2015    4       2       0.630047        132.7167
2015    4       3       0.6358746       133.6096
2015    4       4       0.6164986       130.7581
2015    4       5       0.5729269       124.1207
2015    4       6       0.5283974       117.1142
2015    4       7       0.5320501       118.1046
2015    5       0       0.5774507       125.6297
2015    5       1       0.6356587       134.561
2015    5       2       0.6169302       131.8483
2015    5       3       0.5718178       124.9334
2015    5       4       0.5153626       115.8298
2015    5       5       0.4555649       105.6632
2015    5       6       0.4238726       100.1356
2015    5       7       0.4107844       97.80446
2015    6       0       0.4060641       96.51673
2015    6       1       0.4030439       95.58839
2015    6       2       0.3892986       92.87265
2015    6       3       0.4968006       112.0229
2015    6       4       0.8305661       159.8301
2015    6       5       1.0083          179.5213
2015    6       6       1.060193        184.4523
2015    6       7       1.007748        179.1929
2015    7       0       1.003166        178.3187
2015    7       1       1.073973        184.7461
2015    7       2       0.9993302       176.9031
2015    7       3       1.021847        179.4256
2015    7       4       1.251928        200.1264
2015    7       5       1.470843        215.7065
2015    7       6       1.524912        218.9741
2015    7       7       1.559388        220.2434
2015    8       0       1.530841        217.9528
2015    8       1       1.379166        207.5871
2015    8       2       1.332222        203.9242
2015    8       3       1.320805        203.1357
2015    8       4       1.302339        201.923
2015    8       5       1.286309        200.479
2015    8       6       1.203139        194.2017
2015    8       7       1.059815        181.4756
2015    9       0       1.022363        177.3843
2015    9       1       1.127975        187.5715
2015    9       2       1.171422        191.5429
2015    9       3       1.198057        193.8434
2015    9       4       1.22633         196.5826
2015    9       5       1.185211        193.8188
2015    9       6       1.12688         189.0222
2015    9       7       1.119202        188.1203
2015    10      0       0.9909195       175.6828
2015    10      1       0.7953706       153.8094
2015    10      2       0.6612576       136.4521
2015    10      3       0.669111        137.7869
2015    10      4       0.8031013       155.307
2015    10      5       0.9523646       172.3378
2015    10      6       0.914104        168.1543
2015    10      7       0.982865        175.1561
2015    11      0       0.9756041       174.2868
2015    11      1       0.982804        175.2795
2015    11      2       1.027439        179.7787
2015    11      3       1.080993        184.8026
2015    11      4       1.136885        189.7964
2015    11      5       1.018961        178.8478
2015    11      6       0.8744392       163.3067
2015    11      7       0.7195693       144.4069
2015    12      0       0.5831093       124.8203
2015    12      1       0.585034        124.4952
2015    12      2       0.6576181       134.6874
2015    12      3       0.8099418       154.4919
2015    12      4       1.097643        185.0718
2015    12      5       1.298288        202.3359
2015    12      6       1.316837        204.0726
2015    12      7       1.350836        206.6505
2015    13      0       1.430508        212.0172
2015    13      1       1.428139        211.7846
2015    13      2       1.479036        214.7573
2015    13      3       1.563413        219.435
2015    13      4       1.609986        221.915
2015    13      5       1.591188        221.0782
2015    13      6       1.538302        218.1419
2015    13      7       1.485226        214.8458
2015    14      0       1.50871         215.987
2015    14      1       1.560987        218.8193
2015    14      2       1.624386        222.1405
2015    14      3       1.705945        226.448
2015    14      4       1.712764        227.0114
2015    14      5       1.775981        230.4447
2015    14      6       1.894252        236.4832
2015    14      7       1.767997        230.2751
2015    15      0       1.784759        230.704
2015    15      1       1.828164        231.2683
2015    15      2       1.866576        233.4895
2015    15      3       1.80945         230.8778
2015    15      4       1.773705        228.353
2015    15      5       1.893554        232.9018
2015    15      6       1.968456        236.3182
2015    15      7       1.858566        233.0664
2015    16      0       1.627624        222.6309
2015    16      1       1.303394        203.0848
2015    16      2       1.223706        196.6707
2015    16      3       1.238091        197.5754
2015    16      4       1.291546        201.7026
2015    16      5       1.404645        209.7694
2015    16      6       1.457876        213.5203
2015    16      7       1.458847        213.6516
2015    17      0       1.291404        201.5643
2015    17      1       1.149424        189.7151
2015    17      2       1.054588        180.8838
2015    17      3       0.9381313       169.1303
2015    17      4       0.9552449       171.0837
2015    17      5       1.012208        177.2091
2015    17      6       0.9483508       170.9497
2015    17      7       0.864778        162.1661
2015    18      0       0.8472689       160.1272
2015    18      1       0.8361089       158.7697
2015    18      2       0.712893        143.3182
2015    18      3       0.6022881       127.7859
2015    18      4       0.6305519       131.9167
2015    18      5       0.7009822       141.594
2015    18      6       0.6915819       140.258
2015    18      7       0.6463539       134.0049
2015    19      0       0.627661        131.3254
2015    19      1       0.6132082       129.21
2015    19      2       0.559449        121.0805
2015    19      3       0.498232        111.3743
2015    19      4       0.5116759       113.6996
2015    19      5       0.551239        120.0915
2015    19      6       0.5284358       116.5705
2015    19      7       0.4892274       110.2403
2015    20      0       0.4969954       111.6937
2015    20      1       0.5133159       114.4943
2015    20      2       0.5015321       112.6722
2015    20      3       0.483347        109.7324
2015    20      4       0.457297        105.4327
2015    20      5       0.4182971       98.56443
2015    20      6       0.3586344       87.52586
2015    20      7       0.318795        79.47938
2015    21      0       0.2999947       75.66875
2015    21      1       0.324457        80.45884
2015    21      2       0.3567844       86.72667
2015    21      3       0.4093659       96.56555
2015    21      4       0.5071988       113.457
2015    21      5       0.5785697       124.9236
2015    21      6       0.5872713       126.4936
2015    21      7       0.6435852       134.9125
2015    22      0       0.7640176       151.2193
2015    22      1       0.9137679       168.7894
2015    22      2       1.075242        185.2344
2015    22      3       1.206624        196.7606
2015    22      4       1.25102         200.225
2015    22      5       1.223504        198.0275
2015    22      6       1.200603        196.2114
2015    22      7       1.170209        193.8891
2015    23      0       1.165102        193.764
2015    23      1       1.18303         195.3541
2015    23      2       1.256854        201.0522
2015    23      3       1.350565        207.8354
2015    23      4       1.305776        204.7707
2015    23      5       1.257418        201.2427
2015    23      6       1.111045        188.7802
2015    23      7       0.9244633       170.347
2015    24      0       0.8432526       161.4281
2015    24      1       0.8629202       164.5028
2015    24      2       0.5548427       122.6272
2015    24      3       0.3380554       84.53159
2015    24      4       0.2726292       71.15342
2015    24      5       0.26723         69.91833
2015    24      6       0.2801013       72.69603
2015    24      7       0.3456289       86.16089
2015    25      0       0.3705974       91.0437
2015    25      1       0.3680817       90.42826
2015    25      2       0.3479429       86.4461
2015    25      3       0.3238688       81.65016
2015    25      4       0.3184214       80.59507
2015    25      5       0.3314531       83.28113
2015    25      6       0.371421        91.17877
2015    25      7       0.3819752       93.34995
2015    26      0       0.3681703       90.76594
2015    26      1       0.3621228       89.60066
2015    26      2       0.3431504       85.91128
2015    26      3       0.3126413       79.83825
2015    26      4       0.3020017       77.67166
2015    26      5       0.2899673       75.25883
2015    26      6       0.2763781       72.45195
2015    26      7       0.2486204       66.58596
2015    27      0       0.2318261       62.9839
2015    27      1       0.2261155       61.69235
2015    27      2       0.2153784       59.2351
2015    27      3       0.2051637       56.88164
2015    27      4       0.1959015       54.78675
2015    27      5       0.1877083       52.97703
2015    27      6       0.1623427       47.164
2015    27      7       0.1388315       41.58521
2015    28      0       0.1315508       39.82349
2015    28      1       0.1313772       39.74844
2015    28      2       0.1409327       41.98973
2015    28      3       0.1586042       46.15489
2015    28      4       0.1813388       51.53018
2015    28      5       0.1873886       52.98264
2015    28      6       0.1799877       51.1755
2015    28      7       0.1787626       50.59869
2015    29      0       0.1740204       49.29532
2015    29      1       0.2082391       56.77895
2015    29      2       0.2373814       63.13469
2015    29      3       0.2056088       56.44951
2015    29      4       0.1784777       50.53332
2015    29      5       0.2315336       62.51519
2015    29      6       0.3288261       82.59188
2015    29      7       0.452151        105.1709
2015    30      0       0.5742225       124.8455
2015    30      1       0.6142308       130.7145
2015    30      2       0.4954824       112.43
2015    30      3       0.3790845       92.2546
2015    30      4       0.299429        76.77112
2015    30      5       0.254883        67.321
2015    30      6       0.2397011       64.11547
2015    30      7       0.2681007       70.07094
2015    31      0       0.309096        78.07277
2015    31      1       0.4607733       105.555
2015    31      2       0.9714785       173.9345
2015    31      3       1.20442         195.7788
2015    31      4       0.8594369       162.0988
2015    31      5       0.6546881       135.9163
2015    31      6       0.5137875       114.7732
2015    31      7       0.4457219       103.6359
2016    1       0       0.3463417       84.76392
2016    1       1       0.3520134       85.93977
2016    1       2       0.3354708       82.85228
2016    1       3       0.3194595       79.59904
2016    1       4       0.3064586       76.86833
2016    1       5       0.2993202       75.3354
2016    1       6       0.3131168       77.9879
2016    1       7       0.3393055       83.00332
2016    2       0       0.3682806       88.60476
2016    2       1       0.3723864       89.54154
2016    2       2       0.3574304       86.8272
2016    2       3       0.3562298       86.51787
2016    2       4       0.3663569       88.41821
2016    2       5       0.3562428       86.67742
2016    2       6       0.3205079       79.83373
2016    2       7       0.2892562       73.72028
2016    3       0       0.319752        79.96784
2016    3       1       0.3666008       89.1387
2016    3       2       0.3624129       88.39926
2016    3       3       0.3346249       83.18951
2016    3       4       0.3316354       82.48981
2016    3       5       0.3246552       80.94298
2016    3       6       0.318206        79.55736
2016    3       7       0.3314282       81.89114
2016    4       0       0.3428806       84.09612
2016    4       1       0.3449264       84.62418
2016    4       2       0.3563344       86.87121
2016    4       3       0.3649277       88.696
2016    4       4       0.3943228       94.19839
2016    4       5       0.4153602       98.12774
2016    4       6       0.4100711       97.25857
2016    4       7       0.499059        112.2811
2016    5       0       0.7068846       142.7294
2016    5       1       0.8375006       159.0512
2016    5       2       0.8663919       162.5897
2016    5       3       0.8641419       162.1263
2016    5       4       0.900301        165.9174
2016    5       5       0.9754334       173.4082
2016    5       6       0.8540885       160.5049
2016    5       7       0.68853         140.4963
2016    6       0       0.7668997       150.0322
2016    6       1       0.86821         161.093
2016    6       2       0.911935        165.9584
2016    6       3       0.9850685       174.2215
2016    6       4       0.9065448       166.7348
2016    6       5       0.7380885       146.6418
2016    6       6       0.6356828       131.8924
2016    6       7       0.6842571       137.8679
2016    7       0       0.710013        141.2939
2016    7       1       0.6681267       136.0927
2016    7       2       0.6238828       129.7956
2016    7       3       0.5663055       121.1022
2016    7       4       0.5176074       113.8925
2016    7       5       0.4958815       111.0388
2016    7       6       0.5039135       112.7823
2016    7       7       0.5261141       116.8971
2016    8       0       0.548348        120.832
2016    8       1       0.555287        122.0562
2016    8       2       0.5160672       115.6609
2016    8       3       0.4747554       108.571
2016    8       4       0.422757        99.54441
2016    8       5       0.3752398       90.82921
2016    8       6       0.3534239       86.78569
2016    8       7       0.3362538       83.6156
2016    9       0       0.3199551       80.43246
2016    9       1       0.3143633       79.35589
2016    9       2       0.3019251       76.93552
2016    9       3       0.2969274       76.01011
2016    9       4       0.3203188       80.85929
2016    9       5       0.3600912       88.80961
2016    9       6       0.3945517       95.47299
2016    9       7       0.4052031       97.5966
2016    10      0       0.4088115       98.29838
2016    10      1       0.4228228       100.824
2016    10      2       0.4156007       99.41356
2016    10      3       0.4110611       98.5088
2016    10      4       0.4178506       99.81473
2016    10      5       0.4203483       100.5272
2016    10      6       0.3907411       95.16792
2016    10      7       0.3623013       89.85889
2016    11      0       0.3684912       90.80803
2016    11      1       0.3688682       90.78876
2016    11      2       0.3488601       86.83275
2016    11      3       0.3265466       82.34098
2016    11      4       0.2999701       76.93677
2016    11      5       0.2683124       70.42097
2016    11      6       0.2398019       64.41149
2016    11      7       0.2171325       59.51764
2016    12      0       0.1976444       55.11038
2016    12      1       0.1851722       52.18306
2016    12      2       0.1950814       54.40416
2016    12      3       0.205256        56.64597
2016    12      4       0.2072074       57.13007
2016    12      5       0.2016796       55.95644
2016    12      6       0.2064731       57.06078
2016    12      7       0.2816091       73.4025
2016    13      0       0.3645705       89.9731
2016    13      1       0.4371707       102.9703
2016    13      2       0.4740529       109.037
2016    13      3       0.497422        113.0825
2016    13      4       0.505803        114.4322
2016    13      5       0.5116301       115.1181
2016    13      6       0.6013624       128.6074
2016    13      7       0.7327802       146.3349
2016    14      0       0.6266623       131.4464
2016    14      1       0.5536241       120.9493
2016    14      2       0.6622482       136.9045
2016    14      3       0.7780524       152.4448
2016    14      4       0.8441503       160.854
2016    14      5       1.004551        178.7976
2016    14      6       1.115348        189.3083
2016    14      7       1.027886        180.8113
2016    15      0       1.02199         179.9937
2016    15      1       1.103041        187.6612
2016    15      2       1.197063        196.1007
2016    15      3       1.220435        198.1191
2016    15      4       1.147754        191.9878
2016    15      5       1.221066        198.2746
2016    15      6       1.281301        202.6879
2016    15      7       1.243066        199.6467
2016    16      0       1.166175        193.5064
2016    16      1       1.204527        196.6176
2016    16      2       1.142786        190.9248
2016    16      3       1.159474        191.931
2016    16      4       1.386273        209.5983
2016    16      5       1.378908        209.3287
2016    16      6       1.067024        184.6566
2016    16      7       0.8472165       161.9568
2016    17      0       0.5699739       124.7417
2016    17      1       0.3359256       83.95055
2016    17      2       0.2385477       63.81608
2016    17      3       0.303959        77.38952
2016    17      4       0.3636846       89.29059
2016    17      5       0.3448835       85.83179
2016    17      6       0.3977745       95.89603
2016    17      7       0.5086647       115.2718
2016    18      0       0.6737354       140.3102
2016    18      1       0.7788058       153.9662
2016    18      2       0.7222337       146.4793
2016    18      3       0.6449056       135.8581
2016    18      4       0.5327169       118.941
2016    18      5       0.4596932       107.0563
2016    18      6       0.3995413       96.44329
2016    18      7       0.3635497       89.59596
2016    19      0       0.3752998       91.71152
2016    19      1       0.4231834       100.4282
2016    19      2       0.5343817       119.2981
2016    19      3       0.6793764       140.9713
2016    19      4       0.8614955       164.1118
2016    19      5       0.9730584       176.5095
2016    19      6       1.049051        184.2977
2016    19      7       1.263001        202.5346
2016    20      0       1.2084          197.7374
2016    20      1       1.197921        196.0742
2016    20      2       1.42246         213.3516
2016    20      3       1.659852        228.0343
2016    20      4       1.522742        220.5086
2016    20      5       1.489897        217.9729
2016    20      6       1.581854        222.3345
2016    20      7       1.646189        225.2611
2016    21      0       1.826925        233.8382
2016    21      1       2.100114        244.4778
2016    21      2       2.214483        248.1493
2016    21      3       2.16128         246.3913
2016    21      4       1.895242        236.4746
2016    21      5       1.675376        226.1829
2016    21      6       1.633437        223.9911
2016    21      7       1.564219        219.9594
2016    22      0       1.551157        219.0997
2016    22      1       1.65666         225.1946
2016    22      2       1.686615        226.9252
2016    22      3       1.690055        227.1912
2016    22      4       1.606447        222.6834
2016    22      5       1.415285        210.7077
2016    22      6       1.318362        203.7717
2016    22      7       1.305624        203.0945
2016    23      0       1.300437        203.0572
2016    23      1       1.306883        203.8055
2016    23      2       1.251421        199.692
2016    23      3       1.154012        191.7925
2016    23      4       0.9801996       175.5753
2016    23      5       0.8587667       162.3856
2016    23      6       0.8170623       157.5241
2016    23      7       0.726088        145.918
2016    24      0       0.7185313       144.6306
2016    24      1       0.83505         159.11
2016    24      2       1.013495        178.8551
2016    24      3       1.220327        198.0182
2016    24      4       1.452883        215.227
2016    24      5       1.620692        225.2315
2016    24      6       1.669792        227.7388
2016    24      7       1.60721         224.3563
2016    25      0       1.498643        218.523
2016    25      1       1.45449         214.7663
2016    25      2       1.667768        226.5075
2016    25      3       1.689902        227.4955
2016    25      4       1.320294        204.9806
2016    25      5       0.9737328       175.1701
2016    25      6       1.143101        190.7993
2016    25      7       1.744426        229.2911
2016    26      0       1.976274        239.3208
2016    26      1       1.742627        229.5749
2016    26      2       1.676071        226.5529
2016    26      3       1.717808        228.974
2016    26      4       1.522726        218.7554
2016    26      5       1.272258        202.091
2016    26      6       1.266682        202.0884
2016    26      7       1.341032        208.0816
2016    27      0       1.626675        226.2978
2016    27      1       1.857078        237.3055
2016    27      2       1.829511        236.4141
2016    27      3       1.333755        206.844
2016    27      4       1.202704        196.1653
2016    27      5       1.084178        185.3914
2016    27      6       0.8601834       162.019
2016    27      7       0.7182944       145.0094
2016    28      0       0.8238613       158.4909
2016    28      1       0.8677623       163.6332
2016    28      2       0.8516705       161.8482
2016    28      3       1.018103        179.6336
2016    28      4       1.117946        189.0861
2016    28      5       1.18805         195.3476
2016    28      6       1.378236        209.5438
2016    28      7       1.402959        211.0832
2016    29      0       1.186388        194.8714
2016    29      1       1.099478        187.2404
2016    29      2       1.272043        201.8415
2016    29      3       1.269849        201.7735
2016    29      4       1.390018        210.1544
2016    29      5       1.466348        215.0582
2016    29      6       1.325669        205.6684
2016    29      7       1.287714        202.5258
2016    30      0       1.340204        206.2843
2016    30      1       1.512455        218.0717
2016    30      2       1.792402        232.8677
2016    30      3       1.875118        236.5286
2016    30      4       1.918383        238.3904
2016    30      5       2.045218        243.4556
2016    30      6       2.037704        243.3257
2016    30      7       2.06265         243.7905
2016    31      0       2.008309        241.5404
2016    31      1       1.916613        238.2094
2016    31      2       1.806316        233.9194
2016    31      3       1.807757        234.0775
2016    31      4       1.98177         241.1416
2016    31      5       2.270256        250.199
2016    31      6       2.267481        250.1536
2016    31      7       1.990668        240.8968
2017    1       0       0.8013226       155.6777
2017    1       1       0.8529698       161.619
2017    1       2       0.8012857       155.232
2017    1       3       0.8250071       158.3571
2017    1       4       0.8682396       163.6788
2017    1       5       0.8527177       161.937
2017    1       6       0.7559253       149.92
2017    1       7       0.6804958       139.9225
2017    2       0       0.665928        137.9698
2017    2       1       0.6484669       135.5544
2017    2       2       0.6737164       139.3589
2017    2       3       0.6363944       133.8968
2017    2       4       0.6495009       136.0345
2017    2       5       0.6738388       139.6457
2017    2       6       0.6618678       138.0025
2017    2       7       0.6140632       131.1531
2017    3       0       0.6050196       129.6496
2017    3       1       0.6014828       128.8578
2017    3       2       0.5828073       125.7255
2017    3       3       0.5717164       123.7245
2017    3       4       0.5763687       124.3215
2017    3       5       0.5809153       125.1086
2017    3       6       0.5649541       122.5157
2017    3       7       0.5548151       120.8747
2017    4       0       0.5670141       122.8046
2017    4       1       0.5621148       122.0573
2017    4       2       0.5318416       117.5795
2017    4       3       0.4883805       110.6263
2017    4       4       0.4374416       102.0258
2017    4       5       0.4126433       97.68023
2017    4       6       0.3999093       95.35067
2017    4       7       0.400697        95.2815
2017    5       0       0.4567761       105.3742
2017    5       1       0.5727627       123.904
2017    5       2       0.5986361       127.5073
2017    5       3       0.4896346       110.6927
2017    5       4       0.3560596       86.90626
2017    5       5       0.2855317       72.57204
2017    5       6       0.2737031       70.21196
2017    5       7       0.2863977       72.76533
2017    6       0       0.2892165       73.42836
2017    6       1       0.3086268       77.05055
2017    6       2       0.3759651       89.97752
2017    6       3       0.4508704       103.1641
2017    6       4       0.4964528       110.8682
2017    6       5       0.5282307       116.1737
2017    6       6       0.6433735       134.467
2017    6       7       0.5562006       121.1326
2017    7       0       0.5473165       119.8257
2017    7       1       0.4955341       111.3562
2017    7       2       0.4542147       104.3246
2017    7       3       0.4473011       103.0678
2017    7       4       0.4432058       102.251
2017    7       5       0.4253455       98.9305
2017    7       6       0.3807274       90.88301
2017    7       7       0.3476844       84.79746
2017    8       0       0.3477653       84.91914
2017    8       1       0.3496834       85.47467
2017    8       2       0.3538843       86.37476
2017    8       3       0.3606724       87.61087
2017    8       4       0.3840899       92.06605
2017    8       5       0.4305904       100.5561
2017    8       6       0.4488304       103.8899
2017    8       7       0.427158        100.2429
2017    9       0       0.4380923       102.2617
2017    9       1       0.4806819       109.6161
2017    9       2       0.5206805       116.2802
2017    9       3       0.5446724       120.1849
2017    9       4       0.5826872       126.2746
2017    9       5       0.583607        126.4007
2017    9       6       0.5142285       115.2017
2017    9       7       0.4583915       105.964
2017    10      0       0.3550799       86.93473
2017    10      1       0.3132622       78.27892
2017    10      2       0.3551064       86.14475
2017    10      3       0.4504368       103.2331
2017    10      4       0.5254975       116.3745
2017    10      5       0.5804708       125.3306
2017    10      6       0.5725681       124.2504
2017    10      7       0.5169397       115.4318
2017    11      0       0.4905626       111.0477
2017    11      1       0.4938926       111.5439
2017    11      2       0.4609758       105.8399
2017    11      3       0.4287691       100.0692
2017    11      4       0.4218526       98.97566
2017    11      5       0.4155408       97.96187
2017    11      6       0.3913874       93.42634
2017    11      7       0.3602733       87.29449
2017    12      0       0.3890841       92.18883
2017    12      1       0.4318888       98.89024
2017    12      2       0.4216075       96.94493
2017    12      3       0.4317748       98.41742
2017    12      4       0.442107        100.4737
2017    12      5       0.4091463       95.23676
2017    12      6       0.3470171       84.11112
2017    12      7       0.28794         73.01304
2017    13      0       0.2599932       67.24989
2017    13      1       0.2476672       64.69146
2017    13      2       0.2676363       69.30655
2017    13      3       0.2878439       73.85438
2017    13      4       0.2666807       69.85145
2017    13      5       0.3975153       95.58988
2017    13      6       0.6641241       137.7565
2017    13      7       0.80144         154.5965
2017    14      0       0.8144207       155.7203
2017    14      1       0.8032116       155.2295
2017    14      2       0.9061163       167.135
2017    14      3       0.9695163       173.1136
2017    14      4       1.043852        180.8588
2017    14      5       1.050306        181.1946
2017    14      6       1.091769        184.9521
2017    14      7       1.088178        184.5974
2017    15      0       1.042676        180.2046
2017    15      1       0.9969971       175.7746
2017    15      2       1.087125        184.6192
2017    15      3       1.123046        188.3088
2017    15      4       1.227021        197.4498
2017    15      5       1.357244        207.3885
2017    15      6       1.449573        213.5566
2017    15      7       1.587947        221.822
2017    16      0       1.444394        213.3368
2017    16      1       1.208555        196.1064
2017    16      2       1.28202         201.5998
2017    16      3       1.457772        214.2551
2017    16      4       1.686626        228.5692
2017    16      5       1.752808        231.9686
2017    16      6       1.776328        232.6952
2017    16      7       1.722713        229.6995
2017    17      0       1.692076        228.0339
2017    17      1       1.619949        224.4656
2017    17      2       1.545591        220.7102
2017    17      3       1.486728        217.5702
2017    17      4       1.522518        219.7401
2017    17      5       1.588923        223.4533
2017    17      6       1.430737        214.1754
2017    17      7       1.280434        203.8528
2017    18      0       1.175653        195.0373
2017    18      1       1.198609        197.8224
2017    18      2       0.8813963       165.9366
2017    18      3       0.8124839       157.2861
2017    18      4       0.7335048       146.5735
2017    18      5       0.715704        143.6329
2017    18      6       0.703005        141.427
2017    18      7       0.5980347       125.9329
2017    19      0       0.4842758       107.0494
2017    19      1       0.4633547       103.4758
2017    19      2       0.4516286       102.0976
2017    19      3       0.3774398       88.78979
2017    19      4       0.3665777       86.67605
2017    19      5       0.437061        99.58497
2017    19      6       0.4975361       109.8735
2017    19      7       0.547655        118.0941
2017    20      0       0.58518         124.5309
2017    20      1       0.6362722       133.0679
2017    20      2       0.6948784       141.8733
2017    20      3       0.7992743       155.9141
2017    20      4       1.001783        179.0895
2017    20      5       1.13949         192.5211
2017    20      6       1.08663         187.8165
2017    20      7       0.8172612       158.8167
2017    21      0       0.6010695       129.1678
2017    21      1       0.4979708       112.5902
2017    21      2       0.4600386       105.9018
2017    21      3       0.5706376       124.1934
2017    21      4       0.6731921       139.5562
2017    21      5       0.7355341       148.1586
2017    21      6       0.6810967       140.8037
2017    21      7       0.590903        127.6381
2017    22      0       0.5386388       119.2953
2017    22      1       0.5230487       116.5717
2017    22      2       0.509357        114.3663
2017    22      3       0.484574        110.3447
2017    22      4       0.4862371       110.6897
2017    22      5       0.4835204       110.3913
2017    22      6       0.4420671       103.4773
2017    22      7       0.4170575       99.16222
2017    23      0       0.4190173       99.48686
2017    23      1       0.4187915       99.48494
2017    23      2       0.4034733       96.83975
2017    23      3       0.4014364       96.52224
2017    23      4       0.4145746       99.00293
2017    23      5       0.3893758       94.50756
2017    23      6       0.331179        83.53078
2017    23      7       0.2882684       74.61785
2017    24      0       0.3025329       77.38901
2017    24      1       0.3439814       85.52329
2017    24      2       0.3894755       94.01744
2017    24      3       0.4999965       113.386
2017    24      4       0.7533415       150.7072
2017    24      5       1.070537        186.0454
2017    24      6       1.382104        211.3467
2017    24      7       1.785816        234.0141
2017    25      0       2.011811        243.6225
2017    25      1       2.027276        244.5853
2017    25      2       2.103978        247.5311
2017    25      3       2.261093        252.7894
2017    25      4       2.398824        256.769
2017    25      5       2.526497        259.9207
2017    25      6       2.543118        260.3775
2017    25      7       2.384694        256.5293
2017    26      0       2.117269        248.3019
2017    26      1       1.978251        242.5674
2017    26      2       1.996151        242.7762
2017    26      3       1.99615         242.537
2017    26      4       2.059866        244.5551
2017    26      5       2.184611        248.649
2017    26      6       2.457102        256.8311
2017    26      7       2.454413        256.3537
2017    27      0       2.329536        253.4937
2017    27      1       2.05932         245.3621
2017    27      2       1.964782        241.4916
2017    27      3       2.086737        245.447
2017    27      4       2.032938        243.3609
2017    27      5       1.862284        236.5526
2017    27      6       1.752977        231.4673
2017    27      7       1.652654        226.1451
2017    28      0       1.613196        223.6876
2017    28      1       1.570758        221.3752
2017    28      2       1.414459        212.2096
2017    28      3       1.3906          210.8773
2017    28      4       1.394878        210.767
2017    28      5       1.454502        214.6165
2017    28      6       1.551994        220.9779
2017    28      7       1.532618        220.2777
2017    29      0       1.351127        208.2656
2017    29      1       1.375988        209.283
2017    29      2       1.563956        220.6381
2017    29      3       1.59452         222.1615
2017    29      4       1.500928        216.7569
2017    29      5       1.472441        215.3479
2017    29      6       1.407012        211.3849
2017    29      7       1.342138        207.0322
2017    30      0       1.288203        203.1534
2017    30      1       1.226531        198.5382
2017    30      2       1.202534        196.8078
2017    30      3       1.057326        184.0505
2017    30      4       0.8452614       161.2261
2017    30      5       0.7920593       154.5556
2017    30      6       0.806958        156.5878
2017    30      7       0.7801775       153.7302
2017    31      0       0.6765804       140.1671
2017    31      1       0.7041783       143.3969
2017    31      2       0.8597524       161.9068
2017    31      3       0.9513439       171.1944
2017    31      4       1.027899        179.1649
2017    31      5       1.096129        186.6864
2017    31      6       1.191197        195.6944
2017    31      7       1.246404        200.1747
2018    1       0       0.6235446       131.1652
2018    1       1       0.6085935       128.5883
2018    1       2       0.5548779       120.1219
2018    1       3       0.5085284       112.7267
2018    1       4       0.5032394       112.0116
2018    1       5       0.5051927       112.5232
2018    1       6       0.4772105       108.2683
2018    1       7       0.4591002       105.4805
2018    2       0       0.452872        104.5296
2018    2       1       0.4424441       102.8239
2018    2       2       0.407976        96.85885
2018    2       3       0.3683561       89.69084
2018    2       4       0.3366511       83.90028
2018    2       5       0.3063741       78.10848
2018    2       6       0.295606        75.69522
2018    2       7       0.3111591       78.52937
2018    3       0       0.3251871       81.17158
2018    3       1       0.3475698       85.43049
2018    3       2       0.382392        92.24296
2018    3       3       0.3931557       94.6422
2018    3       4       0.3686788       90.41415
2018    3       5       0.3757306       91.9806
2018    3       6       0.3991433       96.34068
2018    3       7       0.442914        103.9383
2018    4       0       0.5882916       126.8785
2018    4       1       0.8769047       164.0117
2018    4       2       1.020697        178.7664
2018    4       3       1.06764         182.8824
2018    4       4       1.153899        190.1699
2018    4       5       1.231617        196.7898
2018    4       6       1.232102        197.3542
2018    4       7       1.19686         194.7139
2018    5       0       1.174607        193.0764
2018    5       1       1.161476        191.9347
2018    5       2       1.167637        192.501
2018    5       3       1.116927        188.5194
2018    5       4       1.206404        196.6902
2018    5       5       1.186641        195.1667
2018    5       6       0.9580308       173.5782
2018    5       7       0.7439299       148.649
2018    6       0       0.529336        117.5419
2018    6       1       0.3498834       85.89941
2018    6       2       0.2600194       67.84982
2018    6       3       0.2385515       63.26991
2018    6       4       0.2542664       66.69307
2018    6       5       0.2645024       69.03013
2018    6       6       0.2439495       64.89158
2018    6       7       0.2285073       61.59104
2018    7       0       0.2247045       60.71963
2018    7       1       0.2276873       61.19636
2018    7       2       0.2076608       56.61971
2018    7       3       0.1868055       51.79864
2018    7       4       0.1680765       47.47965
2018    7       5       0.1504          43.40908
2018    7       6       0.1458502       42.41118
2018    7       7       0.1316623       39.17926
2018    8       0       0.1272415       38.2167
2018    8       1       0.192495        53.56437
2018    8       2       0.4106251       97.7472
2018    8       3       0.6417509       135.1685
2018    8       4       0.9477149       172.8066
2018    8       5       1.421538        212.5729
2018    8       6       1.698958        228.449
2018    8       7       1.917749        236.9958
2018    9       0       1.761459        229.1599
2018    9       1       1.649653        223.5056
2018    9       2       1.921095        235.9433
2018    9       3       1.951243        237.0525
2018    9       4       1.818533        232.3002
2018    9       5       1.824858        232.9169
2018    9       6       1.954365        238.0334
2018    9       7       2.020735        240.6888
2018    10      0       1.799555        231.7191
2018    10      1       1.608867        222.1725
2018    10      2       1.437178        212.6231
2018    10      3       1.439286        213.1074
2018    10      4       1.690297        228.1333
2018    10      5       1.77565         232.3985
2018    10      6       1.699068        228.2339
2018    10      7       1.549374        219.6563
2018    11      0       1.457083        213.6471
2018    11      1       1.447807        212.4804
2018    11      2       1.425191        210.5891
2018    11      3       1.373162        206.6788
2018    11      4       1.413632        209.7837
2018    11      5       1.462403        213.124
2018    11      6       1.468409        213.3122
2018    11      7       1.513981        215.9734
2018    12      0       1.734061        227.9917
2018    12      1       1.72331         227.4777
2018    12      2       1.783679        229.4592
2018    12      3       1.600383        220.7784
2018    12      4       1.555029        218.5783
2018    12      5       1.651941        224.1386
2018    12      6       1.770048        229.8163
2018    12      7       1.664437        223.892
2018    13      0       1.507904        214.5741
2018    13      1       1.217151        194.053
2018    13      2       1.079081        182.4995
2018    13      3       0.9330689       168.4076
2018    13      4       0.7580772       148.1191
2018    13      5       0.6113062       127.957
2018    13      6       0.5723178       122.0505
2018    13      7       0.5511137       119.0198
2018    14      0       0.4935052       110.4322
2018    14      1       0.4491819       103.0505
2018    14      2       0.4364765       101.3912
2018    14      3       0.4497007       103.3301
2018    14      4       0.4409837       101.6904
2018    14      5       0.4164388       97.75116
2018    14      6       0.4036762       95.41775
2018    14      7       0.3803117       91.28748
2018    15      0       0.372118        89.96573
2018    15      1       0.3848631       92.60996
2018    15      2       0.4132788       98.01145
2018    15      3       0.3828966       92.42554
2018    15      4       0.3474701       85.81989
2018    15      5       0.3608333       88.34542
2018    15      6       0.4725467       108.4074
2018    15      7       0.5842543       126.4204
2018    16      0       0.5872123       126.9346
2018    16      1       0.5036508       113.8016
2018    16      2       0.4307324       101.4188
2018    16      3       0.3790222       92.18897
2018    16      4       0.3944085       95.07412
2018    16      5       0.4363006       102.5211
2018    16      6       0.4503109       104.9032
2018    16      7       0.4662797       107.4953
2018    17      0       0.5171345       115.9711
2018    17      1       0.5738208       124.9175
2018    17      2       0.5627794       123.1366
2018    17      3       0.5070216       114.449
2018    17      4       0.4634519       107.3229
2018    17      5       0.4220138       100.1814
2018    17      6       0.3842951       93.4048
2018    17      7       0.3490229       86.78333
2018    18      0       0.3056824       78.19467
2018    18      1       0.260473        68.74055
2018    18      2       0.2556319       67.41801
2018    18      3       0.3090818       78.31457
2018    18      4       0.4746406       108.9304
2018    18      5       0.6913397       142.2109
2018    18      6       0.8710199       165.0583
2018    18      7       0.970082        176.085
2018    19      0       1.014144        180.3989
2018    19      1       1.283768        204.2424
2018    19      2       1.268713        202.2878
2018    19      3       1.413807        212.6404
2018    19      4       1.714133        230.1542
2018    19      5       1.831125        235.163
2018    19      6       1.876918        237.3196
2018    19      7       1.719507        230.4716
2018    20      0       1.512253        219.0195
2018    20      1       1.419997        212.901
2018    20      2       1.502103        217.9548
2018    20      3       1.663471        227.2487
2018    20      4       1.833808        235.9113
2018    20      5       1.949131        241.0508
2018    20      6       1.803965        234.883
2018    20      7       1.635243        226.496
2018    21      0       1.542131        220.7989
2018    21      1       1.452615        214.6847
2018    21      2       1.173586        194.1694
2018    21      3       0.872349        164.8231
2018    21      4       0.649397        136.4772
2018    21      5       0.6299626       134.0631
2018    21      6       0.424666        100.57
2018    21      7       0.2954464       75.90027
2018    22      0       0.2651045       69.5778
2018    22      1       0.2818727       73.00492
2018    22      2       0.2800711       72.55554
2018    22      3       0.2743968       71.34748
2018    22      4       0.2784946       72.27459
2018    22      5       0.2991296       76.64825
2018    22      6       0.306698        78.34744
2018    22      7       0.2939161       75.88494
2018    23      0       0.2848185       74.01179
2018    23      1       0.2875868       74.47157
2018    23      2       0.29498         75.90148
2018    23      3       0.3257706       82.03231
2018    23      4       0.3950926       95.13808
2018    23      5       0.4342461       102.1056
2018    23      6       0.4441684       103.8453
2018    23      7       0.4611247       106.3273
2018    24      0       0.6521828       135.8898
2018    24      1       1.0185          179.7445
2018    24      2       1.284294        202.3846
2018    24      3       1.370176        208.9816
2018    24      4       1.358529        208.6592
2018    24      5       1.596512        223.7396
2018    24      6       1.812063        234.6801
2018    24      7       1.882933        238.2795
2018    25      0       1.898795        239.4068
2018    25      1       1.835412        236.4295
2018    25      2       1.714445        229.9021
2018    25      3       1.636606        225.5743
2018    25      4       1.637058        225.8742
2018    25      5       1.758641        232.5218
2018    25      6       1.649207        227.048
2018    25      7       1.402742        212.0924
2018    26      0       1.320719        206.3637
2018    26      1       1.297092        204.3028
2018    26      2       1.206403        196.8302
2018    26      3       0.9299479       170.5578
2018    26      4       0.6300246       132.4869
2018    26      5       0.5814276       124.7327
2018    26      6       0.6862738       139.7027
2018    26      7       0.796387        154.3317
2018    27      0       0.7944014       154.6719
2018    27      1       0.685447        141.0522
2018    27      2       0.5825311       126.4323
2018    27      3       0.5666707       124.1509
2018    27      4       0.6133957       131.2081
2018    27      5       0.6715531       139.5371
2018    27      6       0.6931538       142.4077
2018    27      7       0.7217191       146.1491
2018    28      0       0.8585006       163.1601
2018    28      1       0.9692319       175.4296
2018    28      2       0.9779298       176.3941
2018    28      3       0.9729308       175.6711
2018    28      4       1.031503        181.4085
2018    28      5       1.152523        192.668
2018    28      6       1.136693        191.4885
2018    28      7       1.087556        187.2466
2018    29      0       1.091203        187.5508
2018    29      1       1.098976        188.2734
2018    29      2       1.111325        189.4692
2018    29      3       1.15612         193.6628
2018    29      4       1.385902        211.3493
2018    29      5       1.636602        226.5102
2018    29      6       1.663734        227.9623
2018    29      7       1.607117        225.0408
2018    30      0       1.553622        221.7555
2018    30      1       1.592948        223.4209
2018    30      2       1.595768        223.3844
2018    30      3       1.467096        215.4831
2018    30      4       1.350966        207.9187
2018    30      5       1.645595        227.7971
2018    30      6       1.442811        214.8907
2018    30      7       1.36653         209.1483
2018    31      0       1.331308        205.7687
2018    31      1       1.313047        203.9124
2018    31      2       1.300457        202.9241
2018    31      3       1.305175        203.2829
2018    31      4       1.130024        189.2224
2018    31      5       0.8113927       155.9187
2018    31      6       0.7155548       143.6662
2018    31      7       0.6622393       135.882
