####################################################################################################
# Month: 07Jul                                                                                     #
# Station: CNI                                                                                     #
# Frequency: 230 GHz                                                                               #
# Columns are: year    day     segment         tau     Tb (K)                                      #
####################################################################################################
2009    1       0       0.2915654       73.2738
2009    1       1       0.2749254       69.87415
2009    1       2       0.2658089       67.91484
2009    1       3       0.2506949       64.85849
2009    1       4       0.2478877       64.42229
2009    1       5       0.2556485       65.98227
2009    1       6       0.2478116       64.33095
2009    1       7       0.2364085       61.94785
2009    2       0       0.2242069       59.3233
2009    2       1       0.2102478       56.27768
2009    2       2       0.1923133       52.25034
2009    2       3       0.1849614       50.51086
2009    2       4       0.1794214       49.18216
2009    2       5       0.1825023       49.84266
2009    2       6       0.1868927       50.83157
2009    2       7       0.1857728       50.59333
2009    3       0       0.1794062       49.16933
2009    3       1       0.1663859       46.14111
2009    3       2       0.164517        45.64411
2009    3       3       0.1856496       50.51572
2009    3       4       0.1962524       53.03676
2009    3       5       0.192171        52.25244
2009    3       6       0.1915213       52.11347
2009    3       7       0.1905577       51.88531
2009    4       0       0.1828452       50.16497
2009    4       1       0.1751504       48.43127
2009    4       2       0.1741115       48.19499
2009    4       3       0.180955        49.80987
2009    4       4       0.201999        54.62489
2009    4       5       0.2188044       58.42614
2009    4       6       0.2100303       56.5224
2009    4       7       0.1991678       54.04806
2009    5       0       0.1868386       51.05706
2009    5       1       0.1726985       47.61573
2009    5       2       0.1643853       45.54986
2009    5       3       0.1644133       45.40051
2009    5       4       0.1908055       51.46556
2009    5       5       0.3091474       77.19137
2009    5       6       0.3073451       76.69411
2009    5       7       0.3274831       80.6885
2009    6       0       0.3534462       85.83167
2009    6       1       0.3614845       87.33477
2009    6       2       0.3565249       86.172
2009    6       3       0.345535        83.94597
2009    6       4       0.3416736       83.35662
2009    6       5       0.3451066       84.15676
2009    6       6       0.3312069       81.45963
2009    6       7       0.3807372       91.08035
2009    7       0       0.3163806       78.20757
2009    7       1       0.3074815       76.31239
2009    7       2       0.3259914       79.89176
2009    7       3       0.3483152       84.11686
2009    7       4       0.3518501       84.76058
2009    7       5       0.3508877       84.75411
2009    7       6       0.3484173       84.50321
2009    7       7       0.3405314       83.07281
2009    8       0       0.3162776       78.37391
2009    8       1       0.2962441       74.37564
2009    8       2       0.2771091       70.3663
2009    8       3       0.2448549       63.56443
2009    8       4       0.2228973       58.85233
2009    8       5       0.2126647       56.70885
2009    8       6       0.1967589       53.22109
2009    8       7       0.1801201       49.5114
2009    9       0       0.1743956       48.16749
2009    9       1       0.1771958       48.60272
2009    9       2       0.1675953       46.22666
2009    9       3       0.1606774       44.48773
2009    9       4       0.1759895       47.99635
2009    9       5       0.207973        55.08469
2009    9       6       0.2497964       63.71161
2009    9       7       0.2321425       59.90013
2009    10      0       0.2982249       73.85465
2009    10      1       0.3469514       83.39396
2009    10      2       0.3918006       91.86211
2009    10      3       0.419546        96.8749
2009    10      4       0.4479162       102.0189
2009    10      5       0.4822002       108.0216
2009    10      6       0.4701139       106.0961
2009    10      7       0.4444607       101.7518
2009    11      0       0.4189639       97.4479
2009    11      1       0.372456        89.25027
2009    11      2       0.3495985       84.9335
2009    11      3       0.3903841       92.52284
2009    11      4       0.4197808       98.18257
2009    11      5       0.4302377       100.5278
2009    11      6       0.3356625       82.4951
2009    11      7       0.2677741       68.67094
2009    12      0       0.2594877       66.9477
2009    12      1       0.2921091       73.55515
2009    12      2       0.3088702       76.76909
2009    12      3       0.2831131       71.40832
2009    12      4       0.25736         66.15857
2009    12      5       0.2161689       57.75538
2009    12      6       0.1637927       46.08947
2009    12      7       0.1446642       41.45743
2009    13      0       0.1393901       39.99202
2009    13      1       0.1364136       39.10989
2009    13      2       0.1574939       43.73521
2009    13      3       0.1875019       50.72151
2009    13      4       0.2070249       55.32136
2009    13      5       0.2250407       59.50268
2009    13      6       0.2534913       65.89435
2009    13      7       0.2734611       70.27773
2009    14      0       0.2958502       74.90801
2009    14      1       0.3203791       79.85154
2009    14      2       0.3591621       87.47237
2009    14      3       0.406514        96.31695
2009    14      4       0.4145422       97.77465
2009    14      5       0.3955576       94.36938
2009    14      6       0.3990301       94.95644
2009    14      7       0.3939008       93.93463
2009    15      0       0.375243        90.47081
2009    15      1       0.3719857       89.76088
2009    15      2       0.3244787       80.55799
2009    15      3       0.2595977       67.31795
2009    15      4       0.255714        66.46034
2009    15      5       0.2373156       62.5145
2009    15      6       0.203747        55.03873
2009    15      7       0.2142676       57.26139
2009    16      0       0.2640857       67.7845
2009    16      1       0.3201724       78.63688
2009    16      2       0.3471275       83.3596
2009    16      3       0.3768348       88.53018
2009    16      4       0.4329091       98.58703
2009    16      5       0.4858085       107.6258
2009    16      6       0.4929656       108.931
2009    16      7       0.5158122       112.6623
2009    17      0       0.5375075       115.929
2009    17      1       0.5180878       112.6633
2009    17      2       0.4739885       105.5155
2009    17      3       0.4408333       99.96147
2009    17      4       0.4845894       107.6052
2009    17      5       0.5635066       120.4405
2009    17      6       0.6328991       130.7614
2009    17      7       0.661019        135.0672
2009    18      0       0.604151        126.8509
2009    18      1       0.6170405       128.5489
2009    18      2       0.5839739       123.0177
2009    18      3       0.6038563       125.882
2009    18      4       0.5353475       115.4627
2009    18      5       0.4020128       93.43344
2009    18      6       0.3191318       78.30433
2009    18      7       0.2715433       69.10064
2009    19      0       0.2465247       63.96859
2009    19      1       0.2077082       55.46765
2009    19      2       0.1632393       45.33891
2009    19      3       0.1452807       41.14857
2009    19      4       0.1493656       42.16298
2009    19      5       0.1639876       45.72348
2009    19      6       0.2161714       57.76186
2009    19      7       0.2925894       74.23015
2009    20      0       0.302308        76.41387
2009    20      1       0.3204342       80.04679
2009    20      2       0.3328945       82.43826
2009    20      3       0.3118331       78.22439
2009    20      4       0.3172752       79.27332
2009    20      5       0.3246706       80.76437
2009    20      6       0.3250647       80.90021
2009    20      7       0.310662        77.99329
2009    21      0       0.2877769       73.18414
2009    21      1       0.2857639       72.59432
2009    21      2       0.310759        77.60444
2009    21      3       0.3435613       83.89065
2009    21      4       0.3397468       83.13293
2009    21      5       0.3546118       85.95287
2009    21      6       0.419515        98.26277
2009    21      7       0.5017274       113.0693
2009    22      0       0.5438005       120.0855
2009    22      1       0.4423481       102.6898
2009    22      2       0.3795423       91.3233
2009    22      3       0.3393202       83.64787
2009    22      4       0.3147363       78.856
2009    22      5       0.3369538       83.18318
2009    22      6       0.3682669       88.9991
2009    22      7       0.3726499       89.72659
2009    23      0       0.3530155       86.07194
2009    23      1       0.3332663       82.25007
2009    23      2       0.3634511       88.08601
2009    23      3       0.3499425       85.39706
2009    23      4       0.3254767       80.72205
2009    23      5       0.3549738       86.33533
2009    23      6       0.4215184       98.39859
2009    23      7       0.4585767       104.7422
2009    24      0       0.4581186       104.6478
2009    24      1       0.5624977       121.1037
2009    24      2       0.5287057       115.6938
2009    24      3       0.4888201       109.0809
2009    24      4       0.5098449       112.3515
2009    24      5       0.4918423       109.4822
2009    24      6       0.4648412       105.1177
2009    24      7       0.4320509       99.48861
2009    25      0       0.4304732       98.99563
2009    25      1       0.4570723       103.3391
2009    25      2       0.4121095       95.47783
2009    25      3       0.3739962       88.37139
2009    25      4       0.3891293       91.13208
2009    25      5       0.3894065       91.33601
2009    25      6       0.3595884       86.07444
2009    25      7       0.3205646       78.4211
2009    26      0       0.3656633       87.58449
2009    26      1       0.3542413       85.67068
2009    26      2       0.2697229       69.08347
2009    26      3       0.2490246       64.56573
2009    26      4       0.315782        77.86182
2009    26      5       0.3610503       86.56523
2009    26      6       0.360819        86.75193
2009    26      7       0.3547581       85.73442
2009    27      0       0.356133        85.97946
2009    27      1       0.3617973       87.00104
2009    27      2       0.3653891       87.84876
2009    27      3       0.3610837       87.14544
2009    27      4       0.3476702       84.64357
2009    27      5       0.3108654       77.55168
2009    27      6       0.2704308       69.53329
2009    27      7       0.253289        66.10783
2009    28      0       0.2419437       63.61836
2009    28      1       0.2300052       60.92819
2009    28      2       0.2203243       58.79093
2009    28      3       0.2079821       56.11368
2009    28      4       0.2088371       56.28129
2009    28      5       0.237322        62.33528
2009    28      6       0.2567577       66.5133
2009    28      7       0.2492923       64.93284
2009    29      0       0.2511856       65.20944
2009    29      1       0.2763602       70.29082
2009    29      2       0.2809406       71.23934
2009    29      3       0.2624034       67.43048
2009    29      4       0.2738084       69.71603
2009    29      5       0.3012196       75.22502
2009    29      6       0.3120776       77.38574
2009    29      7       0.3080009       76.42846
2009    30      0       0.3364888       82.02727
2009    30      1       0.3582019       86.16035
2009    30      2       0.417676        96.90138
2009    30      3       0.5458707       117.9327
2009    30      4       0.6587212       134.2073
2009    30      5       0.5707192       121.8782
2009    30      6       0.5468678       117.9469
2009    30      7       0.6315533       130.3191
2009    31      0       0.5940163       125.0774
2009    31      1       0.6005301       125.9524
2009    31      2       0.606086        127.1624
2009    31      3       0.591454        125.5168
2009    31      4       0.5437842       118.1857
2009    31      5       0.5548002       119.8751
2009    31      6       0.5556131       119.8281
2009    31      7       0.5206246       113.7361
2010    1       0       0.1626136       45.42771
2010    1       1       0.164659        45.79858
2010    1       2       0.1544694       43.5042
2010    1       3       0.1428768       40.86868
2010    1       4       0.1464307       41.71621
2010    1       5       0.1585584       44.51433
2010    1       6       0.1771563       48.74808
2010    1       7       0.1668957       46.52963
2010    2       0       0.1406068       40.36058
2010    2       1       0.1158716       34.35055
2010    2       2       0.1113511       33.25331
2010    2       3       0.1134376       33.66835
2010    2       4       0.1299535       37.44554
2010    2       5       0.2045423       53.74341
2010    2       6       0.3150805       76.35972
2010    2       7       0.4050108       93.50351
2010    3       0       0.4091396       94.76646
2010    3       1       0.3511005       84.67859
2010    3       2       0.2969412       74.49838
2010    3       3       0.2633229       67.85023
2010    3       4       0.2170507       57.98739
2010    3       5       0.169418        47.07104
2010    3       6       0.1371033       39.12236
2010    3       7       0.1304794       37.29576
2010    4       0       0.1385451       39.28671
2010    4       1       0.1451256       40.90147
2010    4       2       0.1478285       41.61712
2010    4       3       0.153023        42.80904
2010    4       4       0.1694867       46.51387
2010    4       5       0.1969792       52.71356
2010    4       6       0.2140376       56.51443
2010    4       7       0.2186029       57.60351
2010    5       0       0.1985418       53.19543
2010    5       1       0.1557776       43.51126
2010    5       2       0.1229468       35.81333
2010    5       3       0.1253463       36.45546
2010    5       4       0.1601932       44.86577
2010    5       5       0.1969333       53.29627
2010    5       6       0.21716         57.81495
2010    5       7       0.2317745       61.13132
2010    6       0       0.2114929       56.65491
2010    6       1       0.1854726       50.69398
2010    6       2       0.1927236       52.17786
2010    6       3       0.2097028       55.8635
2010    6       4       0.2333625       61.25038
2010    6       5       0.2492691       64.89608
2010    6       6       0.2571026       66.63696
2010    6       7       0.2485804       64.84088
2010    7       0       0.2215709       58.99542
2010    7       1       0.2007076       54.31856
2010    7       2       0.1938865       52.74912
2010    7       3       0.1783308       49.15769
2010    7       4       0.1660308       46.19484
2010    7       5       0.1658697       46.11426
2010    7       6       0.1583823       44.42159
2010    7       7       0.1552331       43.69339
2010    8       0       0.1617747       45.31838
2010    8       1       0.1605907       45.0979
2010    8       2       0.1523382       43.14759
2010    8       3       0.144464        41.19875
2010    8       4       0.1362625       39.17128
2010    8       5       0.1421966       40.53639
2010    8       6       0.178308        48.87906
2010    8       7       0.276395        70.11843
2010    9       0       0.4699668       106.6009
2010    9       1       0.5249194       115.96
2010    9       2       0.5388288       118.493
2010    9       3       0.5782569       124.6632
2010    9       4       0.6089417       128.7757
2010    9       5       0.5953708       126.4396
2010    9       6       0.566194        121.976
2010    9       7       0.6065178       127.7556
2010    10      0       0.6476831       133.7523
2010    10      1       0.6162935       129.1459
2010    10      2       0.6320512       131.1943
2010    10      3       0.6633265       135.5224
2010    10      4       0.6576512       134.8809
2010    10      5       0.6352442       131.7711
2010    10      6       0.6196465       129.6669
2010    10      7       0.4860333       109.5695
2010    11      0       0.4478548       103.2215
2010    11      1       0.4992348       111.7978
2010    11      2       0.4932298       110.8312
2010    11      3       0.4828021       108.9527
2010    11      4       0.4804168       108.4657
2010    11      5       0.4618315       105.3505
2010    11      6       0.4722689       107.2526
2010    11      7       0.4918424       110.4699
2010    12      0       0.4908904       110.3575
2010    12      1       0.5231686       115.8596
2010    12      2       0.4427122       102.3034
2010    12      3       0.3690037       88.8867
2010    12      4       0.3948345       93.68113
2010    12      5       0.4292014       99.95607
2010    12      6       0.4259533       99.45968
2010    12      7       0.3814195       91.22858
2010    13      0       0.3295435       81.26826
2010    13      1       0.2957493       74.52652
2010    13      2       0.3191266       79.44625
2010    13      3       0.2967294       74.83627
2010    13      4       0.2777657       71.13141
2010    13      5       0.2440293       64.08876
2010    13      6       0.1683729       47.17054
2010    13      7       0.1227044       36.34906
2010    14      0       0.1191952       35.55045
2010    14      1       0.1131715       34.06658
2010    14      2       0.0966777       29.84966
2010    14      3       0.08394204      26.49232
2010    14      4       0.08368307      26.34913
2010    14      5       0.08993495      27.96959
2010    14      6       0.09251768      28.68449
2010    14      7       0.09575522      29.52118
2010    15      0       0.09637694      29.68123
2010    15      1       0.09529279      29.3972
2010    15      2       0.1001766       30.57809
2010    15      3       0.1107044       33.14565
2010    15      4       0.1291572       37.64151
2010    15      5       0.1376741       39.65601
2010    15      6       0.1863998       51.18317
2010    15      7       0.140141        40.35518
2010    16      0       0.1400997       40.40141
2010    16      1       0.1425131       41.01974
2010    16      2       0.1468927       42.07094
2010    16      3       0.1449972       41.61874
2010    16      4       0.1346829       39.1605
2010    16      5       0.1234524       36.48261
2010    16      6       0.1030978       31.52469
2010    16      7       0.0844858       26.86331
2010    17      0       0.07740765      25.04535
2010    17      1       0.0743651       24.25226
2010    17      2       0.07454657      24.29208
2010    17      3       0.07704585      24.93023
2010    17      4       0.07493838      24.41399
2010    17      5       0.07241994      23.79807
2010    17      6       0.06714352      22.47088
2010    17      7       0.06393774      21.61656
2010    18      0       0.06926283      22.95636
2010    18      1       0.09339659      29.10031
2010    18      2       0.1385174       40.11923
2010    18      3       0.2275793       60.47598
2010    18      4       0.2770754       70.88076
2010    18      5       0.3024823       76.083
2010    18      6       0.3190539       79.39964
2010    18      7       0.3289469       81.3614
2010    19      0       0.3271211       80.89873
2010    19      1       0.3273582       80.88097
2010    19      2       0.3173386       79.01384
2010    19      3       0.2787437       71.24683
2010    19      4       0.243847        63.81512
2010    19      5       0.1869371       51.16868
2010    19      6       0.1216226       35.76859
2010    19      7       0.09904587      30.23036
2010    20      0       0.0987203       30.27763
2010    20      1       0.09903015      30.39163
2010    20      2       0.08588986      27.01126
2010    20      3       0.08539862      26.86926
2010    20      4       0.1181376       35.02691
2010    20      5       0.1418071       40.68606
2010    20      6       0.1462469       41.65301
2010    20      7       0.1526964       43.22212
2010    21      0       0.1553027       43.86899
2010    21      1       0.1559708       43.95584
2010    21      2       0.1486545       42.12092
2010    21      3       0.1453599       41.20841
2010    21      4       0.1475545       41.6941
2010    21      5       0.1520273       42.81421
2010    21      6       0.1620552       45.26386
2010    21      7       0.1808794       49.75084
2010    22      0       0.1936605       52.746
2010    22      1       0.1908722       52.17336
2010    22      2       0.1736766       48.18072
2010    22      3       0.1551706       43.8125
2010    22      4       0.1335085       38.57069
2010    22      5       0.1179599       34.78374
2010    22      6       0.1082895       32.51705
2010    22      7       0.1027365       31.19124
2010    23      0       0.1024517       31.07699
2010    23      1       0.1007177       30.552
2010    23      2       0.09604943      29.35043
2010    23      3       0.1011555       30.67428
2010    23      4       0.100591        30.67902
2010    23      5       0.09364104      29.11981
2010    23      6       0.08830472      27.8646
2010    23      7       0.08853122      27.93115
2010    24      0       0.1017835       31.23837
2010    24      1       0.1214316       36.02706
2010    24      2       0.1403565       40.62272
2010    24      3       0.1408782       40.77132
2010    24      4       0.1385084       40.20207
2010    24      5       0.1451843       41.82314
2010    24      6       0.1593148       45.13741
2010    24      7       0.2030492       54.97452
2010    25      0       0.2437621       63.74731
2010    25      1       0.2634          67.90257
2010    25      2       0.3071888       76.67283
2010    25      3       0.3399401       83.10839
2010    25      4       0.2924091       73.8985
2010    25      5       0.2448063       64.00591
2010    25      6       0.2588767       66.82146
2010    25      7       0.2747761       70.09741
2010    26      0       0.216824        58.0355
2010    26      1       0.1550721       44.31857
2010    26      2       0.13376         39.35232
2010    26      3       0.1062566       32.68655
2010    26      4       0.082796        26.74657
2010    26      5       0.06513544      22.12454
2010    26      6       0.05635956      19.7488
2010    26      7       0.05172366      18.47055
2010    27      0       0.05027995      18.05746
2010    27      1       0.05066067      18.13695
2010    27      2       0.05356561      18.92854
2010    27      3       0.05632231      19.67626
2010    27      4       0.06065281      20.80915
2010    27      5       0.06568173      22.11738
2010    27      6       0.07018708      23.20229
2010    27      7       0.07418039      24.10557
2010    28      0       0.08426571      26.63786
2010    28      1       0.1029571       31.25625
2010    28      2       0.1166952       34.49416
2010    28      3       0.1227072       35.85697
2010    28      4       0.1300016       37.61161
2010    28      5       0.1610814       45.12614
2010    28      6       0.2103473       56.58064
2010    28      7       0.2540393       66.40297
2010    29      0       0.2768908       71.46596
2010    29      1       0.2511995       65.96736
2010    29      2       0.2728685       70.48126
2010    29      3       0.284893        73.03331
2010    29      4       0.334578        83.28739
2010    29      5       0.3926728       94.4432
2010    29      6       0.4143948       98.20507
2010    29      7       0.5222945       116.7916
2010    30      0       0.5382689       118.7942
2010    30      1       0.5490974       120.0846
2010    30      2       0.5452698       119.4049
2010    30      3       0.5581492       121.4376
2010    30      4       0.6355804       133.0964
2010    30      5       0.6694774       137.9434
2010    30      6       0.6377133       133.5045
2010    30      7       0.603503        128.4916
2010    31      0       0.6107628       129.5937
2010    31      1       0.6367166       133.2279
2010    31      2       0.5826727       125.1793
2010    31      3       0.5456541       119.4773
2010    31      4       0.6024585       128.2277
2010    31      5       0.6682118       137.942
2010    31      6       0.6564153       136.4571
2010    31      7       0.6383468       133.7362
2011    1       0       0.1347916       39.09845
2011    1       1       0.1572185       44.43304
2011    1       2       0.2040648       55.02207
2011    1       3       0.2412374       63.11091
2011    1       4       0.2461862       64.30959
2011    1       5       0.2334615       61.71529
2011    1       6       0.2188884       58.59342
2011    1       7       0.2025739       54.98194
2011    2       0       0.1800265       49.86064
2011    2       1       0.1736877       48.372
2011    2       2       0.1847852       50.8436
2011    2       3       0.1953879       53.20972
2011    2       4       0.2125093       57.08611
2011    2       5       0.23504         62.08586
2011    2       6       0.2382425       62.87648
2011    2       7       0.2259974       60.26735
2011    3       0       0.2363102       62.43795
2011    3       1       0.2603658       67.4705
2011    3       2       0.2740556       70.35897
2011    3       3       0.3197498       79.73715
2011    3       4       0.3762455       90.82127
2011    3       5       0.3878466       92.97829
2011    3       6       0.3286781       81.65975
2011    3       7       0.2345378       62.17892
2011    4       0       0.1455451       41.86207
2011    4       1       0.1108789       33.33926
2011    4       2       0.09750846      29.89104
2011    4       3       0.09479085      29.09213
2011    4       4       0.150063        42.59303
2011    4       5       0.2595852       67.35383
2011    4       6       0.3164417       79.23182
2011    4       7       0.2765328       71.02531
2011    5       0       0.2005835       54.36124
2011    5       1       0.1583806       44.54657
2011    5       2       0.1466776       41.76452
2011    5       3       0.1459556       41.60221
2011    5       4       0.138481        39.89757
2011    5       5       0.1249967       36.73213
2011    5       6       0.1106714       33.24911
2011    5       7       0.1284248       37.77228
2011    6       0       0.1224867       36.39078
2011    6       1       0.08325792      26.59309
2011    6       2       0.05845392      20.17203
2011    6       3       0.07367784      24.18661
2011    6       4       0.106581        32.53683
2011    6       5       0.1271743       37.59028
2011    6       6       0.1328294       38.95879
2011    6       7       0.1378773       40.19805
2011    7       0       0.1647297       46.5982
2011    7       1       0.165182        46.55624
2011    7       2       0.1663401       46.77058
2011    7       3       0.1664757       46.71626
2011    7       4       0.2184088       58.58599
2011    7       5       0.2238011       59.69641
2011    7       6       0.2197136       58.79792
2011    7       7       0.1968346       53.68876
2011    8       0       0.1914851       52.44165
2011    8       1       0.19715         53.64395
2011    8       2       0.1869198       51.3052
2011    8       3       0.1737817       48.29405
2011    8       4       0.1729336       48.05076
2011    8       5       0.1737598       48.25464
2011    8       6       0.1593132       44.9171
2011    8       7       0.1391237       40.15958
2011    9       0       0.1130901       33.91766
2011    9       1       0.0873777       27.56542
2011    9       2       0.08327485      26.5219
2011    9       3       0.09046209      28.38284
2011    9       4       0.1061851       32.32871
2011    9       5       0.1222101       36.26527
2011    9       6       0.1275805       37.59773
2011    9       7       0.1257171       37.18123
2011    10      0       0.122333        36.3685
2011    10      1       0.1154814       34.68476
2011    10      2       0.1043175       31.89081
2011    10      3       0.09433247      29.34523
2011    10      4       0.08769755      27.64288
2011    10      5       0.0815396       26.07561
2011    10      6       0.08320272      26.53911
2011    10      7       0.09938016      30.65016
2011    11      0       0.1144203       34.35428
2011    11      1       0.1141653       34.29216
2011    11      2       0.103874        31.72655
2011    11      3       0.09576105      29.62381
2011    11      4       0.09931464      30.38483
2011    11      5       0.1053119       31.62452
2011    11      6       0.113263        33.11241
2011    11      7       0.1197115       34.4425
2011    12      0       0.1203992       34.45431
2011    12      1       0.1237431       35.15355
2011    12      2       0.1207396       34.58738
2011    12      3       0.1193151       34.52351
2011    12      4       0.1347426       38.39861
2011    12      5       0.1431079       40.67218
2011    12      6       0.1661675       46.38506
2011    12      7       0.219971        58.62869
2011    13      0       0.2545297       66.11843
2011    13      1       0.2578129       66.83155
2011    13      2       0.2552566       66.29155
2011    13      3       0.2725631       69.95171
2011    13      4       0.3083372       77.23028
2011    13      5       0.3486317       85.20291
2011    13      6       0.3595467       87.21348
2011    13      7       0.3478526       84.72828
2011    14      0       0.3542672       85.95966
2011    14      1       0.3612065       87.15541
2011    14      2       0.3607877       86.88227
2011    14      3       0.3463962       84.04802
2011    14      4       0.3613836       86.99128
2011    14      5       0.3753772       89.74041
2011    14      6       0.3664853       87.99125
2011    14      7       0.3529215       85.21083
2011    15      0       0.3597625       86.31249
2011    15      1       0.3760321       89.13776
2011    15      2       0.3749767       88.67346
2011    15      3       0.3743892       88.4365
2011    15      4       0.3745191       88.3659
2011    15      5       0.3788779       89.09566
2011    15      6       0.3721842       87.38199
2011    15      7       0.4428644       100.0444
2011    16      0       0.4038307       93.36753
2011    16      1       0.3683667       87.06329
2011    16      2       0.4117071       94.87216
2011    16      3       0.4350768       99.13329
2011    16      4       0.4185733       96.44613
2011    16      5       0.4080818       94.83808
2011    16      6       0.4268079       98.19773
2011    16      7       0.4381143       100.2047
2011    17      0       0.4147322       96.4866
2011    17      1       0.384235        91.19953
2011    17      2       0.4133459       96.23428
2011    17      3       0.4676348       105.5012
2011    17      4       0.4254808       98.57268
2011    17      5       0.3724668       89.32721
2011    17      6       0.3290706       81.17367
2011    17      7       0.2526738       65.57888
2011    18      0       0.1887891       51.70013
2011    18      1       0.1457584       41.93243
2011    18      2       0.1397204       40.65347
2011    18      3       0.1506266       43.29095
2011    18      4       0.1804612       50.22599
2011    18      5       0.203391        55.38551
2011    18      6       0.1763118       49.13718
2011    18      7       0.14151         40.86779
2011    19      0       0.1179649       35.17945
2011    19      1       0.09867237      30.47194
2011    19      2       0.09581226      29.75536
2011    19      3       0.09618041      29.79438
2011    19      4       0.09044262      28.31072
2011    19      5       0.08552469      27.06425
2011    19      6       0.08229869      26.27687
2011    19      7       0.0937688       29.23569
2011    20      0       0.1530782       43.59421
2011    20      1       0.2286435       60.23386
2011    20      2       0.2809944       71.25062
2011    20      3       0.3044582       76.0941
2011    20      4       0.3806749       91.10364
2011    20      5       0.4483197       103.5169
2011    20      6       0.4376398       101.8509
2011    20      7       0.2991387       75.45874
2011    21      0       0.2022043       54.50376
2011    21      1       0.185171        50.77659
2011    21      2       0.1551242       44.01398
2011    21      3       0.1625659       45.77615
2011    21      4       0.1840983       50.78069
2011    21      5       0.1840591       50.81833
2011    21      6       0.1859389       51.31013
2011    21      7       0.1812456       50.29776
2011    22      0       0.1789032       49.75783
2011    22      1       0.1806156       50.05605
2011    22      2       0.1819726       50.35545
2011    22      3       0.1768088       49.17583
2011    22      4       0.1669617       46.84852
2011    22      5       0.1571403       44.56555
2011    22      6       0.1480222       42.4145
2011    22      7       0.1337718       39.05036
2011    23      0       0.1190062       35.49167
2011    23      1       0.1113372       33.59587
2011    23      2       0.1061977       32.34677
2011    23      3       0.09633016      29.92492
2011    23      4       0.08320903      26.61382
2011    23      5       0.07715201      25.0661
2011    23      6       0.07598544      24.7727
2011    23      7       0.07199188      23.75476
2011    24      0       0.06184948      21.13543
2011    24      1       0.05555993      19.48653
2011    24      2       0.05523518      19.39581
2011    24      3       0.05694086      19.83612
2011    24      4       0.0603485       20.75041
2011    24      5       0.06485708      21.91762
2011    24      6       0.06498008      21.901
2011    24      7       0.06236872      21.19293
2011    25      0       0.06205522      21.12371
2011    25      1       0.06454227      21.77036
2011    25      2       0.06215579      21.12939
2011    25      3       0.05847764      20.16486
2011    25      4       0.05594808      19.48632
2011    25      5       0.05549257      19.31203
2011    25      6       0.05806579      19.94526
2011    25      7       0.05769737      19.82492
2011    26      0       0.06003722      20.432
2011    26      1       0.06452961      21.61627
2011    26      2       0.06480414      21.73722
2011    26      3       0.06428427      21.65671
2011    26      4       0.06330974      21.43952
2011    26      5       0.06276897      21.29479
2011    26      6       0.06265607      21.20878
2011    26      7       0.06223936      21.02986
2011    27      0       0.06839579      22.58976
2011    27      1       0.07261329      23.63741
2011    27      2       0.06469896      21.5684
2011    27      3       0.05781346      19.76933
2011    27      4       0.05213466      18.26467
2011    27      5       0.0557304       19.21368
2011    27      6       0.0693532       22.80761
2011    27      7       0.1007466       30.77664
2011    28      0       0.1712102       47.46467
2011    28      1       0.2362531       61.81009
2011    28      2       0.28224         71.26119
2011    28      3       0.3460518       83.63945
2011    28      4       0.3987151       93.60665
2011    28      5       0.4756158       107.1287
2011    28      6       0.6030708       127.2709
2011    28      7       0.648835        134.1736
2011    29      0       0.6797518       137.741
2011    29      1       0.6087868       127.9217
2011    29      2       0.7107685       141.0778
2011    29      3       0.8556861       158.0621
2011    29      4       0.8411321       157.7481
2011    29      5       0.9620162       169.7922
2011    29      6       1.026552        176.539
2011    29      7       1.022708        176.2599
2011    30      0       0.9789365       172.4657
2011    30      1       0.7740338       149.6081
2011    30      2       0.7387263       145.7379
2011    30      3       0.7993899       152.7594
2011    30      4       0.7302587       144.7287
2011    30      5       0.7792194       150.7798
2011    30      6       0.7941053       152.8135
2011    30      7       0.8163728       155.6185
2011    31      0       0.8176546       155.3885
2011    31      1       0.7521988       147.4368
2011    31      2       0.6593269       135.4824
2011    31      3       0.6106399       129.2217
2011    31      4       0.5453045       119.146
2011    31      5       0.4414521       101.702
2011    31      6       0.298035        74.24502
2011    31      7       0.2580794       66.53094
2012    1       0       0.2455192       63.91785
2012    1       1       0.2417623       62.94581
2012    1       2       0.1997185       53.88591
2012    1       3       0.1360213       39.33873
2012    1       4       0.1102661       33.17296
2012    1       5       0.09706018      29.89322
2012    1       6       0.0936759       29.03733
2012    1       7       0.09482835      29.25129
2012    2       0       0.1081548       32.38616
2012    2       1       0.1300642       37.486
2012    2       2       0.1600506       44.43505
2012    2       3       0.2057512       54.90552
2012    2       4       0.2403511       62.51164
2012    2       5       0.2574317       66.24098
2012    2       6       0.2548612       65.86051
2012    2       7       0.2328371       61.29315
2012    3       0       0.2008236       54.25882
2012    3       1       0.1727699       47.8663
2012    3       2       0.1578007       44.37642
2012    3       3       0.1488017       42.27704
2012    3       4       0.1417254       40.61295
2012    3       5       0.127855        37.34729
2012    3       6       0.1046805       31.82079
2012    3       7       0.1276752       37.72546
2012    4       0       0.1703479       48.01219
2012    4       1       0.1882183       51.94337
2012    4       2       0.2022459       54.95252
2012    4       3       0.2456924       64.21664
2012    4       4       0.2977772       74.50019
2012    4       5       0.3850187       90.6215
2012    4       6       0.4233343       97.50806
2012    4       7       0.5031347       111.423
2012    5       0       0.4837552       108.6253
2012    5       1       0.4016372       94.10188
2012    5       2       0.3321947       80.8001
2012    5       3       0.2562187       65.25647
2012    5       4       0.2290795       59.45127
2012    5       5       0.2155725       56.6056
2012    5       6       0.1900123       50.94672
2012    5       7       0.1590083       43.98776
2012    6       0       0.1515041       42.35493
2012    6       1       0.1478388       41.53824
2012    6       2       0.1366732       38.91521
2012    6       3       0.1271856       36.65469
2012    6       4       0.11816         34.53339
2012    6       5       0.111258        32.88959
2012    6       6       0.1073949       31.96737
2012    6       7       0.1043745       31.27822
2012    7       0       0.1030438       31.04924
2012    7       1       0.1004941       30.49612
2012    7       2       0.09860224      30.03394
2012    7       3       0.09874373      30.11691
2012    7       4       0.1010775       30.76188
2012    7       5       0.113683        33.94763
2012    7       6       0.1203602       35.67294
2012    7       7       0.1228424       36.34939
2012    8       0       0.1598799       45.10003
2012    8       1       0.1881343       51.46896
2012    8       2       0.1725391       47.87026
2012    8       3       0.1828924       50.20488
2012    8       4       0.1834239       50.46115
2012    8       5       0.1818587       50.21248
2012    8       6       0.1899426       52.07319
2012    8       7       0.2074731       56.05288
2012    9       0       0.1995201       54.29276
2012    9       1       0.1865025       51.32209
2012    9       2       0.2105957       56.67624
2012    9       3       0.2429023       63.66737
2012    9       4       0.2608506       67.49203
2012    9       5       0.28259         71.91796
2012    9       6       0.3141329       78.10748
2012    9       7       0.3497467       84.94121
2012    10      0       0.4372296       100.9416
2012    10      1       0.5606354       121.3895
2012    10      2       0.6357284       132.5321
2012    10      3       0.6578649       135.3316
2012    10      4       0.7010969       141.5775
2012    10      5       0.5689817       122.1367
2012    10      6       0.5310156       116.3316
2012    10      7       0.5943383       126.6043
2012    11      0       0.4910867       110.1808
2012    11      1       0.4654186       105.8794
2012    11      2       0.4451926       102.2258
2012    11      3       0.4438117       101.7872
2012    11      4       0.4305112       99.45191
2012    11      5       0.4324185       99.903
2012    11      6       0.4156728       96.9566
2012    11      7       0.4026197       94.56385
2012    12      0       0.4108414       96.01387
2012    12      1       0.3685344       88.29931
2012    12      2       0.3400404       83.08832
2012    12      3       0.3479812       84.78826
2012    12      4       0.3360864       82.72494
2012    12      5       0.3274328       81.22116
2012    12      6       0.3200135       79.80112
2012    12      7       0.2842507       72.65402
2012    13      0       0.2569346       66.91813
2012    13      1       0.2455262       64.41533
2012    13      2       0.2357391       62.30386
2012    13      3       0.2315615       61.35638
2012    13      4       0.2365745       62.42159
2012    13      5       0.2384478       62.86548
2012    13      6       0.2556314       66.48124
2012    13      7       0.2777351       71.02824
2012    14      0       0.3010703       75.57608
2012    14      1       0.3120338       77.49668
2012    14      2       0.316915        78.40938
2012    14      3       0.3279311       80.6154
2012    14      4       0.3620938       87.17782
2012    14      5       0.3974705       93.65939
2012    14      6       0.4005325       94.26165
2012    14      7       0.3931722       92.83293
2012    15      0       0.3591152       86.31886
2012    15      1       0.344523        83.37746
2012    15      2       0.3336539       81.03524
2012    15      3       0.3196718       78.24624
2012    15      4       0.3735478       88.97004
2012    15      5       0.4535915       103.3659
2012    15      6       0.5313252       115.8714
2012    15      7       0.5721457       122.1952
2012    16      0       0.50022         111.0028
2012    16      1       0.4659119       105.3638
2012    16      2       0.4838276       108.2999
2012    16      3       0.5005986       110.8401
2012    16      4       0.5034907       111.0739
2012    16      5       0.4678302       105.2961
2012    16      6       0.463158        104.7709
2012    16      7       0.4632078       104.9829
2012    17      0       0.4461007       102.1717
2012    17      1       0.4403148       100.987
2012    17      2       0.4110287       95.74959
2012    17      3       0.3738923       88.9828
2012    17      4       0.3836631       90.78946
2012    17      5       0.4006542       93.93705
2012    17      6       0.3754988       89.45813
2012    17      7       0.3475882       84.24548
2012    18      0       0.3508474       84.7821
2012    18      1       0.3539995       85.23528
2012    18      2       0.3466257       83.72079
2012    18      3       0.3347417       81.33892
2012    18      4       0.3264561       79.67472
2012    18      5       0.3165124       77.78622
2012    18      6       0.283735        71.41362
2012    18      7       0.2578527       66.16663
2012    19      0       0.2390606       62.25174
2012    19      1       0.2287391       59.9695
2012    19      2       0.209894        55.82111
2012    19      3       0.1888245       51.30061
2012    19      4       0.1913917       51.90703
2012    19      5       0.1874641       51.05393
2012    19      6       0.1867975       50.85396
2012    19      7       0.2407253       62.22436
2012    20      0       0.2769042       69.57107
2012    20      1       0.2583934       65.79778
2012    20      2       0.2541678       65.01814
2012    20      3       0.285322        71.55021
2012    20      4       0.4039524       94.39382
2012    20      5       0.5182347       113.8263
2012    20      6       0.5631724       120.6374
2012    20      7       0.5496521       118.4761
2012    21      0       0.5073655       112.0548
2012    21      1       0.5273514       114.8749
2012    21      2       0.4302422       98.89133
2012    21      3       0.461561        104.1473
2012    21      4       0.4608004       104.3087
2012    21      5       0.4916452       109.7226
2012    21      6       0.5442575       118.3165
2012    21      7       0.6254676       130.8204
2012    22      0       0.6375988       132.4903
2012    22      1       0.6163585       129.3605
2012    22      2       0.6023715       127.1115
2012    22      3       0.5837042       124.5244
2012    22      4       0.6055383       128.2028
2012    22      5       0.6216098       130.7432
2012    22      6       0.5901618       125.9376
2012    22      7       0.5693558       122.6144
2012    23      0       0.5864873       125.0394
2012    23      1       0.6027707       127.3263
2012    23      2       0.6107198       128.4348
2012    23      3       0.6372714       132.1693
2012    23      4       0.6216692       130.036
2012    23      5       0.5864252       125.0558
2012    23      6       0.5603907       121.266
2012    23      7       0.5673418       122.2686
2012    24      0       0.5764663       123.458
2012    24      1       0.5693502       122.3881
2012    24      2       0.5546632       120.3877
2012    24      3       0.5631683       121.8709
2012    24      4       0.5431037       118.9079
2012    24      5       0.5114795       113.8312
2012    24      6       0.4907578       110.2835
2012    24      7       0.4728859       107.0198
2012    25      0       0.4810383       108.1947
2012    25      1       0.495644        110.2604
2012    25      2       0.4671459       105.6267
2012    25      3       0.4568621       104.0309
2012    25      4       0.4169273       97.38512
2012    25      5       0.3510744       85.50814
2012    25      6       0.236639        62.14729
2012    25      7       0.1154515       33.98503
2012    26      0       0.08331288      25.85857
2012    26      1       0.08122133      25.46846
2012    26      2       0.1175916       34.53131
2012    26      3       0.1832351       49.9458
2012    26      4       0.2135007       56.88229
2012    26      5       0.1793977       49.38057
2012    26      6       0.1387151       39.92583
2012    26      7       0.1273422       37.2464
2012    27      0       0.125812        36.89033
2012    27      1       0.1246846       36.55959
2012    27      2       0.1094924       32.81733
2012    27      3       0.08943456      27.86852
2012    27      4       0.07711661      24.78102
2012    27      5       0.07612747      24.56532
2012    27      6       0.07877215      25.2602
2012    27      7       0.07793684      25.0385
2012    28      0       0.08031537      25.64426
2012    28      1       0.08907699      27.90514
2012    28      2       0.1104981       33.32501
2012    28      3       0.1318677       38.4983
2012    28      4       0.1335977       38.89152
2012    28      5       0.1379216       39.88741
2012    28      6       0.1664092       46.56129
2012    28      7       0.2093745       56.33098
2012    29      0       0.2364732       62.28092
2012    29      1       0.2474484       64.54585
2012    29      2       0.2366577       62.10217
2012    29      3       0.2083321       55.86324
2012    29      4       0.1951367       52.99504
2012    29      5       0.2060662       55.5165
2012    29      6       0.2011734       54.42746
2012    29      7       0.1792589       49.45224
2012    30      0       0.1490245       42.42862
2012    30      1       0.1411651       40.63647
2012    30      2       0.1472462       42.06964
2012    30      3       0.1397441       40.20608
2012    30      4       0.134246        38.86175
2012    30      5       0.1496123       42.25822
2012    30      6       0.1915868       51.50752
2012    30      7       0.2419328       62.4477
2012    31      0       0.3115364       76.82258
2012    31      1       0.3760939       89.44969
2012    31      2       0.4155399       96.70229
2012    31      3       0.4201926       97.39014
2012    31      4       0.4328849       99.35257
2012    31      5       0.4310082       98.92158
2012    31      6       0.4220466       97.67924
2012    31      7       0.4272132       98.82607
2013    1       0       0.07016762      23.09137
2013    1       1       0.0703444       23.17561
2013    1       2       0.07290572      23.8464
2013    1       3       0.07198572      23.62851
2013    1       4       0.06985173      23.04837
2013    1       5       0.06866156      22.70685
2013    1       6       0.06718404      22.25727
2013    1       7       0.06769217      22.30731
2013    2       0       0.07042877      22.96278
2013    2       1       0.07102342      22.97887
2013    2       2       0.08917411      27.43804
2013    2       3       0.09954271      29.89568
2013    2       4       0.1096091       32.36774
2013    2       5       0.1192499       34.69608
2013    2       6       0.1480906       41.43326
2013    2       7       0.2176845       56.96832
2013    3       0       0.3546276       85.25813
2013    3       1       0.4205864       97.67788
2013    3       2       0.4105155       95.34413
2013    3       3       0.3957625       92.72217
2013    3       4       0.4371072       100.6029
2013    3       5       0.3470804       83.8157
2013    3       6       0.3700491       87.90777
2013    3       7       0.365857        87.12919
2013    4       0       0.318934        78.12513
2013    4       1       0.2446625       63.2545
2013    4       2       0.1936512       52.36937
2013    4       3       0.190926        51.62076
2013    4       4       0.2105529       55.82256
2013    4       5       0.2226424       58.26353
2013    4       6       0.2167283       56.7959
2013    4       7       0.1719085       46.90477
2013    5       0       0.1230784       35.76141
2013    5       1       0.109886        32.634
2013    5       2       0.1130187       33.39906
2013    5       3       0.1234317       36.01895
2013    5       4       0.1267027       36.98575
2013    5       5       0.1295334       37.79673
2013    5       6       0.1508911       42.96871
2013    5       7       0.1792843       49.54395
2013    6       0       0.2205796       58.66796
2013    6       1       0.2690119       68.97239
2013    6       2       0.2513224       65.20257
2013    6       3       0.2215962       58.80346
2013    6       4       0.22049         58.64665
2013    6       5       0.222362        59.18782
2013    6       6       0.2080242       56.09908
2013    6       7       0.1868553       51.35943
2013    7       0       0.1612261       45.48995
2013    7       1       0.1453177       41.76435
2013    7       2       0.1347062       39.23061
2013    7       3       0.1234853       36.52466
2013    7       4       0.1160796       34.75148
2013    7       5       0.1101541       33.29905
2013    7       6       0.1013398       31.05627
2013    7       7       0.09419974      29.20527
2013    8       0       0.09308465      28.84711
2013    8       1       0.1002314       30.56335
2013    8       2       0.1148342       34.22338
2013    8       3       0.1283566       37.60526
2013    8       4       0.1329587       38.76047
2013    8       5       0.1290243       37.8358
2013    8       6       0.1191935       35.42923
2013    8       7       0.1182467       35.10648
2013    9       0       0.1313472       38.24502
2013    9       1       0.1556842       44.04789
2013    9       2       0.1758067       48.73234
2013    9       3       0.179066        49.43438
2013    9       4       0.1787668       49.2552
2013    9       5       0.1845814       50.54311
2013    9       6       0.1789196       49.39785
2013    9       7       0.1760026       48.8324
2013    10      0       0.2005302       54.30383
2013    10      1       0.2329843       61.28002
2013    10      2       0.2569109       66.22604
2013    10      3       0.279111        70.84235
2013    10      4       0.2867743       72.52679
2013    10      5       0.2853965       72.27454
2013    10      6       0.2777667       70.6353
2013    10      7       0.2633576       67.49675
2013    11      0       0.2558031       65.72279
2013    11      1       0.2529012       64.95713
2013    11      2       0.2499036       64.25875
2013    11      3       0.2608014       66.51148
2013    11      4       0.2972432       73.96531
2013    11      5       0.3327861       81.07015
2013    11      6       0.3298085       80.63684
2013    11      7       0.3221007       79.16626
2013    12      0       0.3224088       79.16273
2013    12      1       0.3728852       89.08169
2013    12      2       0.3565427       85.63786
2013    12      3       0.3548448       85.17544
2013    12      4       0.3406159       82.45004
2013    12      5       0.3303268       80.59582
2013    12      6       0.3221704       79.32481
2013    12      7       0.3326513       81.56293
2013    13      0       0.3615548       86.96525
2013    13      1       0.3543856       85.37879
2013    13      2       0.3279608       80.16983
2013    13      3       0.3533947       85.34769
2013    13      4       0.3017193       75.23079
2013    13      5       0.3063414       76.27784
2013    13      6       0.2935793       73.80783
2013    13      7       0.2747819       70.02015
2013    14      0       0.2484395       64.47231
2013    14      1       0.2345207       61.45611
2013    14      2       0.2309675       60.69243
2013    14      3       0.2173332       57.68012
2013    14      4       0.2099588       56.08081
2013    14      5       0.2103661       56.22659
2013    14      6       0.2086411       55.97743
2013    14      7       0.1990968       53.97306
2013    15      0       0.1932734       52.66949
2013    15      1       0.193875        52.74767
2013    15      2       0.1894029       51.75025
2013    15      3       0.1807625       49.82958
2013    15      4       0.1719263       47.88621
2013    15      5       0.1636864       46.0395
2013    15      6       0.1485335       42.53194
2013    15      7       0.1344226       39.21662
2013    16      0       0.114872        34.50588
2013    16      1       0.100338        30.92422
2013    16      2       0.09119122      28.56141
2013    16      3       0.1085063       32.77839
2013    16      4       0.148993        42.55143
2013    16      5       0.2078065       56.00615
2013    16      6       0.2430237       63.56578
2013    16      7       0.2416365       63.18307
2013    17      0       0.2561312       66.3374
2013    17      1       0.2718709       69.59145
2013    17      2       0.2722744       69.6571
2013    17      3       0.2748388       70.27069
2013    17      4       0.3058975       76.68609
2013    17      5       0.3319337       81.87784
2013    17      6       0.3815339       91.48982
2013    17      7       0.3909847       92.92008
2013    18      0       0.4623444       105.4637
2013    18      1       0.4969942       111.2832
2013    18      2       0.4781676       108.117
2013    18      3       0.4647363       105.786
2013    18      4       0.491983        110.3299
2013    18      5       0.5503132       119.8417
2013    18      6       0.49698         111.1064
2013    18      7       0.4286314       99.55591
2013    19      0       0.3837917       91.64567
2013    19      1       0.3248399       80.37752
2013    19      2       0.2637945       67.88335
2013    19      3       0.1871604       51.16976
2013    19      4       0.1268165       37.15937
2013    19      5       0.1091995       33.047
2013    19      6       0.1228302       36.43224
2013    19      7       0.1319728       38.52409
2013    20      0       0.1492452       42.51923
2013    20      1       0.1499154       42.73524
2013    20      2       0.1643913       46.06067
2013    20      3       0.2296187       60.42592
2013    20      4       0.266735        68.24105
2013    20      5       0.2817345       71.35246
2013    20      6       0.2649848       67.9184
2013    20      7       0.2388851       62.47132
2013    21      0       0.2317305       60.97449
2013    21      1       0.2289406       60.33437
2013    21      2       0.2146907       57.20903
2013    21      3       0.1965843       53.23833
2013    21      4       0.1856491       50.78757
2013    21      5       0.1852999       50.64693
2013    21      6       0.1754878       48.41163
2013    21      7       0.1634492       45.59433
2013    22      0       0.165338        45.92966
2013    22      1       0.1641074       45.62133
2013    22      2       0.1529968       43.06272
2013    22      3       0.1420813       40.5894
2013    22      4       0.1450066       41.35241
2013    22      5       0.1519371       43.01122
2013    22      6       0.1557034       43.98295
2013    22      7       0.1596348       44.96976
2013    23      0       0.176576        48.88694
2013    23      1       0.2033668       54.95816
2013    23      2       0.2445257       63.97187
2013    23      3       0.2899086       73.45304
2013    23      4       0.3008655       75.61143
2013    23      5       0.2749599       70.31974
2013    23      6       0.2580971       66.95067
2013    23      7       0.2262058       60.16738
2013    24      0       0.1790675       49.58342
2013    24      1       0.1388247       40.1316
2013    24      2       0.1296425       37.85673
2013    24      3       0.1515919       42.93614
2013    24      4       0.1906951       51.69776
2013    24      5       0.2461706       63.51213
2013    24      6       0.2689416       68.29098
2013    24      7       0.2287055       60.19164
2013    25      0       0.2273697       60.3617
2013    25      1       0.2957686       74.82823
2013    25      2       0.3133613       78.15793
2013    25      3       0.2641167       67.87358
2013    25      4       0.2253061       59.55024
2013    25      5       0.1998816       53.96907
2013    25      6       0.1681131       46.66082
2013    25      7       0.1568203       43.95563
2013    26      0       0.2088135       55.55865
2013    26      1       0.2519572       64.86689
2013    26      2       0.2441271       63.32299
2013    26      3       0.2151261       57.25503
2013    26      4       0.1881105       51.39855
2013    26      5       0.1636988       45.89321
2013    26      6       0.1696915       47.13971
2013    26      7       0.1822664       49.85312
2013    27      0       0.1738501       47.69118
2013    27      1       0.1750953       47.79594
2013    27      2       0.2202656       57.75277
2013    27      3       0.2718611       68.79158
2013    27      4       0.2957521       73.73947
2013    27      5       0.3036785       75.35561
2013    27      6       0.2962208       74.14178
2013    27      7       0.2970557       74.53657
2013    28      0       0.3418013       83.40645
2013    28      1       0.3644948       87.7405
2013    28      2       0.3277872       80.74929
2013    28      3       0.3136544       78.06238
2013    28      4       0.3239143       80.3254
2013    28      5       0.344739        84.58062
2013    28      6       0.3640437       88.29469
2013    28      7       0.4037218       95.52441
2013    29      0       0.4340783       100.7922
2013    29      1       0.4533951       103.9094
2013    29      2       0.4411207       101.5743
2013    29      3       0.4096531       95.84658
2013    29      4       0.3886948       91.98189
2013    29      5       0.3672346       88.10673
2013    29      6       0.3565619       86.1732
2013    29      7       0.356592        86.17096
2013    30      0       0.2792742       70.98115
2013    30      1       0.1560179       43.92894
2013    30      2       0.1628722       45.63833
2013    30      3       0.1594321       44.81308
2013    30      4       0.1483303       42.28568
2013    30      5       0.1362794       39.5951
2013    30      6       0.1287446       37.80918
2013    30      7       0.1200847       35.69205
2013    31      0       0.1135801       34.10939
2013    31      1       0.1121172       33.74912
2013    31      2       0.1187453       35.31416
2013    31      3       0.128941        37.693
2013    31      4       0.1460215       41.77261
2013    31      5       0.1607485       45.23074
2013    31      6       0.1658047       46.38691
2013    31      7       0.1861731       51.00942
2014    1       0       0.3580949       85.43487
2014    1       1       0.3521002       84.56698
2014    1       2       0.387311        91.09918
2014    1       3       0.4225337       97.31055
2014    1       4       0.4632537       104.6481
2014    1       5       0.4718224       106.1572
2014    1       6       0.4163091       96.95137
2014    1       7       0.362692        87.39872
2014    2       0       0.3349644       82.35633
2014    2       1       0.2830935       72.02679
2014    2       2       0.2170517       58.03409
2014    2       3       0.1267985       37.20457
2014    2       4       0.1185164       35.24857
2014    2       5       0.1534563       43.72072
2014    2       6       0.1566124       44.47719
2014    2       7       0.1349498       39.30855
2014    3       0       0.1620227       45.92628
2014    3       1       0.2269454       60.57233
2014    3       2       0.2054671       55.59222
2014    3       3       0.1462456       41.79057
2014    3       4       0.1386566       39.83889
2014    3       5       0.1587481       44.51154
2014    3       6       0.1876909       51.08552
2014    3       7       0.2128379       56.50499
2014    4       0       0.2431045       62.92762
2014    4       1       0.2575124       65.91587
2014    4       2       0.244162        63.15555
2014    4       3       0.2476508       64.05329
2014    4       4       0.2610436       67.03338
2014    4       5       0.2423222       63.19658
2014    4       6       0.1895971       51.72689
2014    4       7       0.1416883       40.71712
2014    5       0       0.1249467       36.65103
2014    5       1       0.1465555       41.75996
2014    5       2       0.2153544       57.47724
2014    5       3       0.2658334       68.31636
2014    5       4       0.3610413       87.11542
2014    5       5       0.516556        114.2034
2014    5       6       0.5866551       125.1506
2014    5       7       0.5700192       122.8214
2014    6       0       0.5470947       119.5528
2014    6       1       0.5219821       115.6839
2014    6       2       0.4819145       109.0879
2014    6       3       0.4241963       99.14775
2014    6       4       0.3388852       83.35122
2014    6       5       0.263546        68.0535
2014    6       6       0.1986189       53.89665
2014    6       7       0.1688906       47.07521
2014    7       0       0.117768        35.04726
2014    7       1       0.07253848      23.78284
2014    7       2       0.06414133      21.5876
2014    7       3       0.06884116      22.83171
2014    7       4       0.06961111      23.10239
2014    7       5       0.07048957      23.39781
2014    7       6       0.07380786      24.24323
2014    7       7       0.07551853      24.69138
2014    8       0       0.1492054       43.16885
2014    8       1       0.2171355       58.75522
2014    8       2       0.1944777       53.51538
2014    8       3       0.1808679       50.26373
2014    8       4       0.1903556       52.29797
2014    8       5       0.1986523       54.17193
2014    8       6       0.1730374       48.39303
2014    8       7       0.148136        42.55301
2014    9       0       0.1530699       43.6536
2014    9       1       0.1665822       46.73322
2014    9       2       0.1631668       45.87697
2014    9       3       0.1505377       42.94919
2014    9       4       0.1344686       39.23242
2014    9       5       0.1201598       35.7878
2014    9       6       0.1080687       32.79724
2014    9       7       0.0975636       30.122
2014    10      0       0.1069225       32.34476
2014    10      1       0.1219106       35.94576
2014    10      2       0.1171119       34.72981
2014    10      3       0.1365178       39.3211
2014    10      4       0.1755016       48.47044
2014    10      5       0.2168548       57.70789
2014    10      6       0.2353087       61.65068
2014    10      7       0.2069111       55.49274
2014    11      0       0.1693109       47.10664
2014    11      1       0.1427047       41.00486
2014    11      2       0.1500024       42.67088
2014    11      3       0.1625341       45.516
2014    11      4       0.1755795       48.51197
2014    11      5       0.1620556       45.46595
2014    11      6       0.1537199       43.54703
2014    11      7       0.1428364       41.03726
2014    12      0       0.1258104       36.94516
2014    12      1       0.1135966       33.95201
2014    12      2       0.1008709       30.87449
2014    12      3       0.09095433      28.46997
2014    12      4       0.08035598      25.77586
2014    12      5       0.07591924      24.61899
2014    12      6       0.07491357      24.3856
2014    12      7       0.07033162      23.2193
2014    13      0       0.06886651      22.81361
2014    13      1       0.06901713      22.84218
2014    13      2       0.06698501      22.31627
2014    13      3       0.06457263      21.69256
2014    13      4       0.0628208       21.24596
2014    13      5       0.06117481      20.82514
2014    13      6       0.05869226      20.19085
2014    13      7       0.05650967      19.62588
2014    14      0       0.0574973       19.8886
2014    14      1       0.05833262      20.10902
2014    14      2       0.05764857      19.91966
2014    14      3       0.05803871      20.00351
2014    14      4       0.05903581      20.24583
2014    14      5       0.05848569      20.10346
2014    14      6       0.05687455      19.68286
2014    14      7       0.05670381      19.63087
2014    15      0       0.05940688      20.36846
2014    15      1       0.0644479       21.68494
2014    15      2       0.06311413      21.28735
2014    15      3       0.0629592       21.16053
2014    15      4       0.06180803      20.79759
2014    15      5       0.06396222      21.37287
2014    15      6       0.0787465       25.26734
2014    15      7       0.08821892      27.77885
2014    16      0       0.09941951      30.63766
2014    16      1       0.09984216      30.6931
2014    16      2       0.08331851      26.44014
2014    16      3       0.06473615      21.55461
2014    16      4       0.06192634      20.81431
2014    16      5       0.06472734      21.60138
2014    16      6       0.06481257      21.68783
2014    16      7       0.06545411      21.89789
2014    17      0       0.07051467      23.215
2014    17      1       0.07260053      23.75106
2014    17      2       0.07199967      23.60709
2014    17      3       0.07893399      25.38582
2014    17      4       0.08132305      26.02041
2014    17      5       0.08278026      26.43416
2014    17      6       0.08045418      25.84469
2014    17      7       0.07594944      24.68971
2014    18      0       0.07822914      25.26872
2014    18      1       0.08026596      25.7858
2014    18      2       0.07679261      24.85448
2014    18      3       0.07304316      23.85882
2014    18      4       0.0723059       23.66604
2014    18      5       0.07333779      23.94015
2014    18      6       0.07385392      24.14367
2014    18      7       0.07338953      24.0964
2014    19      0       0.07838342      25.40068
2014    19      1       0.08732599      27.62795
2014    19      2       0.08512554      26.99795
2014    19      3       0.08285632      26.36656
2014    19      4       0.07975134      25.56186
2014    19      5       0.0780949       25.12233
2014    19      6       0.08287648      26.2317
2014    19      7       0.09183115      28.40962
2014    20      0       0.118473        35.10485
2014    20      1       0.1526965       43.26301
2014    20      2       0.1769436       48.55417
2014    20      3       0.1890861       50.99977
2014    20      4       0.195097        52.42173
2014    20      5       0.2082018       55.40121
2014    20      6       0.2181341       57.58048
2014    20      7       0.2268601       59.36128
2014    21      0       0.2255522       59.15188
2014    21      1       0.2099394       55.93154
2014    21      2       0.2110815       56.30059
2014    21      3       0.213396        56.98664
2014    21      4       0.2186869       58.25468
2014    21      5       0.2232205       59.07773
2014    21      6       0.1611609       45.14879
2014    21      7       0.1163742       34.62755
2014    22      0       0.1128504       33.93204
2014    22      1       0.1155849       34.68735
2014    22      2       0.1413913       40.8363
2014    22      3       0.1645125       46.2396
2014    22      4       0.1575862       44.5827
2014    22      5       0.138576        40.02141
2014    22      6       0.117096        34.84303
2014    22      7       0.0959076       29.59966
2014    23      0       0.08409958      26.60912
2014    23      1       0.0790495       25.35565
2014    23      2       0.07850802      25.27318
2014    23      3       0.08074176      25.90276
2014    23      4       0.09135105      28.68834
2014    23      5       0.1096078       33.28441
2014    23      6       0.1144579       34.46277
2014    23      7       0.1160245       34.80394
2014    24      0       0.1163329       34.87965
2014    24      1       0.1054377       32.14343
2014    24      2       0.083615        26.62392
2014    24      3       0.07390314      24.08616
2014    24      4       0.07632121      24.69791
2014    24      5       0.08166528      26.04719
2014    24      6       0.07955361      25.52341
2014    24      7       0.07349096      23.98846
2014    25      0       0.07541791      24.50511
2014    25      1       0.07726523      24.98804
2014    25      2       0.07750287      24.97206
2014    25      3       0.079614        25.43263
2014    25      4       0.08511045      26.77419
2014    25      5       0.0980412       29.90101
2014    25      6       0.1086522       32.45279
2014    25      7       0.1001542       30.54744
2014    26      0       0.09594747      29.68733
2014    26      1       0.09532021      29.58796
2014    26      2       0.0983106       30.31076
2014    26      3       0.1119675       33.67923
2014    26      4       0.1163331       34.76778
2014    26      5       0.1112789       33.57665
2014    26      6       0.10554         32.19326
2014    26      7       0.1023242       31.37413
2014    27      0       0.1062201       32.31461
2014    27      1       0.1063318       32.30699
2014    27      2       0.09317817      29.02353
2014    27      3       0.08152986      26.08405
2014    27      4       0.07843854      25.29487
2014    27      5       0.07725336      24.99241
2014    27      6       0.07610805      24.73033
2014    27      7       0.07444641      24.34385
2014    28      0       0.07270043      23.88448
2014    28      1       0.07209224      23.71261
2014    28      2       0.07129952      23.52277
2014    28      3       0.07008001      23.21505
2014    28      4       0.06797773      22.66627
2014    28      5       0.06702098      22.42149
2014    28      6       0.06188068      21.08445
2014    28      7       0.05734398      19.87359
2014    29      0       0.05864158      20.23305
2014    29      1       0.06161021      21.01455
2014    29      2       0.05395666      18.95921
2014    29      3       0.04811056      17.37006
2014    29      4       0.04860759      17.48478
2014    29      5       0.04971856      17.78291
2014    29      6       0.05105234      18.13212
2014    29      7       0.05404003      18.90894
2014    30      0       0.06180333      20.95467
2014    30      1       0.06618812      22.10237
2014    30      2       0.06241738      21.11576
2014    30      3       0.06087555      20.70754
2014    30      4       0.05976083      20.43052
2014    30      5       0.05594013      19.45986
2014    30      6       0.0517973       18.3965
2014    30      7       0.05978036      20.51361
2014    31      0       0.08619576      27.28679
2014    31      1       0.1048177       31.87802
2014    31      2       0.1066862       32.33778
2014    31      3       0.1193144       35.44288
2014    31      4       0.1212307       35.92425
2014    31      5       0.1203184       35.69017
2014    31      6       0.1323854       38.57885
2014    31      7       0.1536487       43.61678
2015    1       0       0.09441489      29.28704
2015    1       1       0.09818817      29.86845
2015    1       2       0.115807        33.67813
2015    1       3       0.1283301       36.68201
2015    1       4       0.1885586       50.53836
2015    1       5       0.2750444       68.90908
2015    1       6       0.3555754       84.80647
2015    1       7       0.347055        83.27303
2015    2       0       0.270614        68.30999
2015    2       1       0.2575388       65.86217
2015    2       2       0.2642743       67.62064
2015    2       3       0.2472304       64.26346
2015    2       4       0.2329842       61.4404
2015    2       5       0.212154        57.09505
2015    2       6       0.1903966       52.28399
2015    2       7       0.1604839       45.2632
2015    3       0       0.143748        41.25074
2015    3       1       0.1396099       40.21646
2015    3       2       0.1362796       39.42291
2015    3       3       0.1151936       34.21102
2015    3       4       0.1158211       34.35882
2015    3       5       0.1213588       35.7788
2015    3       6       0.1208462       35.69922
2015    3       7       0.1231778       36.26434
2015    4       0       0.1411553       40.52689
2015    4       1       0.1641139       45.86534
2015    4       2       0.1780419       49.07435
2015    4       3       0.1796674       49.45983
2015    4       4       0.174316        48.23029
2015    4       5       0.1622499       45.42235
2015    4       6       0.1499651       42.55115
2015    4       7       0.151001        42.92961
2015    5       0       0.1636583       46.02741
2015    5       1       0.1799367       49.86976
2015    5       2       0.1747713       48.69486
2015    5       3       0.1622293       45.75489
2015    5       4       0.1466019       42.0411
2015    5       5       0.1301113       38.07075
2015    5       6       0.1214073       35.98132
2015    5       7       0.1178028       35.10827
2015    6       0       0.116431        34.62899
2015    6       1       0.1155627       34.29256
2015    6       2       0.1117935       33.30803
2015    6       3       0.1414418       40.56218
2015    6       4       0.2352248       62.0405
2015    6       5       0.2861457       72.87639
2015    6       6       0.300848        75.81786
2015    6       7       0.2857387       72.68228
2015    7       0       0.2843397       72.23693
2015    7       1       0.3044235       76.13089
2015    7       2       0.2827821       71.49356
2015    7       3       0.2893597       72.94477
2015    7       4       0.3557602       86.19792
2015    7       5       0.4191716       97.95392
2015    7       6       0.434521        100.644
2015    7       7       0.4453937       102.2727
2015    8       0       0.4372515       100.5919
2015    8       1       0.392992        92.39
2015    8       2       0.3792824       89.71147
2015    8       3       0.3760661       89.13977
2015    8       4       0.370497        88.15451
2015    8       5       0.3654225       87.0755
2015    8       6       0.3409508       82.51371
2015    8       7       0.3000849       74.47257
2015    9       0       0.2895678       72.16625
2015    9       1       0.3194056       78.2192
2015    9       2       0.3319572       80.76798
2015    9       3       0.3396597       82.29916
2015    9       4       0.3478131       84.04853
2015    9       5       0.3362613       82.09359
2015    9       6       0.3196703       78.9642
2015    9       7       0.3174121       78.44194
2015    10      0       0.2807413       70.97239
2015    10      1       0.2253797       59.29532
2015    10      2       0.1878512       51.09708
2015    10      3       0.1903581       51.74787
2015    10      4       0.2280276       60.07283
2015    10      5       0.2704772       69.10522
2015    10      6       0.2594376       66.76422
2015    10      7       0.2789209       70.70329
2015    11      0       0.2768418       70.2261
2015    11      1       0.2793077       70.84191
2015    11      2       0.2924904       73.56485
2015    11      3       0.3078321       76.62591
2015    11      4       0.3237114       79.74891
2015    11      5       0.2895942       72.93009
2015    11      6       0.2479389       64.18654
2015    11      7       0.2039941       54.69944
2015    12      0       0.1655965       45.93014
2015    12      1       0.1659241       45.78609
2015    12      2       0.1861042       50.2323
2015    12      3       0.228718        59.56166
2015    12      4       0.3097721       76.3655
2015    12      5       0.3668911       87.62163
2015    12      6       0.3723229       88.80202
2015    12      7       0.3821819       90.69628
2015    13      0       0.4049844       94.80675
2015    13      1       0.4043292       94.64581
2015    13      2       0.4190001       97.13276
2015    13      3       0.4433181       101.2013
2015    13      4       0.4566049       103.385
2015    13      5       0.4511756       102.5455
2015    13      6       0.4361468       100.0153
2015    13      7       0.421096        97.3646
2015    14      0       0.4306195       98.84311
2015    14      1       0.4440751       101.0224
2015    14      2       0.4623444       104.0616
2015    14      3       0.4871414       108.2337
2015    14      4       0.4862082       108.2026
2015    14      5       0.5049788       111.4169
2015    14      6       0.5388091       117.2406
2015    14      7       0.5023174       111.1614
2015    15      0       0.5114692       112.3649
2015    15      1       0.5336827       114.9263
2015    15      2       0.5358942       115.8178
2015    15      3       0.5191473       113.02
2015    15      4       0.5200405       112.4255
2015    15      5       0.5670328       119.185
2015    15      6       0.5840012       122.1483
2015    15      7       0.5294246       114.8957
2015    16      0       0.4634          104.4764
2015    16      1       0.3703758       88.5302
2015    16      2       0.3475896       84.12326
2015    16      3       0.3518159       84.82992
2015    16      4       0.3669105       87.66491
2015    16      5       0.3994844       93.69051
2015    16      6       0.4144583       96.49326
2015    16      7       0.4142184       96.46573
2015    17      0       0.3657557       87.3929
2015    17      1       0.3250036       79.4363
2015    17      2       0.2979102       73.98339
2015    17      3       0.2648191       67.22625
2015    17      4       0.2696456       68.27398
2015    17      5       0.2859765       71.74878
2015    17      6       0.268212        68.23306
2015    17      7       0.2452047       63.59338
2015    18      0       0.2405401       62.59993
2015    18      1       0.2375502       61.94889
2015    18      2       0.2026695       54.33217
2015    18      3       0.1715017       47.31272
2015    18      4       0.1794657       49.12458
2015    18      5       0.1991275       53.483
2015    18      6       0.1962008       52.80214
2015    18      7       0.1834298       49.95231
2015    19      0       0.1782728       48.79161
2015    19      1       0.1743241       47.8927
2015    19      2       0.1593236       44.4391
2015    19      3       0.1422975       40.48666
2015    19      4       0.1459935       41.40237
2015    19      5       0.1569649       43.99656
2015    19      6       0.1505645       42.53337
2015    19      7       0.1396246       39.98002
2015    20      0       0.1418591       40.5662
2015    20      1       0.1464944       41.70551
2015    20      2       0.1432402       40.97064
2015    20      3       0.1382035       39.80032
2015    20      4       0.1309958       38.12323
2015    20      5       0.1201834       35.50613
2015    20      6       0.1036968       31.45842
2015    20      7       0.09264969      28.60889
2015    21      0       0.08744068      27.28574
2015    21      1       0.09406814      28.92511
2015    21      2       0.1029003       31.12424
2015    21      3       0.1173192       34.68608
2015    21      4       0.1442992       41.16893
2015    21      5       0.1641029       45.85937
2015    21      6       0.1666382       46.53453
2015    21      7       0.1824195       50.19594
2015    22      0       0.2162997       57.78448
2015    22      1       0.2585695       66.81701
2015    22      2       0.3045825       76.30013
2015    22      3       0.3421782       83.70973
2015    22      4       0.3546535       86.04137
2015    22      5       0.3466182       84.49105
2015    22      6       0.3402046       83.29446
2015    22      7       0.3317431       81.7694
2015    23      0       0.3306077       81.69274
2015    23      1       0.3356753       82.71241
2015    23      2       0.356587        86.61924
2015    23      3       0.3833674       91.54966
2015    23      4       0.3704402       89.21562
2015    23      5       0.3565956       86.65951
2015    23      6       0.3147098       78.44322
2015    23      7       0.2616184       67.62799
2015    24      0       0.2387755       62.88119
2015    24      1       0.2449843       64.51735
2015    24      2       0.1582347       44.99083
2015    24      3       0.09808375      30.38256
2015    24      4       0.08002051      25.74965
2015    24      5       0.07847861      25.32475
2015    24      6       0.0819831       26.25406
2015    24      7       0.1000323       30.92764
2015    25      0       0.106981        32.6936
2015    25      1       0.1062477       32.46481
2015    25      2       0.1006835       31.03718
2015    25      3       0.09405592      29.34748
2015    25      4       0.09257239      28.98231
2015    25      5       0.09617077      29.92381
2015    25      6       0.1071961       32.743
2015    25      7       0.1101456       33.53735
2015    26      0       0.1063624       32.60301
2015    26      1       0.1047342       32.19254
2015    26      2       0.09951136      30.87562
2015    26      3       0.09110372      28.74109
2015    26      4       0.08816936      27.98985
2015    26      5       0.08486334      27.16135
2015    26      6       0.08116292      26.2159
2015    26      7       0.07359163      24.26114
2015    27      0       0.06900514      23.07497
2015    27      1       0.06743158      22.64947
2015    27      2       0.06448274      21.84839
2015    27      3       0.06167819      21.08646
2015    27      4       0.05913323      20.41104
2015    27      5       0.05689896      19.8342
2015    27      6       0.05002037      18.01107
2015    27      7       0.0436503       16.28782
2015    28      0       0.04169846      15.75253
2015    28      1       0.04166102      15.73117
2015    28      2       0.04425789      16.42006
2015    28      3       0.04905618      17.70925
2015    28      4       0.05525318      19.39693
2015    28      5       0.05692738      19.863
2015    28      6       0.0549019       19.29143
2015    28      7       0.05452276      19.10409
2015    29      0       0.05320523      18.68999
2015    29      1       0.06245934      21.05607
2015    29      2       0.07035648      23.1043
2015    29      3       0.06173919      20.9395
2015    29      4       0.05442114      19.07044
2015    29      5       0.06891962      22.92343
2015    29      6       0.09574442      29.77023
2015    29      7       0.1300962       38.16638
2015    30      0       0.1643858       46.21057
2015    30      1       0.1757716       48.79876
2015    30      2       0.1424447       41.10517
2015    30      3       0.1099359       33.32447
2015    30      4       0.08764241      27.74181
2015    30      5       0.07526413      24.50717
2015    30      6       0.07111228      23.44597
2015    30      7       0.07880417      25.40436
2015    31      0       0.08992302      28.10804
2015    31      1       0.1313387       38.06923
2015    31      2       0.2733782       69.54701
2015    31      3       0.3392081       82.83852
2015    31      4       0.242146        63.1272
2015    31      5       0.1851754       50.62339
2015    31      6       0.1461344       41.69817
2015    31      7       0.1273881       37.34296
2016    1       0       0.100081        30.43605
2016    1       1       0.1016492       30.85234
2016    1       2       0.09715945      29.77072
2016    1       3       0.09278701      28.64404
2016    1       4       0.08922601      27.70684
2016    1       5       0.08725852      27.18302
2016    1       6       0.0909867       28.08776
2016    1       7       0.09810714      29.8282
2016    2       0       0.1060119       31.8075
2016    2       1       0.10712         32.13435
2016    2       2       0.1030218       31.15747
2016    2       3       0.1026852       31.04675
2016    2       4       0.1054419       31.72293
2016    2       5       0.1026798       31.09901
2016    2       6       0.09292414      28.6984
2016    2       7       0.08441153      26.60434
2016    3       0       0.09271301      28.73241
2016    3       1       0.1055204       31.9564
2016    3       2       0.1043897       31.69211
2016    3       3       0.09683522      29.85603
2016    3       4       0.09599694      29.60885
2016    3       5       0.09403027      29.06112
2016    3       6       0.09223948      28.57701
2016    3       7       0.09581221      29.38352
2016    4       0       0.09892745      30.15108
2016    4       1       0.09950072      30.33585
2016    4       2       0.1026373       31.13208
2016    4       3       0.1050286       31.78629
2016    4       4       0.1131059       33.78059
2016    4       5       0.1189276       35.23634
2016    4       6       0.117541        34.92662
2016    4       7       0.1420798       40.70513
2016    5       0       0.2000551       53.82073
2016    5       1       0.2369094       61.82056
2016    5       2       0.2451437       63.64811
2016    5       3       0.2443598       63.39747
2016    5       4       0.2544352       65.40649
2016    5       5       0.275374        69.52748
2016    5       6       0.2409562       62.48124
2016    5       7       0.1945341       52.66442
2016    6       0       0.21629         57.17201
2016    6       1       0.2445764       62.84126
2016    6       2       0.2567037       65.39522
2016    6       3       0.2771042       69.82534
2016    6       4       0.255042        65.57894
2016    6       5       0.2079604       55.47042
2016    6       6       0.1794324       48.82945
2016    6       7       0.1931228       51.5806
2016    7       0       0.2003599       53.17008
2016    7       1       0.188626        50.76014
2016    7       2       0.1763133       47.99349
2016    7       3       0.1603564       44.32026
2016    7       4       0.1468457       41.33781
2016    7       5       0.1408271       40.1566
2016    7       6       0.1430301       40.82002
2016    7       7       0.1491625       42.43722
2016    8       0       0.1553546       44.0313
2016    8       1       0.157326        44.54541
2016    8       2       0.1465094       41.9572
2016    8       3       0.1350986       39.16384
2016    8       4       0.1208178       35.72803
2016    8       5       0.107823        32.54148
2016    8       6       0.1018645       31.0986
2016    8       7       0.09718879      29.98268
2016    9       0       0.09277234      28.88388
2016    9       1       0.09127334      28.51779
2016    9       2       0.08790574      27.69121
2016    9       3       0.0865715       27.37919
2016    9       4       0.09299522      29.04792
2016    9       5       0.1039472       31.85477
2016    9       6       0.1134668       34.27726
2016    9       7       0.1164371       35.06413
2016    10      0       0.1174689       35.33063
2016    10      1       0.1213955       36.28996
2016    10      2       0.119442        35.77575
2016    10      3       0.1182058       35.4454
2016    10      4       0.1200562       35.92381
2016    10      5       0.1207209       36.1682
2016    10      6       0.1125777       34.18071
2016    10      7       0.1047879       32.25928
2016    11      0       0.1065062       32.6181
2016    11      1       0.1065965       32.60864
2016    11      2       0.1010958       31.19659
2016    11      3       0.09495011      29.61324
2016    11      4       0.08765439      27.74278
2016    11      5       0.07900301      25.53887
2016    11      6       0.07123353      23.55257
2016    11      7       0.06506925      21.96475
2016    12      0       0.05978414      20.55641
2016    12      1       0.05640527      19.63043
2016    12      2       0.05907203      20.32633
2016    12      3       0.06180861      21.03362
2016    12      4       0.06232113      21.18241
2016    12      5       0.06080532      20.80251
2016    12      6       0.06207014      21.14634
2016    12      7       0.08253202      26.51012
2016    13      0       0.1052909       32.28494
2016    13      1       0.1251531       37.06374
2016    13      2       0.1353592       39.41596
2016    13      3       0.1418416       41.00201
2016    13      4       0.1441351       41.53145
2016    13      5       0.1457606       41.82195
2016    13      6       0.1706224       47.43583
2016    13      7       0.2071875       55.4373
2016    14      0       0.1775198       48.71417
2016    14      1       0.1572191       44.21593
2016    14      2       0.1875198       51.10476
2016    14      3       0.2197768       58.30929
2016    14      4       0.2383364       62.46749
2016    14      5       0.2836075       72.14705
2016    14      6       0.3147366       78.4031
2016    14      7       0.2899828       73.31981
2016    15      0       0.2883909       72.91264
2016    15      1       0.3114809       77.57632
2016    15      2       0.3380099       82.89556
2016    15      3       0.3443006       84.12789
2016    15      4       0.3236673       80.09191
2016    15      5       0.3446996       84.23464
2016    15      6       0.3619534       87.38302
2016    15      7       0.351208        85.34092
2016    16      0       0.3294777       81.24669
2016    16      1       0.3406248       83.35804
2016    16      2       0.3228076       79.67452
2016    16      3       0.3275931       80.42792
2016    16      4       0.3922448       92.74302
2016    16      5       0.3903139       92.53981
2016    16      6       0.3017442       75.82239
2016    16      7       0.2399499       63.16603
2016    17      0       0.1623817       45.88195
2016    17      1       0.09752957      30.19256
2016    17      2       0.07086373      23.35712
2016    17      3       0.08871545      27.91005
2016    17      4       0.1050669       32.07315
2016    17      5       0.09988157      30.8257
2016    17      6       0.1145134       34.48289
2016    17      7       0.1453734       41.98228
2016    18      0       0.1916814       52.74315
2016    18      1       0.2211598       59.22801
2016    18      2       0.20503         55.58817
2016    18      3       0.183511        50.7552
2016    18      4       0.1521731       43.52071
2016    18      5       0.1319561       38.78874
2016    18      6       0.1152006       34.73257
2016    18      7       0.1050151       32.16663
2016    19      0       0.1081221       32.89795
2016    19      1       0.121251        36.09565
2016    19      2       0.1520175       43.47791
2016    19      3       0.1924627       52.82836
2016    19      4       0.2436457       64.10518
2016    19      5       0.2752482       70.84047
2016    19      6       0.2967743       75.33958
2016    19      7       0.3582914       87.32988
2016    20      0       0.3421373       84.02182
2016    20      1       0.3392729       83.11005
2016    20      2       0.4034458       95.40183
2016    20      3       0.4719116       107.7351
2016    20      4       0.4323006       100.9282
2016    20      5       0.4222059       98.78525
2016    20      6       0.4472526       102.6245
2016    20      7       0.4649542       105.385
2016    21      0       0.5208985       114.4782
2016    21      1       0.6092254       127.9377
2016    21      2       0.640481        132.4709
2016    21      3       0.6180784       129.2457
2016    21      4       0.5385592       117.1201
2016    21      5       0.4738242       106.5841
2016    21      6       0.4616109       104.5508
2016    21      7       0.4418866       101.1
2016    22      0       0.4381881       100.4065
2016    22      1       0.4685763       105.7103
2016    22      2       0.4772093       107.2576
2016    22      3       0.4781208       107.4581
2016    22      4       0.4540431       103.3681
2016    22      5       0.3992231       93.57371
2016    22      6       0.3715047       88.44628
2016    22      7       0.3680276       87.96103
2016    23      0       0.3666868       87.89173
2016    23      1       0.3686681       88.391
2016    23      2       0.3529458       85.45699
2016    23      3       0.3252859       80.14659
2016    23      4       0.2761918       70.33985
2016    23      5       0.2421288       63.21385
2016    23      6       0.2303912       60.7168
2016    23      7       0.2047067       55.04299
2016    24      0       0.202408        54.42515
2016    24      1       0.2349724       61.47672
2016    24      2       0.285253        72.15314
2016    24      3       0.3442684       84.10632
2016    24      4       0.4110839       96.71576
2016    24      5       0.4595856       105.2503
2016    24      6       0.4738922       107.6351
2016    24      7       0.4558652       104.5539
2016    25      0       0.4248095       99.35596
2016    25      1       0.411607        96.53522
2016    25      2       0.4782437       107.7575
2016    25      3       0.4835305       108.5742
2016    25      4       0.3734638       89.29782
2016    25      5       0.2750145       70.20783
2016    25      6       0.3239193       79.81879
2016    25      7       0.505848        111.6825
2016    26      0       0.5792362       123.1088
2016    26      1       0.5003084       110.9705
2016    26      2       0.4762184       107.2235
2016    26      3       0.4878248       109.3528
2016    26      4       0.4308781       99.83869
2016    26      5       0.3592863       86.94078
2016    26      6       0.3578518       86.85585
2016    26      7       0.3796254       91.16459
2016    27      0       0.463093        106.2846
2016    27      1       0.5313891       117.5753
2016    27      2       0.5243541       116.6675
2016    27      3       0.3781309       90.65841
2016    27      4       0.3401699       83.19793
2016    27      5       0.3062226       76.34833
2016    27      6       0.2429148       63.23275
2016    27      7       0.2032521       54.82269
2016    28      0       0.2332034       61.45057
2016    28      1       0.2455682       64.09429
2016    28      2       0.2412697       63.20325
2016    28      3       0.2887602       73.09034
2016    28      4       0.3169147       78.76286
2016    28      5       0.3363152       82.62965
2016    28      6       0.3897026       92.52866
2016    28      7       0.3966355       93.74104
2016    29      0       0.3354217       82.31777
2016    29      1       0.3114202       77.6261
2016    29      2       0.3608669       87.30005
2016    29      3       0.3601391       87.1904
2016    29      4       0.3945444       93.45199
2016    29      5       0.4161342       97.29619
2016    29      6       0.3756178       89.95356
2016    29      7       0.3643247       87.66475
2016    30      0       0.3801301       90.49128
2016    30      1       0.4290422       99.57086
2016    30      2       0.5118492       113.5316
2016    30      3       0.537221        117.512
2016    30      4       0.5521957       119.7821
2016    30      5       0.5843194       124.818
2016    30      6       0.5799926       124.304
2016    30      7       0.5868009       125.1721
2016    31      0       0.5737233       123.0209
2016    31      1       0.5467667       118.8939
2016    31      2       0.5133477       113.8808
2016    31      3       0.5133713       113.9378
2016    31      4       0.5679052       122.3713
2016    31      5       0.6551088       134.7826
2016    31      6       0.6472584       133.7515
2016    31      7       0.5670868       121.8789
2017    1       0       0.225812        59.78255
2017    1       1       0.2404496       62.86438
2017    1       2       0.2262808       59.74082
2017    1       3       0.2327415       61.22083
2017    1       4       0.2447727       63.89016
2017    1       5       0.2405499       63.01587
2017    1       6       0.2135064       57.07915
2017    1       7       0.1923545       52.37949
2017    2       0       0.1882509       51.47414
2017    2       1       0.1834234       50.39938
2017    2       2       0.1905025       52.0863
2017    2       3       0.1800872       49.66147
2017    2       4       0.1837591       50.58514
2017    2       5       0.1905052       52.17445
2017    2       6       0.1871494       51.42504
2017    2       7       0.173888        48.41628
2017    3       0       0.1713592       47.77538
2017    3       1       0.1703374       47.44458
2017    3       2       0.1651217       46.13117
2017    3       3       0.1620354       45.31258
2017    3       4       0.1633444       45.57683
2017    3       5       0.164627        45.90725
2017    3       6       0.1602017       44.83434
2017    3       7       0.1574354       44.17177
2017    4       0       0.1608568       44.97828
2017    4       1       0.1595259       44.67247
2017    4       2       0.1511711       42.8263
2017    4       3       0.1391908       40.05629
2017    4       4       0.1252118       36.75348
2017    4       5       0.118448        35.13852
2017    4       6       0.1149391       34.27528
2017    4       7       0.1151334       34.25231
2017    5       0       0.13082         38.10387
2017    5       1       0.1632271       45.61991
2017    5       2       0.170426        47.14536
2017    5       3       0.1404913       40.30369
2017    5       4       0.1033284       31.31745
2017    5       5       0.08377448      26.30499
2017    5       6       0.08063024      25.53289
2017    5       7       0.0841549       26.4087
2017    6       0       0.08488931      26.61918
2017    6       1       0.09010382      27.83798
2017    6       2       0.1084977       32.37404
2017    6       3       0.1289287       37.22475
2017    6       4       0.1413552       40.17402
2017    6       5       0.1500303       42.2582
2017    6       6       0.1820391       49.9143
2017    6       7       0.1577391       44.23861
2017    7       0       0.1553132       43.71079
2017    7       1       0.141053        40.32833
2017    7       2       0.129679        37.60526
2017    7       3       0.1277619       37.12527
2017    7       4       0.1266211       36.81936
2017    7       5       0.121727        35.58675
2017    7       6       0.1095135       32.63975
2017    7       7       0.1004931       30.46794
2017    8       0       0.1005445       30.5113
2017    8       1       0.1010954       30.7047
2017    8       2       0.1022548       31.02115
2017    8       3       0.1040979       31.45903
2017    8       4       0.1104907       33.05307
2017    8       5       0.1232479       36.17998
2017    8       6       0.1282585       37.43215
2017    8       7       0.1222726       36.04318
2017    9       0       0.1252758       36.80095
2017    9       1       0.1370332       39.63551
2017    9       2       0.1481116       42.28409
2017    9       3       0.1547899       43.87755
2017    9       4       0.1654231       46.42283
2017    9       5       0.1657724       46.50563
2017    9       6       0.1465976       41.93103
2017    9       7       0.1311199       38.27927
2017    10      0       0.102591        31.22022
2017    10      1       0.09109775      28.19395
2017    10      2       0.1025383       30.95364
2017    10      3       0.1286732       37.23528
2017    10      4       0.1495469       42.39173
2017    10      5       0.1649946       46.10559
2017    10      6       0.1629811       45.67378
2017    10      7       0.1476858       42.07704
2017    11      0       0.140412        40.34012
2017    11      1       0.1413762       40.55449
2017    11      2       0.1322535       38.32854
2017    11      3       0.1233269       36.12506
2017    11      4       0.1214852       35.72368
2017    11      5       0.1197623       35.34584
2017    11      6       0.1129982       33.65093
2017    11      7       0.1043322       31.41661
2017    12      0       0.1121557       33.17491
2017    12      1       0.1237195       35.63715
2017    12      2       0.1208133       34.90594
2017    12      3       0.1235647       35.46262
2017    12      4       0.1263862       36.22277
2017    12      5       0.1173421       34.24944
2017    12      6       0.1003353       30.23059
2017    12      7       0.08420053      26.38925
2017    13      0       0.07661443      24.46957
2017    13      1       0.07325446      23.62426
2017    13      2       0.07867814      25.13834
2017    13      3       0.08421408      26.66252
2017    13      4       0.07851994      25.32521
2017    13      5       0.1143568       34.32976
2017    13      6       0.1878483       51.35226
2017    13      7       0.2259761       59.33845
2017    14      0       0.2296541       59.98207
2017    14      1       0.2266515       59.66748
2017    14      2       0.2557267       65.85073
2017    14      3       0.2740427       69.36497
2017    14      4       0.2947024       73.65048
2017    14      5       0.2960908       73.78284
2017    14      6       0.3076458       76.03599
2017    14      7       0.3065456       75.82027
2017    15      0       0.2937491       73.24503
2017    15      1       0.2811975       70.75297
2017    15      2       0.3069822       76.01037
2017    15      3       0.3173671       78.25055
2017    15      4       0.3472391       84.20964
2017    15      5       0.3846534       91.28695
2017    15      6       0.4126699       96.32229
2017    15      7       0.4626173       104.9805
2017    16      0       0.4126606       96.41398
2017    16      1       0.3429687       83.52591
2017    16      2       0.3639843       87.3731
2017    16      3       0.4139053       96.64873
2017    16      4       0.4798007       108.6335
2017    16      5       0.4988012       111.8446
2017    16      6       0.509377        113.337
2017    16      7       0.4940144       110.6321
2017    17      0       0.484799        109.1072
2017    17      1       0.4622018       105.4736
2017    17      2       0.4410096       102.0551
2017    17      3       0.4240803       99.2685
2017    17      4       0.4345286       101.0954
2017    17      5       0.4537445       104.3549
2017    17      6       0.4079338       96.43046
2017    17      7       0.364846        88.62941
2017    18      0       0.3346189       82.65464
2017    18      1       0.3429047       84.67169
2017    18      2       0.2509045       65.5171
2017    18      3       0.230952        60.98131
2017    18      4       0.2083302       55.70642
2017    18      5       0.2031726       54.32498
2017    18      6       0.1994856       53.31384
2017    18      7       0.1702118       46.52952
2017    19      0       0.138688        38.93886
2017    19      1       0.1329673       37.58042
2017    19      2       0.1296604       37.00564
2017    19      3       0.1091702       32.07919
2017    19      4       0.1060756       31.30629
2017    19      5       0.125238        35.98418
2017    19      6       0.1418604       39.93541
2017    19      7       0.1556688       43.21149
2017    20      0       0.1657904       45.75889
2017    20      1       0.1797373       49.27598
2017    20      2       0.1960998       53.1736
2017    20      3       0.2253287       59.82491
2017    20      4       0.2824412       72.16797
2017    20      5       0.3216633       80.30666
2017    20      6       0.3067746       77.38031
2017    20      7       0.2307278       61.30099
2017    21      0       0.1704064       47.60627
2017    21      1       0.1418892       40.81702
2017    21      2       0.1314413       38.22587
2017    21      3       0.1619597       45.52169
2017    21      4       0.1905388       52.18607
2017    21      5       0.2080158       56.1695
2017    21      6       0.1928728       52.77221
2017    21      7       0.1678298       47.00891
2017    22      0       0.1534028       43.56998
2017    22      1       0.1491532       42.50016
2017    22      2       0.1453748       41.61595
2017    22      3       0.138548        40.0212
2017    22      4       0.1390766       40.16999
2017    22      5       0.1383948       40.06409
2017    22      6       0.1269924       37.39281
2017    22      7       0.1201627       35.77526
2017    23      0       0.1207264       35.90688
2017    23      1       0.1207045       35.91649
2017    23      2       0.1165093       34.93214
2017    23      3       0.1159405       34.81037
2017    23      4       0.1195781       35.73427
2017    23      5       0.1125615       34.04832
2017    23      6       0.09636462      30.05455
2017    23      7       0.08452432      26.96789
2017    24      0       0.08833741      27.8953
2017    24      1       0.09961333      30.71227
2017    24      2       0.1120438       33.75936
2017    24      3       0.1425193       41.13931
2017    24      4       0.213181        57.43258
2017    24      5       0.3038447       76.71407
2017    24      6       0.3940483       94.16507
2017    24      7       0.5096649       114.0346
2017    25      0       0.5745081       124.3253
2017    25      1       0.5786822       125.1286
2017    25      2       0.6014487       128.7349
2017    25      3       0.6476537       135.678
2017    25      4       0.6874161       141.3534
2017    25      5       0.7241882       146.3273
2017    25      6       0.728397        146.8592
2017    25      7       0.6813498       140.4387
2017    26      0       0.602614        128.9232
2017    26      1       0.5612688       122.1524
2017    26      2       0.5696023       123.0328
2017    26      3       0.5667623       122.4171
2017    26      4       0.584004        124.8786
2017    26      5       0.6207207       130.3134
2017    26      6       0.7042653       142.3246
2017    26      7       0.7057509       142.2823
2017    27      0       0.6634972       136.8314
2017    27      1       0.5851851       125.6847
2017    27      2       0.5565597       121.0395
2017    27      3       0.5928947       126.1887
2017    27      4       0.5785099       123.9196
2017    27      5       0.5271238       115.9737
2017    27      6       0.4960944       110.9485
2017    27      7       0.4677937       106.131
2017    28      0       0.4570523       104.1751
2017    28      1       0.445171        102.2001
2017    28      2       0.4000803       94.47232
2017    28      3       0.3932181       93.35201
2017    28      4       0.3944807       93.414
2017    28      5       0.4117744       96.50754
2017    28      6       0.4401836       101.7229
2017    28      7       0.4349386       101.0245
2017    29      0       0.382494        91.47992
2017    29      1       0.3889737       92.32507
2017    29      2       0.4429067       101.6856
2017    29      3       0.4517716       103.1172
2017    29      4       0.4247762       98.44959
2017    29      5       0.4165412       97.1494
2017    29      6       0.397706        93.91242
2017    29      7       0.3791677       90.59307
2017    30      0       0.3638362       87.78261
2017    30      1       0.3464353       84.56887
2017    30      2       0.3398069       83.39214
2017    30      3       0.2984599       75.2587
2017    30      4       0.2384257       62.59778
2017    30      5       0.223559        59.28963
2017    30      6       0.22799         60.34482
2017    30      7       0.2207128       58.93625
2017    31      0       0.1918972       52.56326
2017    31      1       0.1991534       53.98788
2017    31      2       0.2420035       62.96896
2017    31      3       0.2676956       68.03088
2017    31      4       0.2893553       72.5493
2017    31      5       0.3085647       76.85724
2017    31      6       0.3355526       82.48277
2017    31      7       0.3515866       85.58499
2018    1       0       0.1767869       48.63045
2018    1       1       0.1726241       47.54841
2018    1       2       0.1576594       43.99087
2018    1       3       0.1448215       40.99141
2018    1       4       0.1433521       40.6958
2018    1       5       0.1438963       40.88956
2018    1       6       0.1362469       39.21426
2018    1       7       0.1313556       38.14867
2018    2       0       0.1297486       37.80339
2018    2       1       0.1269309       37.15838
2018    2       2       0.1175066       34.92702
2018    2       3       0.106674        32.31381
2018    2       4       0.09799324      30.24542
2018    2       5       0.08971295      28.22534
2018    2       6       0.08666026      27.37774
2018    2       7       0.09082468      28.33892
2018    3       0       0.09466551      29.26181
2018    3       1       0.1007553       30.7477
2018    3       2       0.1102709       33.16698
2018    3       3       0.1133093       34.04432
2018    3       4       0.106656        32.5117
2018    3       5       0.1086195       33.07539
2018    3       6       0.1150035       34.65385
2018    3       7       0.1269015       37.47102
2018    4       0       0.1671841       46.73883
2018    4       1       0.2486084       64.46064
2018    4       2       0.2897402       72.81792
2018    4       3       0.3031107       75.34794
2018    4       4       0.3279578       80.04956
2018    4       5       0.3499671       84.33428
2018    4       6       0.3495698       84.47528
2018    4       7       0.339326        82.62241
2018    5       0       0.3329174       81.47428
2018    5       1       0.3292454       80.74919
2018    5       2       0.3309845       81.10386
2018    5       3       0.3166082       78.48259
2018    5       4       0.3424118       83.73439
2018    5       5       0.3367248       82.68113
2018    5       6       0.2714083       69.5365
2018    5       7       0.2108898       56.61686
2018    6       0       0.1507583       42.86698
2018    6       1       0.1011815       30.85094
2018    6       2       0.07663959      24.66448
2018    6       3       0.07080844      23.15937
2018    6       4       0.07508439      24.28182
2018    6       5       0.07787951      25.05556
2018    6       6       0.0722958       23.68647
2018    6       7       0.06809444      22.60823
2018    7       0       0.06703739      22.32217
2018    7       1       0.06782384      22.47441
2018    7       2       0.06236343      20.99992
2018    7       3       0.05670546      19.47359
2018    7       4       0.05165623      18.12827
2018    7       5       0.04689718      16.8751
2018    7       6       0.04566306      16.56703
2018    7       7       0.04184145      15.57929
2018    8       0       0.04068118      15.29202
2018    8       1       0.05833016      20.0434
2018    8       2       0.1180605       35.17887
2018    8       3       0.182337        50.3651
2018    8       4       0.2681435       68.95265
2018    8       5       0.4032448       95.0359
2018    8       6       0.4833046       108.7887
2018    8       7       0.5579053       119.9216
2018    9       0       0.515069        112.6101
2018    9       1       0.4744092       105.9932
2018    9       2       0.5642227       120.2143
2018    9       3       0.576742        121.9642
2018    9       4       0.5215246       113.9175
2018    9       5       0.5272679       114.9264
2018    9       6       0.5638668       120.4577
2018    9       7       0.5798614       123.0249
2018    10      0       0.5111576       112.4791
2018    10      1       0.455379        103.2448
2018    10      2       0.4058985       94.94066
2018    10      3       0.4065469       95.20456
2018    10      4       0.4786931       107.9555
2018    10      5       0.5033794       112.0886
2018    10      6       0.4809693       108.173
2018    10      7       0.4377626       100.6056
2018    11      0       0.411232        95.75699
2018    11      1       0.4086417       95.03284
2018    11      2       0.4023814       93.75171
2018    11      3       0.3877697       90.97756
2018    11      4       0.399368        93.21031
2018    11      5       0.4133818       95.7501
2018    11      6       0.4175279       96.35857
2018    11      7       0.4334863       99.05473
2018    12      0       0.5033462       110.7567
2018    12      1       0.491915        109.0054
2018    12      2       0.5259718       113.8879
2018    12      3       0.4558312       102.864
2018    12      4       0.4423071       100.7159
2018    12      5       0.4761328       106.4664
2018    12      6       0.5132216       112.4139
2018    12      7       0.4809151       106.8761
2018    13      0       0.4335088       98.69755
2018    13      1       0.3442522       82.51937
2018    13      2       0.304842        75.05272
2018    13      3       0.2636538       66.90787
2018    13      4       0.2144148       56.51069
2018    13      5       0.1732165       47.29696
2018    13      6       0.1622673       44.76234
2018    13      7       0.1564643       43.51141
2018    14      0       0.1407616       40.07044
2018    14      1       0.1286217       37.21887
2018    14      2       0.1252909       36.60782
2018    14      3       0.1288183       37.32452
2018    14      4       0.1262616       36.66754
2018    14      5       0.1194898       35.17055
2018    14      6       0.1159306       34.29264
2018    14      7       0.1095458       32.7859
2018    15      0       0.107315        32.3072
2018    15      1       0.1108096       33.25583
2018    15      2       0.1186429       35.24002
2018    15      3       0.1103062       33.19358
2018    15      4       0.1005929       30.82261
2018    15      5       0.1042257       31.71771
2018    15      6       0.1348412       39.16513
2018    15      7       0.165675        46.43823
2018    16      0       0.166526        46.66113
2018    16      1       0.1434428       41.28158
2018    16      2       0.1233513       36.4894
2018    16      3       0.1092056       33.08724
2018    16      4       0.1134055       34.13131
2018    16      5       0.1248316       36.88517
2018    16      6       0.1286649       37.78797
2018    16      7       0.1329679       38.76763
2018    17      0       0.1469048       42.08541
2018    17      1       0.1625907       45.76051
2018    17      2       0.1595664       45.0382
2018    17      3       0.1443106       41.53722
2018    17      4       0.1323822       38.75502
2018    17      5       0.1210044       36.04194
2018    17      6       0.1106631       33.54077
2018    17      7       0.1010078       31.16115
2018    18      0       0.08915467      28.16498
2018    18      1       0.07678513      24.96483
2018    18      2       0.07542799      24.52464
2018    18      3       0.08997499      28.19851
2018    18      4       0.1354635       39.3969
2018    18      5       0.1958431       53.48034
2018    18      6       0.246488        64.69666
2018    18      7       0.2748369       70.7499
2018    19      0       0.2876226       73.3302
2018    19      1       0.3659025       88.91369
2018    19      2       0.3612896       87.70039
2018    19      3       0.4033202       95.48355
2018    19      4       0.4897442       110.5881
2018    19      5       0.5224784       115.6566
2018    19      6       0.5354107       117.7687
2018    19      7       0.4897156       110.5338
2018    20      0       0.4298184       100.2286
2018    20      1       0.4028326       95.25688
2018    20      2       0.4261853       99.33944
2018    20      3       0.4728476       107.495
2018    20      4       0.5224773       115.9403
2018    20      5       0.5556752       121.343
2018    20      6       0.5128522       114.4943
2018    20      7       0.4641884       106.3758
2018    21      0       0.4378977       101.6391
2018    21      1       0.4128544       96.95681
2018    21      2       0.3332289       82.12195
2018    21      3       0.2474271       64.76982
2018    21      4       0.1845242       50.96446
2018    21      5       0.1792469       49.89059
2018    21      6       0.1218613       36.21692
2018    21      7       0.08627289      27.36189
2018    22      0       0.07797372      25.22763
2018    22      1       0.08253055      26.37515
2018    22      2       0.08201321      26.21935
2018    22      3       0.08045696      25.81242
2018    22      4       0.08160298      26.12935
2018    22      5       0.08729484      27.6239
2018    22      6       0.08940674      28.2127
2018    22      7       0.08593283      27.37129
2018    23      0       0.08346401      26.73962
2018    23      1       0.08424359      26.90404
2018    23      2       0.08626101      27.39068
2018    23      3       0.09464544      29.49722
2018    23      4       0.1135707       34.17133
2018    23      5       0.1243195       36.76869
2018    23      6       0.1269751       37.40441
2018    23      7       0.1314299       38.31994
2018    24      0       0.1843551       50.55893
2018    24      1       0.2871374       72.74112
2018    24      2       0.3624431       87.30882
2018    24      3       0.3872672       92.08921
2018    24      4       0.3838514       91.65771
2018    24      5       0.4525159       103.9492
2018    24      6       0.5148362       114.3787
2018    24      7       0.5350385       117.863
2018    25      0       0.5392248       118.7875
2018    25      1       0.5199005       115.5249
2018    25      2       0.4839781       109.1617
2018    25      3       0.4610597       105.146
2018    25      4       0.4611601       105.263
2018    25      5       0.4962121       111.3693
2018    25      6       0.4649478       106.186
2018    25      7       0.3947568       93.76746
2018    26      0       0.3717926       89.56912
2018    26      1       0.365458        88.26756
2018    26      2       0.3398419       83.24557
2018    26      3       0.2618182       67.48407
2018    26      4       0.1782663       49.09185
2018    26      5       0.1649315       45.8583
2018    26      6       0.19411         52.42436
2018    26      7       0.2250222       59.35494
2018    27      0       0.2246086       59.49234
2018    27      1       0.1940053       52.93261
2018    27      2       0.1653623       46.49519
2018    27      3       0.1611319       45.56946
2018    27      4       0.1742621       48.60424
2018    27      5       0.1905224       52.30151
2018    27      6       0.1964709       53.60187
2018    27      7       0.2042327       55.29034
2018    28      0       0.2424274       63.62576
2018    28      1       0.2734796       70.1923
2018    28      2       0.2758809       70.71
2018    28      3       0.2744516       70.34239
2018    28      4       0.2910051       73.68662
2018    28      5       0.3250554       80.52106
2018    28      6       0.3204371       79.68319
2018    28      7       0.3067186       77.04854
2018    29      0       0.3081426       77.34167
2018    29      1       0.3108597       77.90847
2018    29      2       0.314852        78.75557
2018    29      3       0.3277787       81.41964
2018    29      4       0.3929854       93.76489
2018    29      5       0.464221        106.2766
2018    29      6       0.4714246       107.4848
2018    29      7       0.4551382       104.7902
2018    30      0       0.4392555       101.909
2018    30      1       0.4499413       103.4612
2018    30      2       0.450634        103.4801
2018    30      3       0.4135702       96.81955
2018    30      4       0.3804189       90.87357
2018    30      5       0.4659257       106.9093
2018    30      6       0.4065142       95.96227
2018    30      7       0.3840547       91.52706
2018    31      0       0.3737566       89.21542
2018    31      1       0.3686027       88.04427
2018    31      2       0.3650481       87.36401
2018    31      3       0.3663466       87.59618
2018    31      4       0.3170543       78.21928
2018    31      5       0.2280191       59.81422
2018    31      6       0.201456        53.98754
2018    31      7       0.1868456       50.56646
