####################################################################################################
# Month: 11Nov                                                                                     #
# Station: SMT                                                                                     #
# Frequency: 345 GHz                                                                               #
# Columns are: year    day     tau     Tb (K)                                                      #
####################################################################################################
2009    1       0.23282854      61.09978625
2009    2       0.27294614      69.33274375
2009    3       0.25294675      64.90363375
2009    4       0.24476704      62.46822375
2009    5       0.63905376      126.4880125
2009    6       0.47452801      104.13707875
2009    7       0.60470345      123.8456375
2009    8       0.7639071       145.5448875
2009    9       0.47263282      100.82358
2009    10      0.34137844      81.49752875
2009    11      0.46730384      101.43951875
2009    12      0.693069        137.180825
2009    13      0.79216844      146.4219125
2009    14      0.68139179      133.9903375
2009    15      0.2211908       54.531655
2009    16      0.13907985      39.92366375
2009    17      0.15436711      43.25217875
2009    18      0.16575834      45.55759375
2009    19      0.30774269      73.69560625
2009    20      0.21268081      55.23668375
2009    21      0.17709479      47.62700125
2009    22      0.17449966      46.424635
2009    23      0.2744084       67.07027125
2009    24      0.31253136      74.94105625
2009    25      0.24907029      63.12342875
2009    26      0.19196898      51.3787225
2009    27      0.66937044      131.21962625
2009    28      0.57718544      118.11634875
2009    29      0.50381917      103.85618625
2009    30      0.77651059      139.9636
2010    1       0.39673242      90.02376875
2010    2       0.53280096      115.0014025
2010    3       0.5215765       114.24364625
2010    4       0.28002829      70.0352775
2010    5       0.53350599      114.9666125
2010    6       0.35207619      83.4278625
2010    7       0.22143399      58.021665
2010    8       0.28423041      71.12415875
2010    9       0.37036394      83.32746625
2010    10      0.24156656      61.39552625
2010    11      0.22932551      58.59090375
2010    12      0.21358641      53.49881625
2010    13      0.33170032      78.31418875
2010    14      0.39707065      88.27262125
2010    15      0.48826269      104.75875875
2010    16      0.35206271      82.978775
2010    17      0.19604751      51.45821
2010    18      0.11132829      33.02488625
2010    19      0.17507892      47.68043125
2010    20      0.29653708      70.92913125
2010    21      0.29937639      72.2407325
2010    22      0.1137753       33.82773
2010    23      0.27158084      63.0836525
2010    24      0.61600032      117.285175
2010    25      0.30062041      68.36334
2010    26      0.12623481      36.72189875
2010    27      0.150924        42.56970875
2010    28      0.1899734       50.07961
2010    29      0.1330378       37.51036875
2010    30      0.1210662       35.05606875
2011    1       0.50855466      109.54358
2011    2       0.25095439      61.233955
2011    3       0.36037658      79.85972625
2011    4       0.63391732      126.9520275
2011    5       0.72980805      133.53251
2011    6       0.53360155      110.40328375
2011    7       0.43330069      93.3223925
2011    8       0.16150676      44.16543125
2011    9       0.17015899      45.732885
2011    10      0.15986436      43.51045875
2011    11      0.57484575      106.58107625
2011    12      1.15988039      180.0356375
2011    13      1.08672117      176.6926125
2011    14      0.59621936      120.53110125
2011    15      0.57545785      120.2623375
2011    16      0.4107062       93.1647075
2011    17      0.33890566      81.81719625
2011    18      0.33011735      78.37579375
2011    19      0.65820691      127.77947125
2011    20      0.88226131      153.6159375
2011    21      0.634219        125.8740875
2011    22      0.24961305      63.188925
2011    23      0.12372372      36.7036975
2011    24      0.74069584      124.480075
2011    25      0.91566795      153.42713375
2011    26      0.2184828       57.051665
2011    27      0.23200671      58.7786675
2011    28      0.43092111      97.21838375
2011    29      0.32535128      76.98555625
2011    30      0.11697644      34.34410375
2012    1       0.34478159      82.622545
2012    2       0.65803419      132.5857125
2012    3       0.67407138      134.0582125
2012    4       0.42921276      97.05609625
2012    5       0.45240348      101.64481375
2012    6       0.39048479      91.63724125
2012    7       0.29562446      74.07749
2012    8       0.85364699      150.87555
2012    9       1.13348311      181.2049
2012    10      0.36451592      82.36557375
2012    11      0.14338632      40.20309625
2012    12      0.33014441      78.39027125
2012    13      0.25264473      63.2858275
2012    14      0.18494064      48.70725375
2012    15      0.67665305      128.12028375
2012    16      1.53327238      207.5402
2012    17      0.77102951      128.664055
2012    18      1.11850896      161.45928375
2012    19      0.15860201      43.71579125
2012    20      0.11812596      34.33024
2012    21      1.14900469      175.4892925
2012    22      0.6589738       129.382675
2012    23      0.41229598      93.64030375
2012    24      0.29174174      72.18474
2012    25      0.27488669      69.35656375
2012    26      0.33123022      78.86154375
2012    27      0.24830269      63.48181
2012    28      0.45534672      100.374535
2012    29      0.44047005      98.44336625
2012    30      0.23936652      61.74713375
2013    1       0.21856522      56.77217
2013    2       0.20354952      54.5130025
2013    3       0.6609395       129.3090625
2013    4       0.23756076      60.83379375
2013    5       0.41047435      89.397255
2013    6       0.16604401      45.77662
2013    7       0.17136429      46.84804125
2013    8       0.22661576      57.83238875
2013    9       0.33454786      79.07334375
2013    10      0.31901971      75.66919125
2013    11      0.58161018      119.61989125
2013    12      0.37155088      87.82815375
2013    13      0.70943492      138.71235
2013    14      0.57165704      119.308395
2013    15      0.6843846       124.97256
2013    16      0.35023849      73.2724
2013    17      0.30520456      74.64164875
2013    18      0.39709411      88.63808
2013    19      0.4155327       93.55514125
2013    20      1.3276557       189.2082375
2013    21      1.07830794      174.1282625
2013    22      1.71373012      219.43905
2013    23      1.01603055      170.5213
2013    24      0.87944992      149.6816
2013    25      0.4783073       101.49172625
2013    26      0.38945002      90.53793625
2013    27      0.39088118      89.3596725
2013    28      0.44621897      95.71011
2013    29      0.24515226      61.89016125
2013    30      0.4021456       89.83811375
2014    1       0.84354168      148.46895
2014    2       0.96250588      163.859
2014    3       0.27630486      66.585355
2014    4       0.16539389      45.1143475
2014    5       0.25484311      62.89859625
2014    6       0.27256061      68.6510675
2014    7       0.38202316      89.4324625
2014    8       0.4547262       100.40657875
2014    9       0.46338162      104.55097
2014    10      0.54622262      115.76700875
2014    11      0.3533665       82.23369125
2014    12      0.53080901      112.23422
2014    13      0.50878646      109.25875875
2014    14      0.69753941      135.125375
2014    15      0.54728564      112.03923375
2014    16      0.57129489      112.72393125
2014    17      0.13917782      38.67568
2014    18      0.1065989       32.07174375
2014    19      0.24458745      59.258365
2014    20      0.48194274      104.64456375
2014    21      0.32204394      73.5117375
2014    22      0.5459449       109.36636375
2014    23      0.44427206      96.086755
2014    24      0.23760036      59.469575
2014    25      0.2363419       58.79584375
2014    26      0.422138        96.0555175
2014    27      0.36889172      85.85138
2014    28      0.30664134      74.919955
2014    29      0.26409611      66.633215
2014    30      0.26513802      66.0716375
2015    1       0.3510268       83.6573975
2015    2       0.27490432      69.095855
2015    3       0.27748825      68.6952525
2015    4       0.5118683       107.397015
2015    5       0.23753257      58.56192875
2015    6       0.47552321      101.872755
2015    7       0.41221958      94.65020875
2015    8       0.26132078      66.5778275
2015    9       0.21025309      55.25828375
2015    10      0.33043365      78.88431875
2015    11      0.09523269      29.68473875
2015    12      0.1080761       32.7008425
2015    13      0.19025761      50.3006925
2015    14      0.40708012      92.973725
2015    15      1.07647106      169.26384125
2015    16      0.7232796       136.25692125
2015    17      0.3695178       82.53058125
2015    18      0.56463534      117.9208175
2015    19      0.26234144      66.76086
2015    20      0.26680076      68.0611825
2015    21      0.32412395      77.3055275
2015    22      0.39178939      90.59493375
2015    23      0.40888051      92.79957125
2015    24      0.26063196      65.6810475
2015    25      0.98339026      161.9968625
2015    26      1.09162909      173.48475
2015    27      0.33090607      75.8335975
2015    28      0.12738341      36.96441375
2015    29      0.20361891      53.23645125
2015    30      0.14723289      40.75207875
2016    1       0.86108552      149.37477
2016    2       0.56358639      114.74551125
2016    3       1.31102471      195.136125
2016    4       1.32328769      193.5259375
2016    5       0.66341485      133.06925
2016    6       0.55726185      114.81099125
2016    7       0.42507885      95.0074175
2016    8       0.52948704      113.336755
2016    9       0.2071176       54.1714675
2016    10      0.54623165      112.18778875
2016    11      0.65492649      128.8606125
2016    12      0.52255039      109.62517875
2016    13      0.53127918      112.18226625
2016    14      0.34125569      80.86750625
2016    15      0.55739318      119.7755375
2016    16      0.4414277       99.86986
2016    17      0.50478041      103.806135
2016    18      0.52969856      111.60189625
2016    19      0.38277629      90.0337775
2016    20      1.00157796      163.69008375
2016    21      1.68748938      214.39795
2016    22      0.20389028      52.74936125
2016    23      0.17543174      47.8040025
2016    24      0.1916403       51.0349775
2016    25      0.3157456       75.4702675
2016    26      0.3696374       80.76648
2016    27      0.8742468       136.46541
2016    28      0.70317391      130.85024375
2016    29      0.43791294      88.35384125
2016    30      0.23630409      58.98893
2017    1       1.07385576      175.088075
2017    2       0.49546524      107.0195075
2017    3       0.42161978      95.47084875
2017    4       1.31306525      193.66685
2017    5       0.92641998      163.1826125
2017    6       0.9236468       162.8852375
2017    7       1.41170454      200.71725
2017    8       1.04640999      160.43938625
2017    9       0.44894331      92.91830375
2017    10      0.38769244      89.29134375
2017    11      0.78537991      147.4576875
2017    12      0.99638495      168.849425
2017    13      0.80706534      148.7105375
2017    14      1.06553999      175.311825
2017    15      0.67612061      133.075225
2017    16      1.13457834      182.26095
2017    17      0.97479838      169.5167375
2017    18      0.57304866      100.54427625
2017    19      0.13047294      37.213115
2017    20      0.37176945      81.26685625
2017    21      1.13865155      184.569825
2017    22      0.81602575      153.108225
2017    23      0.32053396      77.73283625
2017    24      0.439096        95.6006125
2017    25      0.86362104      158.5619625
2017    26      0.36739178      86.9549925
2017    27      0.28729536      70.41025875
2017    28      0.28017949      68.239585
2017    29      0.61098095      119.73676125
2017    30      1.31991975      194.1750375
2018    1       0.50018747      104.20480375
2018    2       0.51615754      110.973995
2018    3       0.35882245      83.99722875
2018    4       1.08860478      177.3288625
2018    5       0.761498        144.9744
2018    6       0.85653661      156.5201125
2018    7       0.7688809       147.635875
2018    8       0.51915853      111.1266
2018    9       0.58469868      120.856725
2018    10      0.4943249       104.57458625
2018    11      0.18431312      49.6145225
2018    12      0.08995239      28.13907625
2018    13      0.15069322      41.98713125
2018    14      0.1461767       40.441835
2018    15      0.21232156      53.8346075
2018    16      0.21592979      55.56163875
2018    17      0.35112169      80.72226875
2018    18      0.59462514      115.918575
2018    19      0.42930959      91.03575875
2018    20      0.39711498      84.43650125
2018    21      0.51945086      107.70819375
2018    22      0.80171706      140.1445325
2018    23      0.22676356      57.58525125
2018    24      0.48246895      105.58282625
2018    25      0.3874736       88.42001625
2018    26      0.34669552      80.26224125
2018    27      0.24817565      62.5927025
2018    28      0.54325689      111.92375625
2018    29      0.76790302      145.6628125
2018    30      0.6619672       129.25995
