####################################################################################################
# Month: 04Apr                                                                                     #
# Station: NOB                                                                                     #
# Frequency: 230 GHz                                                                               #
# Columns are: year    day     tau     Tb (K)                                                      #
####################################################################################################
2009    1       0.56480804      114.88467625
2009    2       0.19709398      50.48052625
2009    3       0.24305042      61.07441
2009    4       0.67467518      130.3116325
2009    5       0.37797018      87.36485125
2009    6       0.28674904      69.96607125
2009    7       0.32501749      77.51233625
2009    8       0.28431178      69.46091
2009    9       0.32169832      78.29228375
2009    10      0.25052971      63.040655
2009    11      0.34947519      82.8302375
2009    12      0.60956938      124.756825
2009    13      0.73954509      143.514425
2009    14      1.36091363      203.7278625
2009    15      0.54754568      113.45880125
2009    16      0.81332414      148.24935
2009    17      0.49778452      99.121135
2009    18      0.40943914      93.68241125
2009    19      0.67873662      137.1621525
2009    20      0.91577996      164.6941625
2009    21      1.16210224      188.3753125
2009    22      0.57564494      120.564625
2009    23      0.62221105      126.98240625
2009    24      0.97474929      167.064725
2009    25      1.23279385      193.47415
2009    26      0.5597223       117.1807125
2009    27      0.33074788      77.65918125
2009    28      0.29046431      70.22203125
2009    29      0.36365768      85.16743375
2009    30      0.35311286      84.42894
2010    1       1.39705562      206.8900625
2010    2       0.47812166      97.78216875
2010    3       0.2290613       57.73518875
2010    4       0.71056641      133.606685
2010    5       0.90016631      156.230395
2010    6       0.79978019      149.479275
2010    7       0.55584126      113.82102625
2010    8       0.25414512      62.54529625
2010    9       0.29198762      69.77433375
2010    10      0.87341932      155.9999725
2010    11      1.34974512      202.683025
2010    12      1.23525721      194.2693
2010    13      0.67759702      130.9516625
2010    14      0.57190471      115.792455
2010    15      0.75876641      142.2667375
2010    16      0.75645806      143.0572375
2010    17      0.30330682      71.0896175
2010    18      0.3794133       86.35604
2010    19      0.59928691      121.39946375
2010    20      1.02391328      174.5194
2010    21      0.8830276       156.3746
2010    22      1.63309175      221.905725
2010    23      1.0032842       158.9990675
2010    24      0.31636819      74.67702375
2010    25      0.29123424      69.74201875
2010    26      0.54994608      111.11067375
2010    27      1.09605088      181.65435
2010    28      0.6826995       133.38144625
2010    29      0.38970535      87.42138375
2010    30      0.45789321      100.35781125
2011    1       0.31582018      75.0617075
2011    2       0.44841109      97.14445375
2011    3       0.26594635      64.20161625
2011    4       0.13870896      37.99199
2011    5       0.16934002      45.29053
2011    6       0.2221177       56.70180125
2011    7       0.67909821      132.34308375
2011    8       1.16837087      187.885025
2011    9       0.70813734      126.3220675
2011    10      0.28015216      69.23403625
2011    11      0.38749851      83.58970375
2011    12      0.18465038      48.3250825
2011    13      0.24039646      61.23419125
2011    14      0.33948194      80.7744075
2011    15      0.77008325      144.45102625
2011    16      0.34617477      73.36235125
2011    17      0.37499666      85.08569875
2011    18      0.90991134      153.84422375
2011    19      0.6370186       126.1475
2011    20      0.54685465      115.1136025
2011    21      0.465263        102.6438475
2011    22      1.01893411      171.6116
2011    23      1.01947714      165.223355
2011    24      0.54064985      112.1379225
2011    25      0.45772524      98.584375
2011    26      0.98555732      167.6912875
2011    27      1.23902944      192.03
2011    28      0.53849592      113.3472675
2011    29      0.50909574      108.28247375
2011    30      0.97977775      170.4656
2012    1       0.29144936      69.66705625
2012    2       0.29496058      71.2035575
2012    3       0.72608874      133.28974
2012    4       0.37120392      83.4163725
2012    5       0.43256449      93.312055
2012    6       0.36629843      82.16367125
2012    7       0.2876227       68.53436875
2012    8       0.31654984      75.62289875
2012    9       0.48720194      101.5672725
2012    10      0.54737976      107.49837
2012    11      1.05419332      173.0796725
2012    12      0.45176161      96.1877075
2012    13      0.85729532      151.458875
2012    14      0.72000568      130.2299475
2012    15      0.47687164      103.84683375
2012    16      0.64190609      128.6777375
2012    17      0.58821641      120.26802
2012    18      0.417182        94.319695
2012    19      0.87253971      152.63077375
2012    20      1.15889731      180.8197625
2012    21      0.63794106      129.24815
2012    22      1.06951466      179.1607875
2012    23      0.79547355      144.7880175
2012    24      0.59017368      123.91490875
2012    25      0.93922934      163.4462875
2012    26      1.68911125      225.418025
2012    27      0.69764663      130.6003025
2012    28      0.3147417       77.41024625
2012    29      0.48654224      107.14379625
2012    30      0.95819672      168.81095
2013    1       0.53722339      109.8519575
2013    2       1.16400699      186.233025
2013    3       0.8192074       137.281715
2013    4       0.30269985      73.47652
2013    5       0.58095032      117.45830875
2013    6       1.45657538      206.7620375
2013    7       0.55828846      114.94100875
2013    8       0.25379556      63.317795
2013    9       0.44471066      97.84140875
2013    10      0.44509054      97.1303725
2013    11      0.41875449      91.16682125
2013    12      0.38716202      86.98286625
2013    13      0.24931468      62.57045
2013    14      0.76747078      142.19346
2013    15      0.45122841      99.90962625
2013    16      0.56271688      119.10286375
2013    17      0.89329368      162.251225
2013    18      0.90840264      161.60505
2013    19      0.45780044      99.12591
2013    20      0.8855961       157.9933
2013    21      0.42836215      90.8599225
2013    22      0.23801384      59.212075
2013    23      0.63627021      123.19969
2013    24      1.04356449      165.78675375
2013    25      0.42234532      93.92227375
2013    26      0.61767898      124.08275
2013    27      0.40362232      91.3111175
2013    28      0.2502764       62.89051
2013    29      0.67552556      132.4526
2013    30      0.6918564       129.85696625
2014    1       0.46633716      101.8845825
2014    2       0.540513        114.2052225
2014    3       1.11080142      179.7599625
2014    4       0.58350649      116.36712
2014    5       0.45394528      97.14144625
2014    6       0.34745971      79.3569225
2014    7       0.23592082      59.772195
2014    8       0.22720771      58.07328125
2014    9       0.29393246      71.8187525
2014    10      0.2799901       64.25321375
2014    11      0.14557672      39.7527325
2014    12      0.19118092      49.98451375
2014    13      0.24604725      61.52316625
2014    14      0.29734192      72.13178375
2014    15      0.30433709      72.54212375
2014    16      0.56206649      116.14168125
2014    17      0.79990766      149.871075
2014    18      0.934607        153.6178325
2014    19      0.48626654      104.5456875
2014    20      0.81699091      151.7351375
2014    21      1.28513325      197.6956375
2014    22      0.54997061      114.3453175
2014    23      0.35505949      83.41993875
2014    24      0.42170122      94.578135
2014    25      0.37530065      86.5097225
2014    26      0.4383815       98.88774375
2014    27      0.33199566      77.883365
2014    28      0.71202164      135.8244225
2014    29      1.14471406      185.822325
2014    30      1.25659038      197.278975
2015    1       0.97335576      151.39031375
2015    2       0.69608296      130.48716
2015    3       1.42879238      210.9754125
2015    4       1.40719225      209.1273625
2015    5       1.593342        218.3643375
2015    6       1.66478962      224.3111875
2015    7       1.440178        206.0487375
2015    8       0.64016471      125.67308875
2015    9       0.35731999      82.94678
2015    10      0.92547629      161.3988125
2015    11      0.77108636      138.0744025
2015    12      0.33770938      76.4510275
2015    13      1.16483928      186.9611
2015    14      1.1555092       177.652325
2015    15      0.7096331       136.30987
2015    16      0.53638407      110.76088625
2015    17      0.38498098      81.14601125
2015    18      0.34916876      81.97195625
2015    19      1.1498682       182.99195
2015    20      1.641352        223.3868
2015    21      0.70208         140.1268
2015    22      0.84378121      155.2751875
2015    23      0.43378835      98.91829125
2015    24      0.5552127       116.741095
2015    25      0.36714641      85.733035
2015    26      0.37602726      88.27787125
2015    27      0.48686451      108.30676875
2015    28      0.58829551      122.4199075
2015    29      0.71425955      140.0497375
2015    30      0.55604771      119.3398625
2016    1       0.6395367       127.26989
2016    2       0.82165259      152.575325
2016    3       1.17524529      188.09245
2016    4       1.05254499      173.211325
2016    5       0.33664651      78.18495875
2016    6       0.4933682       101.6675475
2016    7       1.15721135      175.7468925
2016    8       0.30695859      73.63320125
2016    9       0.33449319      80.0677075
2016    10      0.4264187       95.71397
2016    11      0.20883666      53.291235
2016    12      0.4832447       102.874945
2016    13      1.20608962      189.97415
2016    14      0.86566726      154.2471125
2016    15      0.26191915      65.01287
2016    16      0.6348121       119.80970875
2016    17      0.64709483      122.25498
2016    18      0.50052993      98.75757375
2016    19      0.34677698      79.222355
2016    20      0.58982169      120.30018
2016    21      1.53329612      214.9854125
2016    22      0.8453018       153.83117875
2016    23      1.03770138      174.9972125
2016    24      0.7600075       145.49665
2016    25      0.66937065      136.3637875
2016    26      0.58070482      123.6190125
2016    27      1.19754309      189.138075
2016    28      1.39636925      202.0286625
2016    29      0.43222388      97.14057
2016    30      0.66770088      132.7571625
2017    1       0.44756421      96.75016375
2017    2       0.27304144      65.69054875
2017    3       0.39449051      86.46832625
2017    4       0.23348909      59.02451375
2017    5       0.47935842      101.9740075
2017    6       1.13305866      180.322975
2017    7       1.2118275       194.6402875
2017    8       1.66738462      226.0695
2017    9       0.70301008      122.9319925
2017    10      0.53243568      110.12062125
2017    11      0.97121055      167.8054375
2017    12      0.36203034      80.72169375
2017    13      0.28825401      68.86696
2017    14      0.48426626      105.284475
2017    15      0.64163991      122.3894425
2017    16      0.48875125      106.56300125
2017    17      1.22933075      186.584825
2017    18      0.70770918      138.4323525
2017    19      0.45180729      101.29035
2017    20      0.66809585      132.4202375
2017    21      0.61653829      124.5495325
2017    22      0.41442374      93.1078925
2017    23      0.43995838      97.95419625
2017    24      0.52988409      113.50395
2017    25      0.77383768      143.1754325
2017    26      1.19319135      185.3585125
2017    27      0.33620525      79.025695
2017    28      0.48287502      104.95411125
2017    29      0.52045404      108.32388
2017    30      0.57676335      122.32395
2018    1       0.77680781      146.46138
2018    2       0.73833464      144.746025
2018    3       0.78238206      151.2985875
2018    4       0.79383027      144.581295
2018    5       0.98763169      167.742375
2018    6       1.26460926      193.1685875
2018    7       0.54823586      112.58818125
2018    8       0.32607712      75.85998125
2018    9       0.41014799      88.4952625
2018    10      0.47304539      98.20315375
2018    11      1.04237314      172.7857125
2018    12      0.3321602       77.39859625
2018    13      0.35700519      82.9244375
2018    14      1.34268492      198.7534875
2018    15      0.74405064      136.57749125
2018    16      0.5921632       122.2715125
2018    17      1.02441186      173.080225
2018    18      0.57674709      116.0034125
2018    19      0.47347389      102.13909375
2018    20      0.3720525       88.14736125
2018    21      0.34891964      83.5881375
2018    22      0.44554415      101.6784425
2018    23      0.97678486      166.038525
2018    24      1.58347088      219.0241625
2018    25      0.90014358      148.48863125
2018    26      0.5236133       112.48460625
2018    27      0.58134731      116.95024125
2018    28      0.32536048      78.7902975
2018    29      0.3027378       73.70470625
2018    30      0.58460946      120.61889625
