####################################################################################################
# Month: 11Nov                                                                                     #
# Station: BAR                                                                                     #
# Frequency: 345 GHz                                                                               #
# Columns are: year    day     tau     Tb (K)                                                      #
####################################################################################################
2009    1       0.23738916      60.3284425
2009    2       0.21701884      56.12976375
2009    3       0.21816256      56.46955625
2009    4       0.19526459      51.55254625
2009    5       0.30408604      71.78923
2009    6       0.24866862      62.03072125
2009    7       0.22509484      56.90900625
2009    8       0.20056156      50.368165
2009    9       0.37106299      83.2369725
2009    10      0.56969451      115.071765
2009    11      0.61885354      120.76799875
2009    12      0.56911264      112.5799225
2009    13      0.36714609      78.4856775
2009    14      0.28130504      66.62407
2009    15      0.33121424      77.4801175
2009    16      0.28157459      67.61249125
2009    17      0.19084885      50.8184175
2009    18      0.23896095      60.0081
2009    19      0.16800861      45.0081825
2009    20      0.13601089      38.19975375
2009    21      0.21064301      53.3377425
2009    22      0.31860738      73.76083875
2009    23      0.36045738      82.22847625
2009    24      0.33971161      78.90502875
2009    25      0.39011633      87.32533375
2009    26      0.1221932       35.0949325
2009    27      0.23208624      57.29375375
2009    28      0.47892825      100.34573
2009    29      0.28054604      66.3456775
2009    30      0.17597949      47.05623125
2010    1       0.67810269      132.540075
2010    2       0.48348256      106.6296
2010    3       0.39380812      91.22460375
2010    4       0.39751402      90.74920375
2010    5       0.51689154      109.619605
2010    6       0.40955938      89.97608125
2010    7       0.57865121      115.73789875
2010    8       0.37660925      79.31297125
2010    9       0.2133047       53.84093
2010    10      0.2108287       52.8916775
2010    11      0.14190992      38.05644125
2010    12      0.3634139       82.01632875
2010    13      0.31816209      73.4665725
2010    14      0.47472412      101.12131
2010    15      0.31389738      74.4745725
2010    16      0.2089797       53.7994075
2010    17      0.27134051      66.2643575
2010    18      0.23621106      59.145885
2010    19      0.3400372       77.44261375
2010    20      0.42571488      90.91411375
2010    21      0.17453732      45.20277625
2010    22      0.16025986      42.23801875
2010    23      0.25648962      62.15155375
2010    24      0.15547525      41.11375625
2010    25      0.12913234      36.62272625
2010    26      0.17779535      47.1082075
2010    27      0.23361142      56.7287675
2010    28      0.17359198      44.8023225
2010    29      0.12042283      34.12854
2010    30      0.48440772      101.2561775
2011    1       0.21176002      52.91058
2011    2       0.18657251      49.40941875
2011    3       0.25760489      64.0759425
2011    4       0.32307266      74.72959125
2011    5       0.32960228      74.6255075
2011    6       0.36799151      81.8988175
2011    7       0.25314381      59.9871225
2011    8       0.15535527      42.074375
2011    9       0.17548508      46.588575
2011    10      0.16116946      42.6737025
2011    11      0.56977026      111.37940875
2011    12      0.48160396      102.30303625
2011    13      0.58277418      109.08426125
2011    14      0.63790014      125.30603
2011    15      0.30199608      71.3322475
2011    16      0.49816422      105.68221
2011    17      0.21673691      55.2597775
2011    18      0.21631574      54.38852125
2011    19      0.36346631      81.81507375
2011    20      0.33693499      73.8011275
2011    21      0.32023011      72.57889125
2011    22      0.27494794      66.34788375
2011    23      0.22652711      57.342605
2011    24      0.26177196      63.59905875
2011    25      0.2694751       65.56517125
2011    26      0.38201974      86.91766125
2011    27      0.39145654      88.497675
2011    28      0.22649954      56.50244875
2011    29      0.29030765      68.28603375
2011    30      0.2414025       59.7385875
2012    1       0.63760976      123.512155
2012    2       0.44737645      92.7699725
2012    3       0.42129875      93.1694225
2012    4       0.58629681      120.3316
2012    5       0.34241748      79.54318875
2012    6       0.15956532      43.84980875
2012    7       0.2213954       57.18900375
2012    8       0.2525405       62.84941125
2012    9       0.18651109      48.08699875
2012    10      0.21525732      53.1574025
2012    11      0.26598865      62.67796125
2012    12      0.50124009      104.68861125
2012    13      0.20577505      52.82310375
2012    14      0.3758281       84.83197375
2012    15      0.48974341      104.27174875
2012    16      0.74236216      136.9513325
2012    17      0.48992839      103.30109875
2012    18      0.25385426      62.1583825
2012    19      0.59776724      117.617925
2012    20      0.68532101      132.5326125
2012    21      0.41865745      92.15716
2012    22      0.55425024      113.74988375
2012    23      0.2055321       53.61245125
2012    24      0.14141529      40.236045
2012    25      0.1541662       42.412665
2012    26      0.15486889      41.5776175
2012    27      0.13977419      38.82836875
2012    28      0.51304245      106.84014625
2012    29      0.41913636      88.65767375
2012    30      0.64049401      126.5387125
2013    1       0.16747388      46.0948025
2013    2       0.1771956       47.7147625
2013    3       0.14611909      39.93389625
2013    4       0.31554563      70.9598975
2013    5       0.19359626      49.52593375
2013    6       0.4894999       103.654975
2013    7       0.709919        134.341625
2013    8       0.45285932      97.57830875
2013    9       0.37104056      84.979835
2013    10      0.41860872      92.62162
2013    11      0.45551818      99.13954375
2013    12      0.70011244      129.98491875
2013    13      0.31093006      72.97448
2013    14      0.12354162      35.41218375
2013    15      0.12311719      35.54002625
2013    16      0.42096908      91.21533875
2013    17      0.2257269       57.83263875
2013    18      0.2895721       69.2371325
2013    19      0.68427324      129.25398625
2013    20      0.694995        129.87683
2013    21      0.51926986      107.0453375
2013    22      0.64575442      124.6236875
2013    23      0.70188202      133.2259875
2013    24      0.5521548       112.06689
2013    25      0.21284764      54.54807625
2013    26      0.34527451      80.731335
2013    27      0.52371794      108.52937875
2013    28      0.42664672      92.27802875
2013    29      0.38386694      85.9298825
2013    30      0.22517985      56.568515
2014    1       0.43352966      93.63848875
2014    2       0.28037716      64.93804875
2014    3       0.19973905      50.61341875
2014    4       0.56517987      113.18466375
2014    5       0.38391889      85.5663825
2014    6       0.32172981      76.1639925
2014    7       0.32579252      76.11277875
2014    8       0.54463665      113.1497675
2014    9       0.58385859      118.4094975
2014    10      0.30065878      70.98349875
2014    11      0.21093176      54.00443875
2014    12      0.40992372      89.89884875
2014    13      0.48376942      99.83069
2014    14      0.44944924      95.0871575
2014    15      0.4149507       90.9706125
2014    16      0.17931696      46.07943375
2014    17      0.23168198      57.38276875
2014    18      0.16703806      43.20105
2014    19      0.64402036      123.78188
2014    20      0.27226146      64.54262875
2014    21      0.35719268      79.87824125
2014    22      0.65686291      124.4189725
2014    23      0.32897098      75.901875
2014    24      0.3427007       78.69634
2014    25      0.36931235      84.3348675
2014    26      0.3355786       77.687035
2014    27      0.35237962      81.18855625
2014    28      0.18856302      49.52931875
2014    29      0.20101494      52.59405125
2014    30      0.31337141      72.11317875
2015    1       0.33471837      78.4992325
2015    2       0.52444205      109.191605
2015    3       0.46956332      97.20013375
2015    4       0.21470408      53.28694125
2015    5       0.28309361      63.61183375
2015    6       0.30874158      71.88981375
2015    7       0.20335874      52.9906375
2015    8       0.29333304      69.40017375
2015    9       0.31548195      71.95043375
2015    10      0.30141562      69.78312875
2015    11      0.11472473      33.24112375
2015    12      0.25358587      62.43500125
2015    13      0.28716718      69.0445575
2015    14      0.44994498      98.84178
2015    15      0.31706312      73.83106875
2015    16      0.20790007      51.62616875
2015    17      0.41800895      92.67246
2015    18      0.3521932       81.87554125
2015    19      0.28452946      69.49079125
2015    20      0.29039628      70.232705
2015    21      0.39142264      88.60369375
2015    22      0.35989129      82.7399975
2015    23      0.29099131      68.54339375
2015    24      0.30703218      72.51945625
2015    25      0.15846455      41.81493625
2015    26      0.2389528       58.08761375
2015    27      0.27399374      64.751005
2015    28      0.2173252       53.50848375
2015    29      0.1449892       39.39409125
2015    30      0.17145181      44.45756
2016    1       0.36198272      81.33980125
2016    2       0.25228038      62.9286225
2016    3       0.25828731      65.0253075
2016    4       0.19787014      52.32646125
2016    5       0.26920946      66.22262125
2016    6       0.5368762       110.2127
2016    7       1.17800312      184.857175
2016    8       0.82642035      151.2035875
2016    9       0.57210597      119.41575
2016    10      0.53969792      112.8734125
2016    11      0.42709362      95.1313575
2016    12      0.6545081       127.075475
2016    13      0.29693556      71.28718625
2016    14      0.47987409      103.4642925
2016    15      0.37355491      86.629315
2016    16      0.24388341      58.81395375
2016    17      0.25601508      60.97002875
2016    18      0.51108981      106.86510125
2016    19      0.48835353      105.77683375
2016    20      0.48022232      103.256065
2016    21      0.58979608      116.70705
2016    22      0.20780394      52.015085
2016    23      0.26856373      62.23970875
2016    24      0.08407163      26.260015
2016    25      0.1517913       41.1432425
2016    26      0.14319205      39.07210875
2016    27      0.29461368      68.5935225
2016    28      0.54812168      106.64905125
2016    29      0.21860206      55.29230125
2016    30      0.33210175      76.66909875
2017    1       0.33639856      79.24670875
2017    2       0.36334068      84.7407625
2017    3       0.35855618      81.84851375
2017    4       0.53114089      109.28135875
2017    5       0.261151        62.655645
2017    6       0.28299085      67.967835
2017    7       0.13627683      38.25342375
2017    8       0.20190028      52.26657125
2017    9       0.25688392      62.44761875
2017    10      0.2156796       52.6383725
2017    11      0.12567816      35.55646375
2017    12      0.4701301       99.904105
2017    13      0.44026665      96.01361625
2017    14      0.41384498      89.39612875
2017    15      0.6711215       127.9025475
2017    16      0.60145128      120.998675
2017    17      0.43403359      86.62479625
2017    18      0.09502448      28.908625
2017    19      0.19107079      49.54967375
2017    20      0.89781169      152.70291125
2017    21      1.05752025      174.06315
2017    22      0.44425061      98.74723375
2017    23      0.56200596      114.75979
2017    24      0.73667016      137.6108125
2017    25      0.66690155      127.5585625
2017    26      0.37721051      86.8132475
2017    27      0.43051304      91.5291775
2017    28      0.3230453       75.82153375
2017    29      0.48176871      103.2579425
2017    30      0.24800332      62.0881225
2018    1       0.62602355      123.7863075
2018    2       0.31202645      74.0559475
2018    3       0.53157289      105.99019125
2018    4       0.62358796      120.3173875
2018    5       0.63367288      126.59543375
2018    6       0.4237371       93.683165
2018    7       0.46930476      101.68252125
2018    8       0.2501457       60.21957875
2018    9       0.07713557      24.9226075
2018    10      0.2436437       60.84806125
2018    11      0.08801442      27.37048875
2018    12      0.14862409      40.8269325
2018    13      0.202442        52.96721625
2018    14      0.36995036      83.04926875
2018    15      0.41201411      91.31650625
2018    16      0.39595026      88.36788875
2018    17      0.29392232      70.6048425
2018    18      0.12284264      34.60306625
2018    19      0.06971368      23.07337375
2018    20      0.25071774      60.161835
2018    21      0.45516469      97.0705
2018    22      0.51121188      102.03997625
2018    23      0.65389285      125.39867375
2018    24      0.48463334      101.2693625
2018    25      0.63902114      123.6934275
2018    26      0.33669176      75.72835375
2018    27      0.74686042      138.48595
2018    28      0.6889747       130.16299625
2018    29      0.58279034      115.10901875
2018    30      0.37566408      82.8435225
