####################################################################################################
# Month: 11Nov                                                                                     #
# Station: BAR                                                                                     #
# Frequency: 345 GHz                                                                               #
# Columns are: year    day     segment         tau     Tb (K)                                      #
####################################################################################################
2009    1       0       0.1849578       49.65322
2009    1       1       0.1754365       47.80566
2009    1       2       0.1904196       50.94046
2009    1       3       0.2311856       59.17491
2009    1       4       0.2604249       65.0567
2009    1       5       0.2942778       71.74823
2009    1       6       0.3076668       74.31277
2009    1       7       0.2547443       63.93559
2009    2       0       0.238817        60.73546
2009    2       1       0.2083921       54.37201
2009    2       2       0.2045918       53.52104
2009    2       3       0.2129536       55.31232
2009    2       4       0.2250721       57.71589
2009    2       5       0.2205954       56.83621
2009    2       6       0.2106166       54.7646
2009    2       7       0.2151121       55.78058
2009    3       0       0.232713        59.55657
2009    3       1       0.2151444       56.0721
2009    3       2       0.2054891       54.10756
2009    3       3       0.2155494       56.14946
2009    3       4       0.2217881       57.27732
2009    3       5       0.2298196       58.64665
2009    3       6       0.2129143       55.12014
2009    3       7       0.2118826       54.82665
2009    4       0       0.2476195       62.16571
2009    4       1       0.2351399       59.85532
2009    4       2       0.2072981       54.30469
2009    4       3       0.182169        49.01709
2009    4       4       0.1682666       46.01348
2009    4       5       0.1675244       45.82859
2009    4       6       0.1583856       43.67972
2009    4       7       0.1957136       51.55577
2009    5       0       0.3210786       76.35609
2009    5       1       0.5309592       111.044
2009    5       2       0.4174682       93.75646
2009    5       3       0.2186          56.47925
2009    5       4       0.1985418       51.82159
2009    5       5       0.2365449       59.43353
2009    5       6       0.2345591       58.99523
2009    5       7       0.2749365       66.42769
2009    6       0       0.2661001       64.77298
2009    6       1       0.2079457       53.76274
2009    6       2       0.2048879       53.42517
2009    6       3       0.1905544       50.66313
2009    6       4       0.2237838       57.48928
2009    6       5       0.2831315       69.35391
2009    6       6       0.2981857       71.83135
2009    6       7       0.3147599       74.94721
2009    7       0       0.3416488       80.08476
2009    7       1       0.2694728       66.94128
2009    7       2       0.2466636       61.88874
2009    7       3       0.2257919       57.45823
2009    7       4       0.2381743       59.53961
2009    7       5       0.2174081       55.59706
2009    7       6       0.1315345       36.8488
2009    7       7       0.1300647       36.91357
2009    8       0       0.1663602       45.28604
2009    8       1       0.1434845       40.20796
2009    8       2       0.09124331      28.3316
2009    8       3       0.1156771       33.22859
2009    8       4       0.1467595       39.94611
2009    8       5       0.2206139       54.70075
2009    8       6       0.3121708       72.06225
2009    8       7       0.4081832       89.18202
2009    9       0       0.3395729       78.46573
2009    9       1       0.2686973       65.48946
2009    9       2       0.2614143       63.70654
2009    9       3       0.3106231       72.85146
2009    9       4       0.3797846       85.26551
2009    9       5       0.4069011       90.00468
2009    9       6       0.4680445       100.1251
2009    9       7       0.5334661       109.9873
2009    10      0       0.556899        113.5081
2009    10      1       0.5624102       114.4917
2009    10      2       0.6239023       122.7676
2009    10      3       0.5487124       112.244
2009    10      4       0.5565792       113.2691
2009    10      5       0.6854715       130.8963
2009    10      6       0.5653226       115.0037
2009    10      7       0.4582589       98.39362
2009    11      0       0.5486581       112.1601
2009    11      1       0.7420466       137.9149
2009    11      2       0.7968029       144.1576
2009    11      3       0.6529332       126.5357
2009    11      4       0.7692898       140.7547
2009    11      5       0.5760859       116.0227
2009    11      6       0.4679819       99.86818
2009    11      7       0.3970299       88.73011
2009    12      0       0.3993764       89.52864
2009    12      1       0.4608177       99.19404
2009    12      2       0.6215429       122.7406
2009    12      3       0.4931419       105.0134
2009    12      4       0.3529335       81.57596
2009    12      5       0.4320388       94.18944
2009    12      6       0.7910829       143.3266
2009    12      7       1.001967        165.0707
2009    13      0       0.8541549       149.8549
2009    13      1       0.627187        122.8568
2009    13      2       0.4537688       97.89088
2009    13      3       0.2335539       58.85896
2009    13      4       0.1544163       42.00229
2009    13      5       0.1729317       45.50894
2009    13      6       0.185521        48.14496
2009    13      7       0.2556351       62.76769
2009    14      0       0.3264797       76.18995
2009    14      1       0.3876036       85.98032
2009    14      2       0.4401193       94.52327
2009    14      3       0.2417524       60.22888
2009    14      4       0.1966475       51.10856
2009    14      5       0.1651006       43.90411
2009    14      6       0.2448393       59.97725
2009    14      7       0.2478979       61.08022
2009    15      0       0.2295188       57.77283
2009    15      1       0.2345306       58.61352
2009    15      2       0.2971848       70.84758
2009    15      3       0.336219        78.72683
2009    15      4       0.3807443       87.01796
2009    15      5       0.4045555       91.32816
2009    15      6       0.374624        86.27623
2009    15      7       0.3923369       89.25783
2009    16      0       0.439354        97.07444
2009    16      1       0.4650204       101.189
2009    16      2       0.3808839       87.20017
2009    16      3       0.2295088       58.8448
2009    16      4       0.1647431       45.01518
2009    16      5       0.1765996       47.39198
2009    16      6       0.1888748       50.12682
2009    16      7       0.2076121       54.05754
2009    17      0       0.1987228       52.40253
2009    17      1       0.175043        47.53543
2009    17      2       0.1632025       44.99372
2009    17      3       0.1603748       44.31623
2009    17      4       0.1672481       45.80702
2009    17      5       0.2050775       53.91313
2009    17      6       0.2264079       58.32975
2009    17      7       0.2307142       59.24953
2009    18      0       0.2304209       59.24907
2009    18      1       0.2049128       53.91071
2009    18      2       0.1970766       51.99487
2009    18      3       0.2294254       57.97468
2009    18      4       0.2844101       68.89774
2009    18      5       0.3448907       79.88209
2009    18      6       0.2093167       53.82943
2009    18      7       0.2112344       54.32621
2009    19      0       0.1191895       34.86921
2009    19      1       0.09619108      29.11133
2009    19      2       0.1733206       45.90802
2009    19      3       0.2243863       57.00082
2009    19      4       0.2379148       59.94656
2009    19      5       0.1954717       51.08318
2009    19      6       0.1450792       40.19104
2009    19      7       0.1525157       41.9553
2009    20      0       0.1714449       45.80056
2009    20      1       0.1477799       40.92774
2009    20      2       0.128881        36.7535
2009    20      3       0.1234325       35.57137
2009    20      4       0.1255259       36.27394
2009    20      5       0.1166152       34.04218
2009    20      6       0.1145897       33.16726
2009    20      7       0.159818        43.06148
2009    21      0       0.2175748       55.52844
2009    21      1       0.2187839       55.83373
2009    21      2       0.134604        37.81259
2009    21      3       0.238386        59.03133
2009    21      4       0.4012295       88.80406
2009    21      5       0.1806697       48.26444
2009    21      6       0.1444395       40.20103
2009    21      7       0.1494567       41.22632
2009    22      0       0.2183424       54.92196
2009    22      1       0.2085687       53.03879
2009    22      2       0.3751577       83.5965
2009    22      3       0.5524383       114.0653
2009    22      4       0.2441201       61.79014
2009    22      5       0.2165162       55.6815
2009    22      6       0.3185048       75.00232
2009    22      7       0.4152108       91.9902
2009    23      0       0.3866692       87.1542
2009    23      1       0.3019756       72.35358
2009    23      2       0.2185156       56.21179
2009    23      3       0.2776396       67.73487
2009    23      4       0.3802804       86.22412
2009    23      5       0.4308266       94.64241
2009    23      6       0.4500257       97.68396
2009    23      7       0.4377263       95.82288
2009    24      0       0.3876689       87.52959
2009    24      1       0.3285638       77.27462
2009    24      2       0.2885242       70.05731
2009    24      3       0.268527        66.30172
2009    24      4       0.2815235       68.66413
2009    24      5       0.3206953       75.87261
2009    24      6       0.3816278       86.48534
2009    24      7       0.4605624       99.05491
2009    25      0       0.5234895       108.4357
2009    25      1       0.466162        100.1271
2009    25      2       0.4364484       95.49752
2009    25      3       0.4056983       90.54795
2009    25      4       0.3773136       85.73094
2009    25      5       0.3385375       79.07659
2009    25      6       0.2924859       70.73522
2009    25      7       0.2807954       68.45165
2009    26      0       0.2639962       65.21505
2009    26      1       0.1912601       50.65009
2009    26      2       0.1036544       31.39535
2009    26      3       0.07917939      25.61194
2009    26      4       0.08117564      26.09847
2009    26      5       0.0830803       26.54687
2009    26      6       0.08686314      27.44903
2009    26      7       0.08833641      27.79266
2009    27      0       0.1016254       30.63392
2009    27      1       0.1194092       34.71947
2009    27      2       0.1534143       41.96022
2009    27      3       0.2276182       57.0127
2009    27      4       0.31151         72.95509
2009    27      5       0.32492         75.61192
2009    27      6       0.280026        67.418
2009    27      7       0.3381668       78.03871
2009    28      0       0.3870944       86.9739
2009    28      1       0.4449844       96.16053
2009    28      2       0.5029722       104.2551
2009    28      3       0.5143101       105.5645
2009    28      4       0.4082554       89.00941
2009    28      5       0.5146741       105.4409
2009    28      6       0.5261705       107.1952
2009    28      7       0.5329649       108.1663
2009    29      0       0.5007831       103.5426
2009    29      1       0.3862617       85.72282
2009    29      2       0.3017389       71.15115
2009    29      3       0.2104857       53.80298
2009    29      4       0.1733239       46.1087
2009    29      5       0.1860678       48.88082
2009    29      6       0.2216713       56.48537
2009    29      7       0.2640359       65.07098
2009    30      0       0.2579804       64.12693
2009    30      1       0.2200557       56.70029
2009    30      2       0.204954        53.5265
2009    30      3       0.1762865       47.39133
2009    30      4       0.1409132       39.54503
2009    30      5       0.1335318       37.86573
2009    30      6       0.13279         37.70675
2009    30      7       0.1413243       39.58729
2010    1       0       0.4882491       104.4084
2010    1       1       0.6136367       123.6385
2010    1       2       0.7564913       143.1695
2010    1       3       0.8545525       155.0084
2010    1       4       0.8364649       153.0653
2010    1       5       0.7056198       137.7281
2010    1       6       0.5972285       123.482
2010    1       7       0.5725787       119.8204
2010    2       0       0.5813387       121.0886
2010    2       1       0.5355383       114.657
2010    2       2       0.4921028       108.2261
2010    2       3       0.4852593       107.2439
2010    2       4       0.4653982       104.1495
2010    2       5       0.4411757       100.1555
2010    2       6       0.4270743       97.71073
2010    2       7       0.4399732       99.80547
2010    3       0       0.4040044       93.46917
2010    3       1       0.3468666       83.01744
2010    3       2       0.3627199       85.90642
2010    3       3       0.4188623       95.75198
2010    3       4       0.4076653       93.71516
2010    3       5       0.3833144       89.32743
2010    3       6       0.3962067       91.47237
2010    3       7       0.4308254       97.13686
2010    4       0       0.4316475       97.34743
2010    4       1       0.4057767       92.6038
2010    4       2       0.3959484       90.45607
2010    4       3       0.3825336       87.9771
2010    4       4       0.3800178       87.58188
2010    4       5       0.3578008       83.83211
2010    4       6       0.3910268       89.41914
2010    4       7       0.4353606       96.7761
2010    5       0       0.5176438       110.1887
2010    5       1       0.5977721       122.2204
2010    5       2       0.6302643       126.9174
2010    5       3       0.5581071       116.478
2010    5       4       0.5245948       110.9278
2010    5       5       0.529366        111.2528
2010    5       6       0.4102001       92.91991
2010    5       7       0.3671841       86.05183
2010    6       0       0.3046174       74.9161
2010    6       1       0.2804889       69.34544
2010    6       2       0.2657807       66.55586
2010    6       3       0.301756        73.04805
2010    6       4       0.3600535       83.1895
2010    6       5       0.5081045       106.8213
2010    6       6       0.5051325       106.9291
2010    6       7       0.7505415       139.0033
2010    7       0       0.7541585       139.3861
2010    7       1       0.5466717       112.711
2010    7       2       0.3601622       83.38942
2010    7       3       0.3305248       77.69157
2010    7       4       0.7738167       143.2004
2010    7       5       0.789362        145.5596
2010    7       6       0.5173136       108.9048
2010    7       7       0.5572002       115.0603
2010    8       0       0.7605129       141.3091
2010    8       1       0.6427182       127.2082
2010    8       2       0.7594289       140.912
2010    8       3       0.2161803       55.53553
2010    8       4       0.0908149       28.23145
2010    8       5       0.1224758       35.27919
2010    8       6       0.1521225       41.53138
2010    8       7       0.2686205       64.49692
2010    9       0       0.2608667       63.68121
2010    9       1       0.1086751       32.19225
2010    9       2       0.1357128       38.26265
2010    9       3       0.1334376       37.91055
2010    9       4       0.1878698       49.18077
2010    9       5       0.2159036       54.98143
2010    9       6       0.2740573       66.4063
2010    9       7       0.3899147       88.11228
2010    10      0       0.269088        66.01503
2010    10      1       0.2655744       65.43948
2010    10      2       0.1300968       36.80888
2010    10      3       0.1068465       31.60188
2010    10      4       0.101117        30.5641
2010    10      5       0.1252588       35.90028
2010    10      6       0.2694496       65.50865
2010    10      7       0.4191985       91.29512
2010    11      0       0.4080556       89.25309
2010    11      1       0.1869891       48.80934
2010    11      2       0.1090885       32.14578
2010    11      3       0.0843596       26.54564
2010    11      4       0.07278319      23.93097
2010    11      5       0.06580398      22.17758
2010    11      6       0.08903147      27.3848
2010    11      7       0.1191679       34.20433
2010    12      0       0.2301866       57.08654
2010    12      1       0.2601576       64.33759
2010    12      2       0.1867056       49.02593
2010    12      3       0.377592        85.21884
2010    12      4       0.46672         100.383
2010    12      5       0.4662442       100.6798
2010    12      6       0.4459716       97.61533
2010    12      7       0.4737336       101.7836
2010    13      0       0.4392719       95.63299
2010    13      1       0.4099183       91.37586
2010    13      2       0.3584783       82.94527
2010    13      3       0.1476477       41.37761
2010    13      4       0.1433485       40.12325
2010    13      5       0.1908028       50.21936
2010    13      6       0.3251378       75.80324
2010    13      7       0.5306914       110.255
2010    14      0       0.548601        113.7696
2010    14      1       0.322841        76.21604
2010    14      2       0.2521917       62.22423
2010    14      3       0.3804276       86.03781
2010    14      4       0.5295633       110.5918
2010    14      5       0.6067643       122.4237
2010    14      6       0.5861362       119.6858
2010    14      7       0.5712679       118.0215
2010    15      0       0.5197449       109.8878
2010    15      1       0.4409873       97.45104
2010    15      2       0.3162829       75.76713
2010    15      3       0.3016367       73.14549
2010    15      4       0.2529542       64.02279
2010    15      5       0.2206821       57.38346
2010    15      6       0.2328266       59.79774
2010    15      7       0.2260643       58.34113
2010    16      0       0.2185291       56.29825
2010    16      1       0.1883977       49.76097
2010    16      2       0.1456278       40.77268
2010    16      3       0.1942713       51.1804
2010    16      4       0.1804336       48.09324
2010    16      5       0.288638        69.55056
2010    16      6       0.234412        58.52385
2010    16      7       0.2215281       56.21531
2010    17      0       0.2242351       56.85788
2010    17      1       0.217137        55.47712
2010    17      2       0.2723073       66.10021
2010    17      3       0.2728806       66.627
2010    17      4       0.2871781       69.39898
2010    17      5       0.3019536       72.56383
2010    17      6       0.3111919       74.10367
2010    17      7       0.2838405       68.98617
2010    18      0       0.2338988       59.52083
2010    18      1       0.1733773       46.85261
2010    18      2       0.1823182       48.28711
2010    18      3       0.1906354       50.00238
2010    18      4       0.2200058       56.0059
2010    18      5       0.2794864       67.58412
2010    18      6       0.3023138       71.8964
2010    18      7       0.3076528       73.01773
2010    19      0       0.2688573       65.70955
2010    19      1       0.2113008       54.16544
2010    19      2       0.2027028       52.28302
2010    19      3       0.2812431       67.29649
2010    19      4       0.3839627       85.46833
2010    19      5       0.3814615       85.00382
2010    19      6       0.4566271       98.65776
2010    19      7       0.5341423       110.9565
2010    20      0       0.5614797       115.1518
2010    20      1       0.5688175       115.6915
2010    20      2       0.5871587       117.5374
2010    20      3       0.5105636       106.0572
2010    20      4       0.4347198       93.57042
2010    20      5       0.2831353       67.74218
2010    20      6       0.3587466       81.27832
2010    20      7       0.1010978       30.28409
2010    21      0       0.1150855       33.39499
2010    21      1       0.1171275       33.74748
2010    21      2       0.1389621       38.60601
2010    21      3       0.2132169       53.63786
2010    21      4       0.3065176       70.5098
2010    21      5       0.1428005       38.76647
2010    21      6       0.2124516       52.57582
2010    21      7       0.1501369       40.38378
2010    22      0       0.111397        32.12649
2010    22      1       0.1055049       30.82257
2010    22      2       0.2613053       62.1329
2010    22      3       0.2526235       60.85899
2010    22      4       0.1099801       32.19556
2010    22      5       0.1012767       30.13325
2010    22      6       0.1526412       41.15931
2010    22      7       0.1873502       48.47508
2010    23      0       0.2197279       55.03327
2010    23      1       0.2399406       59.12135
2010    23      2       0.2413543       59.39064
2010    23      3       0.2875041       68.01279
2010    23      4       0.2802423       66.56928
2010    23      5       0.2606734       62.86907
2010    23      6       0.2579147       62.65567
2010    23      7       0.2645597       63.56036
2010    24      0       0.08567261      26.7317
2010    24      1       0.06505707      21.59542
2010    24      2       0.164796        43.29717
2010    24      3       0.270966        64.11314
2010    24      4       0.245283        59.59173
2010    24      5       0.1732504       45.55189
2010    24      6       0.13414         37.21225
2010    24      7       0.1046369       30.81675
2010    25      0       0.08373457      26.1758
2010    25      1       0.08997776      27.60122
2010    25      2       0.1052534       31.20512
2010    25      3       0.1282967       36.68989
2010    25      4       0.136078        38.60545
2010    25      5       0.1566441       42.82218
2010    25      6       0.1563423       42.77367
2010    25      7       0.1767319       47.10848
2010    26      0       0.2254571       57.289
2010    26      1       0.279816        67.73285
2010    26      2       0.2592808       64.10335
2010    26      3       0.19642         51.77407
2010    26      4       0.1341686       38.32136
2010    26      5       0.1143176       33.78167
2010    26      6       0.1108019       32.90407
2010    26      7       0.1021008       30.95929
2010    27      0       0.1158129       33.7618
2010    27      1       0.16611         44.02003
2010    27      2       0.203595        51.60638
2010    27      3       0.2120659       53.31831
2010    27      4       0.3116066       72.07101
2010    27      5       0.4865657       101.4523
2010    27      6       0.2303734       58.12598
2010    27      7       0.1427619       39.47433
2010    28      0       0.2487607       60.73398
2010    28      1       0.262702        62.95539
2010    28      2       0.2479167       59.71448
2010    28      3       0.2186346       54.14921
2010    28      4       0.1305098       36.30698
2010    28      5       0.0818108       25.59205
2010    28      6       0.08782942      26.94652
2010    28      7       0.1105718       32.01997
2010    29      0       0.08394269      25.94611
2010    29      1       0.09205777      27.75406
2010    29      2       0.08484183      26.25482
2010    29      3       0.0684999       22.57754
2010    29      4       0.09930993      29.54432
2010    29      5       0.1505098       41.02078
2010    29      6       0.1856179       48.54743
2010    29      7       0.1986028       51.38326
2010    30      0       0.2233768       56.78178
2010    30      1       0.3224758       75.67011
2010    30      2       0.4391774       96.11333
2010    30      3       0.4774568       102.0721
2010    30      4       0.4920247       104.2185
2010    30      5       0.5999449       119.6755
2010    30      6       0.6325371       124.4601
2010    30      7       0.6882683       131.058
2011    1       0       0.3836444       87.94731
2011    1       1       0.3946619       89.67785
2011    1       2       0.376887        85.92541
2011    1       3       0.1909415       50.80714
2011    1       4       0.1319925       37.74346
2011    1       5       0.06103061      21.16172
2011    1       6       0.06968132      23.23829
2011    1       7       0.08524096      26.78346
2011    2       0       0.1225218       35.21338
2011    2       1       0.1490735       41.37707
2011    2       2       0.1722117       46.28043
2011    2       3       0.1911478       50.35893
2011    2       4       0.205795        53.5155
2011    2       5       0.2096935       54.56171
2011    2       6       0.2179024       56.3714
2011    2       7       0.2242344       57.59693
2011    3       0       0.2159344       55.94459
2011    3       1       0.2138976       55.38352
2011    3       2       0.2370576       60.04543
2011    3       3       0.2652272       65.54606
2011    3       4       0.2977115       71.64635
2011    3       5       0.2515452       63.17516
2011    3       6       0.2743063       67.53568
2011    3       7       0.3051593       73.33075
2011    4       0       0.2727895       66.49536
2011    4       1       0.2500477       62.52057
2011    4       2       0.2810797       68.49285
2011    4       3       0.2967116       71.19046
2011    4       4       0.2792505       67.09427
2011    4       5       0.3783005       83.85835
2011    4       6       0.4081955       88.3262
2011    4       7       0.4182063       89.85867
2011    5       0       0.3855263       84.54601
2011    5       1       0.2558062       61.95162
2011    5       2       0.1578022       42.57299
2011    5       3       0.1365509       38.19965
2011    5       4       0.2645579       64.44631
2011    5       5       0.5097308       105.7913
2011    5       6       0.5000476       105.6919
2011    5       7       0.4267963       93.80428
2011    6       0       0.4208982       92.25164
2011    6       1       0.2938777       69.67461
2011    6       2       0.4457897       95.35252
2011    6       3       0.3817382       84.91745
2011    6       4       0.5103706       104.9502
2011    6       5       0.2855047       67.67749
2011    6       6       0.2255291       56.27778
2011    6       7       0.3802239       84.08885
2011    7       0       0.4774343       99.55048
2011    7       1       0.3793446       83.8621
2011    7       2       0.2727198       64.79152
2011    7       3       0.2792014       66.13919
2011    7       4       0.2288133       56.77742
2011    7       5       0.1814522       47.45708
2011    7       6       0.1125048       32.88705
2011    7       7       0.09368007      28.43214
2011    8       0       0.1361805       37.70684
2011    8       1       0.1650938       44.20599
2011    8       2       0.1574027       42.60006
2011    8       3       0.09933845      29.73919
2011    8       4       0.1122957       32.56642
2011    8       5       0.181311        47.54196
2011    8       6       0.2059046       53.23855
2011    8       7       0.1853154       48.99599
2011    9       0       0.2044502       52.48456
2011    9       1       0.1942001       50.50967
2011    9       2       0.1907359       50.12198
2011    9       3       0.1716214       46.11591
2011    9       4       0.1679341       45.0264
2011    9       5       0.1579002       42.76477
2011    9       6       0.150925        41.2443
2011    9       7       0.1661137       44.44101
2011    10      0       0.1282224       36.62807
2011    10      1       0.112861        33.26163
2011    10      2       0.1188227       34.47099
2011    10      3       0.1314807       37.14829
2011    10      4       0.1049968       31.11362
2011    10      5       0.1251367       35.44187
2011    10      6       0.209106        52.7503
2011    10      7       0.3587294       80.57485
2011    11      0       0.3200859       74.88872
2011    11      1       0.3263492       76.39532
2011    11      2       0.3669912       83.40635
2011    11      3       0.4560622       98.01228
2011    11      4       0.5884992       117.4545
2011    11      5       0.9178044       156.8213
2011    11      6       0.9535048       160.3634
2011    11      7       0.6288652       123.6934
2011    12      0       0.3914699       88.3822
2011    12      1       0.4620138       99.66004
2011    12      2       0.3869335       87.58751
2011    12      3       0.5277415       109.635
2011    12      4       0.5287873       109.9346
2011    12      5       0.6357175       125.1634
2011    12      6       0.5542916       113.989
2011    12      7       0.3658766       84.07254
2011    13      0       0.2129481       54.93723
2011    13      1       0.2254738       57.15059
2011    13      2       0.4241071       93.99403
2011    13      3       0.997386        168.0485
2011    13      4       1.269975        190.5032
2011    13      5       0.8771007       155.4143
2011    13      6       0.3041055       72.17459
2011    13      7       0.3510972       80.45165
2011    14      0       0.4436292       96.17324
2011    14      1       0.5197064       108.3578
2011    14      2       0.688568        132.3695
2011    14      3       0.8039954       147.1677
2011    14      4       0.8050598       148.0114
2011    14      5       0.7523735       142.1145
2011    14      6       0.5750783       118.8035
2011    14      7       0.5147905       109.4506
2011    15      0       0.4324431       96.46155
2011    15      1       0.3596936       83.87851
2011    15      2       0.4165139       93.95466
2011    15      3       0.1215064       35.29512
2011    15      4       0.1793561       48.13026
2011    15      5       0.1406532       39.97975
2011    15      6       0.3002698       72.17993
2011    15      7       0.4655325       100.7782
2011    16      0       0.5678001       116.1185
2011    16      1       0.5203392       108.9631
2011    16      2       0.5730042       117.099
2011    16      3       0.5915601       120.2703
2011    16      4       0.5513291       114.7553
2011    16      5       0.477998        103.8466
2011    16      6       0.4093531       92.72588
2011    16      7       0.29393         71.679
2011    17      0       0.2746298       67.53715
2011    17      1       0.2558171       63.34995
2011    17      2       0.2534198       62.9261
2011    17      3       0.23096         58.58984
2011    17      4       0.1774799       47.5374
2011    17      5       0.1419771       39.68978
2011    17      6       0.1405176       39.03957
2011    17      7       0.259094        63.40843
2011    18      0       0.449054        97.04259
2011    18      1       0.3311503       77.55071
2011    18      2       0.1338766       38.14073
2011    18      3       0.1365792       38.7943
2011    18      4       0.14085         39.68748
2011    18      5       0.1636464       44.62798
2011    18      6       0.1733572       46.86323
2011    18      7       0.2020122       52.40115
2011    19      0       0.2198469       56.82584
2011    19      1       0.2684769       65.30627
2011    19      2       0.3063655       73.06114
2011    19      3       0.4338094       95.05108
2011    19      4       0.5214827       108.7899
2011    19      5       0.5654532       114.7095
2011    19      6       0.3739343       84.95653
2011    19      7       0.2183616       55.82033
2011    20      0       0.2157206       55.14226
2011    20      1       0.1522609       41.73623
2011    20      2       0.1434505       39.34953
2011    20      3       0.1885767       48.69456
2011    20      4       0.2986797       70.0304
2011    20      5       0.4344986       93.01724
2011    20      6       0.5348139       108.4158
2011    20      7       0.727479        134.023
2011    21      0       0.605088        118.3503
2011    21      1       0.5040694       104.1841
2011    21      2       0.2867465       68.40718
2011    21      3       0.1681137       45.09262
2011    21      4       0.1709773       45.06364
2011    21      5       0.2159735       55.08658
2011    21      6       0.2595109       64.08903
2011    21      7       0.3513616       80.35768
2011    22      0       0.4156643       91.32751
2011    22      1       0.3913119       88.09687
2011    22      2       0.3023963       72.44856
2011    22      3       0.2642386       65.19585
2011    22      4       0.222158        56.95494
2011    22      5       0.2247269       57.06757
2011    22      6       0.1994057       51.99316
2011    22      7       0.1796818       47.69861
2011    23      0       0.1577225       42.95322
2011    23      1       0.2436198       60.72543
2011    23      2       0.2474236       61.83602
2011    23      3       0.2578693       63.82287
2011    23      4       0.279436        67.81113
2011    23      5       0.2294558       57.97159
2011    23      6       0.1896005       49.915
2011    23      7       0.2070894       53.70558
2011    24      0       0.2131279       54.92013
2011    24      1       0.2116049       54.05063
2011    24      2       0.2432167       60.06418
2011    24      3       0.2644178       64.0307
2011    24      4       0.2719711       65.46636
2011    24      5       0.2906903       68.87871
2011    24      6       0.2953798       69.77989
2011    24      7       0.3037672       71.60187
2011    25      0       0.3598473       82.2953
2011    25      1       0.2809134       68.52496
2011    25      2       0.2432929       60.66667
2011    25      3       0.3471611       80.3401
2011    25      4       0.2019255       52.93479
2011    25      5       0.157194        43.09643
2011    25      6       0.225921        57.45409
2011    25      7       0.3395456       79.20903
2011    26      0       0.4518474       98.75175
2011    26      1       0.4136827       92.64771
2011    26      2       0.3417107       79.99966
2011    26      3       0.3440182       80.01268
2011    26      4       0.3198083       76.06014
2011    26      5       0.3169869       75.60393
2011    26      6       0.4033491       91.09542
2011    26      7       0.4647546       101.17
2011    27      0       0.486282        104.4707
2011    27      1       0.488675        105.0778
2011    27      2       0.4645825       101.4138
2011    27      3       0.3929395       89.61066
2011    27      4       0.3391505       79.72717
2011    27      5       0.3209285       76.30007
2011    27      6       0.3164695       75.31151
2011    27      7       0.3226248       76.06969
2011    28      0       0.2481405       61.62756
2011    28      1       0.1847176       48.66985
2011    28      2       0.1773074       46.76129
2011    28      3       0.181427        47.27319
2011    28      4       0.2051481       52.18412
2011    28      5       0.2221566       55.73034
2011    28      6       0.2901726       68.74062
2011    28      7       0.3029265       71.03262
2011    29      0       0.3880618       86.1535
2011    29      1       0.6000304       120.2916
2011    29      2       0.2664144       65.65385
2011    29      3       0.1227258       35.44852
2011    29      4       0.149812        41.61936
2011    29      5       0.225822        57.62954
2011    29      6       0.2754921       67.91648
2011    29      7       0.2941027       71.57542
2011    30      0       0.34761         81.47094
2011    30      1       0.3709534       85.74098
2011    30      2       0.2991641       72.48193
2011    30      3       0.2326877       59.58175
2011    30      4       0.3355729       78.84986
2011    30      5       0.2234547       57.35732
2011    30      6       0.0471201       17.80764
2011    30      7       0.07465706      24.61828
2012    1       0       0.3864727       87.26564
2012    1       1       0.4720845       100.5516
2012    1       2       0.5788708       116.3028
2012    1       3       0.8610898       152.2165
2012    1       4       0.7005342       132.8372
2012    1       5       0.7427287       138.024
2012    1       6       0.6239664       123.1373
2012    1       7       0.735131        137.7622
2012    2       0       0.8827759       153.9403
2012    2       1       0.7299908       137.5486
2012    2       2       0.6234369       124.9445
2012    2       3       0.4725819       103.2041
2012    2       4       0.2935895       72.18628
2012    2       5       0.2090399       54.19089
2012    2       6       0.1629525       43.72494
2012    2       7       0.2046442       52.42017
2012    3       0       0.2833264       68.5915
2012    3       1       0.3302361       77.17114
2012    3       2       0.4075346       90.56788
2012    3       3       0.4480031       97.89542
2012    3       4       0.4330243       96.10056
2012    3       5       0.4467573       98.01758
2012    3       6       0.5165783       108.9305
2012    3       7       0.5049299       108.0808
2012    4       0       0.4796184       104.3956
2012    4       1       0.5213864       110.6633
2012    4       2       0.5839287       120.2794
2012    4       3       0.5183801       110.9941
2012    4       4       0.5466462       115.1458
2012    4       5       0.6724456       132.6862
2012    4       6       0.6958039       135.7064
2012    4       7       0.6721652       132.782
2012    5       0       0.6399853       128.7881
2012    5       1       0.4880349       106.4905
2012    5       2       0.3316546       79.27105
2012    5       3       0.2874349       70.52963
2012    5       4       0.2856343       70.32077
2012    5       5       0.269498        67.14466
2012    5       6       0.2379733       60.92733
2012    5       7       0.1991245       52.87347
2012    6       0       0.1771365       48.00503
2012    6       1       0.1630428       44.71616
2012    6       2       0.1614126       44.25031
2012    6       3       0.1595044       43.82862
2012    6       4       0.1578539       43.37778
2012    6       5       0.1532173       42.30769
2012    6       6       0.1499837       41.64696
2012    6       7       0.1543714       42.66592
2012    7       0       0.1727274       46.83133
2012    7       1       0.1729358       46.93977
2012    7       2       0.1710139       46.60092
2012    7       3       0.2112412       55.30206
2012    7       4       0.2426776       61.96449
2012    7       5       0.2336377       60.12618
2012    7       6       0.2500868       63.36603
2012    7       7       0.3168428       76.38125
2012    8       0       0.3784562       87.51789
2012    8       1       0.3286139       78.2797
2012    8       2       0.2269707       58.23882
2012    8       3       0.2172293       56.02174
2012    8       4       0.2622138       64.90198
2012    8       5       0.279399        68.19822
2012    8       6       0.1396797       39.95029
2012    8       7       0.1877614       49.68665
2012    9       0       0.1665109       44.563
2012    9       1       0.1398145       38.82524
2012    9       2       0.1021137       30.6589
2012    9       3       0.1727791       45.7583
2012    9       4       0.1846152       48.30466
2012    9       5       0.1938989       49.94385
2012    9       6       0.2529108       61.03242
2012    9       7       0.2794456       65.60962
2012    10      0       0.3093305       70.88498
2012    10      1       0.185839        47.57384
2012    10      2       0.1502842       40.39449
2012    10      3       0.1569897       41.77045
2012    10      4       0.2010512       50.57431
2012    10      5       0.2252271       55.09691
2012    10      6       0.2445823       58.93807
2012    10      7       0.2487546       60.02617
2012    11      0       0.2018218       51.45879
2012    11      1       0.08550296      26.75408
2012    11      2       0.08560463      26.65515
2012    11      3       0.1739121       45.75553
2012    11      4       0.2768898       66.6975
2012    11      5       0.3556865       81.72161
2012    11      6       0.4423364       96.32793
2012    11      7       0.506155        106.0531
2012    12      0       0.562377        114.6903
2012    12      1       0.4753024       102.2545
2012    12      2       0.4105739       90.94648
2012    12      3       0.4607794       99.0078
2012    12      4       0.565829        114.8867
2012    12      5       0.6790526       129.8535
2012    12      6       0.5605606       114.3724
2012    12      7       0.2954458       71.49721
2012    13      0       0.2086707       54.0001
2012    13      1       0.1934362       50.40369
2012    13      2       0.1840053       48.55087
2012    13      3       0.1641519       44.32725
2012    13      4       0.158789        42.98346
2012    13      5       0.2038085       52.02382
2012    13      6       0.2631323       64.11402
2012    13      7       0.2702065       66.18162
2012    14      0       0.3215444       76.34991
2012    14      1       0.2890325       70.53187
2012    14      2       0.2516766       63.15183
2012    14      3       0.2787502       68.19561
2012    14      4       0.3641433       83.50937
2012    14      5       0.4707161       100.7756
2012    14      6       0.5045128       106.3099
2012    14      7       0.5262489       109.8317
2012    15      0       0.5404439       112.0807
2012    15      1       0.5620574       115.5364
2012    15      2       0.5338225       111.6696
2012    15      3       0.4574326       100.1274
2012    15      4       0.4457246       97.96523
2012    15      5       0.4286297       94.79056
2012    15      6       0.402596        90.0385
2012    15      7       0.5472406       111.9656
2012    16      0       0.7770074       141.8485
2012    16      1       0.9714842       164.0424
2012    16      2       0.7170549       136.8715
2012    16      3       0.9255618       159.3297
2012    16      4       0.8217243       148.5932
2012    16      5       0.4077983       91.19556
2012    16      6       0.5459233       112.0334
2012    16      7       0.7723431       141.6964
2012    17      0       0.6284099       124.0511
2012    17      1       0.5218214       108.9606
2012    17      2       0.4706996       100.9341
2012    17      3       0.3171917       74.90442
2012    17      4       0.4231127       93.33225
2012    17      5       0.515734        107.8096
2012    17      6       0.4383769       95.75162
2012    17      7       0.6040809       120.6651
2012    18      0       0.4108625       91.14529
2012    18      1       0.3253579       76.74864
2012    18      2       0.1737521       46.59384
2012    18      3       0.2204419       56.35639
2012    18      4       0.2200921       56.21465
2012    18      5       0.2444953       59.99702
2012    18      6       0.216442        55.08456
2012    18      7       0.2193903       55.12667
2012    19      0       0.315397        74.02531
2012    19      1       0.355377        81.57199
2012    19      2       0.4989662       104.4937
2012    19      3       0.769735        140.744
2012    19      4       0.6793266       130.7944
2012    19      5       0.6565603       128.1276
2012    19      6       0.71194         135.5129
2012    19      7       0.7948358       145.6735
2012    20      0       0.752422        141.0124
2012    20      1       0.7038181       135.274
2012    20      2       0.7361425       139.0789
2012    20      3       0.739629        139.2505
2012    20      4       0.6625234       129.5385
2012    20      5       0.657319        128.8869
2012    20      6       0.6401401       126.8287
2012    20      7       0.590574        120.391
2012    21      0       0.5986056       121.6824
2012    21      1       0.3977449       90.16783
2012    21      2       0.3285857       76.91014
2012    21      3       0.3068481       72.96338
2012    21      4       0.3151272       74.63011
2012    21      5       0.3621367       83.43112
2012    21      6       0.4691362       101.1651
2012    21      7       0.5710752       116.3072
2012    22      0       0.5737308       117.3039
2012    22      1       0.6836552       132.0489
2012    22      2       0.6598576       129.0266
2012    22      3       0.6019282       121.2128
2012    22      4       0.604526        121.2454
2012    22      5       0.537468        111.9356
2012    22      6       0.4224853       94.6584
2012    22      7       0.3503508       82.56747
2012    23      0       0.2815019       69.55638
2012    23      1       0.2409021       61.20438
2012    23      2       0.2156282       55.78428
2012    23      3       0.2069919       53.85383
2012    23      4       0.1916574       50.61894
2012    23      5       0.1741427       46.89304
2012    23      6       0.1659485       45.25322
2012    23      7       0.1674841       45.73554
2012    24      0       0.1646327       45.33278
2012    24      1       0.1493777       42.10593
2012    24      2       0.140155        40.04008
2012    24      3       0.1289832       37.46994
2012    24      4       0.1252975       36.59282
2012    24      5       0.1375221       39.3318
2012    24      6       0.1429179       40.55275
2012    24      7       0.1424362       40.46226
2012    25      0       0.1600188       44.31715
2012    25      1       0.1400044       39.80886
2012    25      2       0.1299276       37.5141
2012    25      3       0.1194281       35.03796
2012    25      4       0.1232904       35.93076
2012    25      5       0.1401374       39.69557
2012    25      6       0.1704128       45.73915
2012    25      7       0.2501101       61.25777
2012    26      0       0.3468244       78.96603
2012    26      1       0.2554425       63.13455
2012    26      2       0.1674645       45.71916
2012    26      3       0.1171561       34.6542
2012    26      4       0.09733192      29.82539
2012    26      5       0.08765448      27.29589
2012    26      6       0.08249456      26.15316
2012    26      7       0.08458262      26.87256
2012    27      0       0.09408571      29.34201
2012    27      1       0.09657165      29.99647
2012    27      2       0.09429897      29.4675
2012    27      3       0.09669169      29.88974
2012    27      4       0.1228364       35.59559
2012    27      5       0.1546576       42.05843
2012    27      6       0.2004588       51.4659
2012    27      7       0.2585927       62.81131
2012    28      0       0.3870645       85.75039
2012    28      1       0.6417251       124.3778
2012    28      2       0.5360982       110.6154
2012    28      3       0.4816682       103.8324
2012    28      4       0.405318        91.87416
2012    28      5       0.4021732       91.14982
2012    28      6       0.5051474       107.8798
2012    28      7       0.745145        139.2414
2012    29      0       0.1443884       40.88579
2012    29      1       0.1064412       31.57058
2012    29      2       0.1868574       49.01781
2012    29      3       0.4335868       95.72521
2012    29      4       0.5189832       109.0191
2012    29      5       0.5197264       109.3357
2012    29      6       0.7000552       134.0143
2012    29      7       0.7430523       139.6929
2012    30      0       0.6531111       127.8545
2012    30      1       0.6632915       129.0127
2012    30      2       0.5847562       118.5765
2012    30      3       0.5118191       108.7748
2012    30      4       0.6231683       125.7518
2012    30      5       0.6738709       131.7412
2012    30      6       0.7087563       135.9198
2012    30      7       0.7051787       134.6784
2013    1       0       0.1924725       51.52073
2013    1       1       0.1660776       45.78129
2013    1       2       0.1737825       47.42368
2013    1       3       0.1687635       46.44147
2013    1       4       0.1714062       47.02456
2013    1       5       0.1728619       47.35344
2013    1       6       0.1539195       43.10174
2013    1       7       0.1405073       40.11151
2013    2       0       0.1531362       43.05666
2013    2       1       0.1713742       46.94339
2013    2       2       0.1781547       48.20225
2013    2       3       0.1654077       45.22506
2013    2       4       0.1710146       46.19537
2013    2       5       0.1860214       49.27557
2013    2       6       0.1929328       50.75062
2013    2       7       0.1995232       52.06918
2013    3       0       0.2382855       59.6101
2013    3       1       0.2179368       55.3665
2013    3       2       0.12267         35.6057
2013    3       3       0.09087037      28.37296
2013    3       4       0.08783582      27.25628
2013    3       5       0.08402439      26.40546
2013    3       6       0.1252189       35.54614
2013    3       7       0.2021109       51.30803
2013    4       0       0.2859922       67.63938
2013    4       1       0.2985881       69.7332
2013    4       2       0.5315995       107.9394
2013    4       3       0.6177232       120.7152
2013    4       4       0.3409753       78.62169
2013    4       5       0.2083968       53.59181
2013    4       6       0.1413173       39.4712
2013    4       7       0.09977262      29.9673
2013    5       0       0.1022101       30.35704
2013    5       1       0.1375041       38.4101
2013    5       2       0.1534452       41.67933
2013    5       3       0.1438061       39.68382
2013    5       4       0.1617745       43.54119
2013    5       5       0.2098943       53.40258
2013    5       6       0.2752806       66.0468
2013    5       7       0.3648552       83.08661
2013    6       0       0.3594666       82.4748
2013    6       1       0.4409122       96.44417
2013    6       2       0.4181758       92.9248
2013    6       3       0.4517635       98.24453
2013    6       4       0.4946933       104.976
2013    6       5       0.5580067       114.1011
2013    6       6       0.5852949       118.3484
2013    6       7       0.6076862       121.726
2013    7       0       0.7168693       136.3714
2013    7       1       0.7297636       137.7083
2013    7       2       0.7183784       136.5124
2013    7       3       0.8201121       148.1005
2013    7       4       0.8046219       145.9508
2013    7       5       0.6756646       129.4952
2013    7       6       0.5602914       113.9421
2013    7       7       0.6536507       126.6523
2013    8       0       0.754699        139.7895
2013    8       1       0.5788892       118.1282
2013    8       2       0.3827877       87.70575
2013    8       3       0.387829        88.43155
2013    8       4       0.3627345       83.82274
2013    8       5       0.3465401       80.64561
2013    8       6       0.3887555       88.16628
2013    8       7       0.4206396       93.93684
2013    9       0       0.4289765       95.33986
2013    9       1       0.3967824       89.68068
2013    9       2       0.3616738       83.2497
2013    9       3       0.3360065       78.72112
2013    9       4       0.3250578       76.84777
2013    9       5       0.3358553       79.0569
2013    9       6       0.3393441       79.63378
2013    9       7       0.4446281       97.30887
2013    10      0       0.5171645       108.4457
2013    10      1       0.464581        100.4383
2013    10      2       0.4226326       93.60487
2013    10      3       0.3608207       83.09596
2013    10      4       0.3353876       78.5947
2013    10      5       0.3595076       82.77487
2013    10      6       0.4039277       90.45766
2013    10      7       0.4848481       103.5609
2013    11      0       0.4980731       105.6387
2013    11      1       0.4763402       102.3036
2013    11      2       0.475543        102.3122
2013    11      3       0.4752582       102.3551
2013    11      4       0.4648657       100.7819
2013    11      5       0.461508        100.3747
2013    11      6       0.4203775       93.83727
2013    11      7       0.3721797       85.51288
2013    12      0       0.3775544       85.93244
2013    12      1       0.409619        91.28331
2013    12      2       0.4785106       102.3665
2013    12      3       0.6661971       128.4524
2013    12      4       0.8273294       147.9322
2013    12      5       0.9523319       161.0458
2013    12      6       0.9314356       159.0867
2013    12      7       0.9579215       163.78
2013    13      0       0.6901211       134.6802
2013    13      1       0.4367545       98.03413
2013    13      2       0.3457068       82.22187
2013    13      3       0.3180996       77.17183
2013    13      4       0.2390234       61.96841
2013    13      5       0.1715941       47.64873
2013    13      6       0.1372016       39.73681
2013    13      7       0.1489394       42.33386
2013    14      0       0.1757095       47.88581
2013    14      1       0.08714972      27.37474
2013    14      2       0.08489449      26.59873
2013    14      3       0.09256028      28.25476
2013    14      4       0.09673098      29.33616
2013    14      5       0.1094701       32.43367
2013    14      6       0.1514008       41.5859
2013    14      7       0.1904171       49.8277
2013    15      0       0.1854339       48.72034
2013    15      1       0.1408365       39.29592
2013    15      2       0.09694023      29.90817
2013    15      3       0.1216697       35.47531
2013    15      4       0.1443969       40.52193
2013    15      5       0.1061512       31.88634
2013    15      6       0.1023215       31.01988
2013    15      7       0.08718759      27.49232
2013    16      0       0.1448448       40.33564
2013    16      1       0.2230872       56.42083
2013    16      2       0.3069296       72.43073
2013    16      3       0.531708        109.7151
2013    16      4       0.655781        128.6228
2013    16      5       0.5203512       110.1648
2013    16      6       0.5462252       114.283
2013    16      7       0.4388256       97.74981
2013    17      0       0.3685125       85.31106
2013    17      1       0.3008302       73.11309
2013    17      2       0.2331769       60.20297
2013    17      3       0.1856984       50.45434
2013    17      4       0.1733009       47.37143
2013    17      5       0.1792924       48.19382
2013    17      6       0.1934744       51.08059
2013    17      7       0.1715295       46.93381
2013    18      0       0.1788072       48.45711
2013    18      1       0.1931039       51.29595
2013    18      2       0.2082619       54.25606
2013    18      3       0.2575275       63.53337
2013    18      4       0.3191876       74.81599
2013    18      5       0.353944        81.34098
2013    18      6       0.3841817       87.0047
2013    18      7       0.421563        93.1929
2013    19      0       0.4892683       103.7111
2013    19      1       0.5581379       113.2179
2013    19      2       0.4289264       93.81939
2013    19      3       0.6360233       123.8988
2013    19      4       0.8474505       150.5434
2013    19      5       0.8364819       149.4277
2013    19      6       0.8447704       150.3396
2013    19      7       0.8331272       149.074
2013    20      0       0.8785449       153.8016
2013    20      1       0.8192546       147.3235
2013    20      2       0.9221622       158.0311
2013    20      3       0.8706547       152.8732
2013    20      4       0.6445958       126.683
2013    20      5       0.3420405       80.11322
2013    20      6       0.3886405       88.17282
2013    20      7       0.6940668       132.0162
2013    21      0       0.6507477       125.8069
2013    21      1       0.5959251       118.4291
2013    21      2       0.6362135       124.1223
2013    21      3       0.4536531       98.12291
2013    21      4       0.4436061       96.25648
2013    21      5       0.4557341       97.766
2013    21      6       0.4438271       95.63101
2013    21      7       0.4744522       100.228
2013    22      0       0.6401357       123.6899
2013    22      1       0.6186261       121.022
2013    22      2       0.5736461       114.5603
2013    22      3       0.6372012       123.0062
2013    22      4       0.6371386       123.5662
2013    22      5       0.631638        123.287
2013    22      6       0.7301142       135.7063
2013    22      7       0.6975355       132.1516
2013    23      0       0.7119925       134.259
2013    23      1       0.7298191       137.0746
2013    23      2       0.7416815       138.5224
2013    23      3       0.7363726       137.1967
2013    23      4       0.7177235       135.0944
2013    23      5       0.6667796       128.919
2013    23      6       0.6457186       126.2619
2013    23      7       0.6649688       128.4799
2013    24      0       0.7356772       136.9372
2013    24      1       0.6973788       132.1716
2013    24      2       0.6084748       120.8236
2013    24      3       0.5827074       117.3671
2013    24      4       0.5572866       113.9794
2013    24      5       0.4593374       99.43709
2013    24      6       0.4090959       91.30316
2013    24      7       0.3672803       84.51597
2013    25      0       0.1984588       52.55973
2013    25      1       0.05897385      20.5018
2013    25      2       0.08863954      27.68939
2013    25      3       0.1662571       45.385
2013    25      4       0.27162         67.44314
2013    25      5       0.2881696       70.72741
2013    25      6       0.3038372       73.80561
2013    25      7       0.326825        78.27253
2013    26      0       0.317291        76.45485
2013    26      1       0.3017562       73.45975
2013    26      2       0.2984609       72.62596
2013    26      3       0.3208592       76.44246
2013    26      4       0.3584962       82.96691
2013    26      5       0.3893994       88.26724
2013    26      6       0.3862944       87.68485
2013    26      7       0.3896388       87.94866
2013    27      0       0.4269561       94.16849
2013    27      1       0.4577007       99.23228
2013    27      2       0.5182741       108.4368
2013    27      3       0.5967721       119.9601
2013    27      4       0.6102613       121.2323
2013    27      5       0.5938134       118.4006
2013    27      6       0.5197674       107.5134
2013    27      7       0.4661984       99.29106
2013    28      0       0.490599        102.825
2013    28      1       0.4743244       100.2117
2013    28      2       0.4320953       93.47235
2013    28      3       0.4852756       102.5639
2013    28      4       0.4778284       101.0724
2013    28      5       0.356847        80.485
2013    28      6       0.3305605       75.72848
2013    28      7       0.3656436       81.8654
2013    29      0       0.3937144       86.73171
2013    29      1       0.3959038       87.40004
2013    29      2       0.3897082       86.71783
2013    29      3       0.3881725       86.8673
2013    29      4       0.3929052       87.83239
2013    29      5       0.3629556       82.78831
2013    29      6       0.3623662       82.63499
2013    29      7       0.3852096       86.46649
2013    30      0       0.330458        76.82298
2013    30      1       0.2949309       70.24846
2013    30      2       0.2494899       61.77735
2013    30      3       0.2150063       55.03155
2013    30      4       0.1752504       46.78069
2013    30      5       0.1658969       44.76145
2013    30      6       0.1636813       44.26341
2013    30      7       0.2067251       52.86223
2014    1       0       0.4445974       97.39991
2014    1       1       0.3761805       86.16425
2014    1       2       0.3402957       79.52562
2014    1       3       0.6036092       119.7586
2014    1       4       0.4398036       93.98168
2014    1       5       0.4471784       95.12496
2014    1       6       0.3177476       73.65009
2014    1       7       0.4988249       103.5028
2014    2       0       0.5284415       107.5347
2014    2       1       0.4639283       97.66874
2014    2       2       0.3206462       73.66892
2014    2       3       0.2086381       52.56414
2014    2       4       0.186647        48.03071
2014    2       5       0.182691        47.32775
2014    2       6       0.165383        43.8737
2014    2       7       0.1866422       48.83573
2014    3       0       0.1244468       35.77282
2014    3       1       0.08017608      25.4689
2014    3       2       0.1110129       32.35635
2014    3       3       0.148127        40.39564
2014    3       4       0.2035512       52.03175
2014    3       5       0.2612724       63.83285
2014    3       6       0.3161035       74.2282
2014    3       7       0.3532225       80.82084
2014    4       0       0.3620154       82.54909
2014    4       1       0.3966306       88.4477
2014    4       2       0.3932641       88.35195
2014    4       3       0.4287345       94.83327
2014    4       4       0.5128449       108.4651
2014    4       5       0.6489164       128.0622
2014    4       6       0.8281227       150.6442
2014    4       7       0.9509104       164.1238
2014    5       0       0.7993294       148.1387
2014    5       1       0.5128584       109.9291
2014    5       2       0.3886138       89.5065
2014    5       3       0.2919747       71.26052
2014    5       4       0.3099302       74.43041
2014    5       5       0.283005        69.23974
2014    5       6       0.2302541       58.62427
2014    5       7       0.2553855       63.40182
2014    6       0       0.2756412       67.27527
2014    6       1       0.2730106       66.77371
2014    6       2       0.2943683       70.64924
2014    6       3       0.3057984       73.19293
2014    6       4       0.3092289       74.10538
2014    6       5       0.2988744       72.24741
2014    6       6       0.3316551       78.9426
2014    6       7       0.4852616       106.1254
2014    7       0       0.481171        105.5695
2014    7       1       0.3000164       74.21775
2014    7       2       0.2041051       54.4839
2014    7       3       0.1800392       48.68995
2014    7       4       0.1837608       49.33126
2014    7       5       0.2318464       58.94261
2014    7       6       0.4235905       94.51216
2014    7       7       0.6018108       123.1551
2014    8       0       0.7795246       147.0489
2014    8       1       0.7911552       148.7718
2014    8       2       0.7058236       138.5382
2014    8       3       0.6245948       127.8274
2014    8       4       0.4977269       108.9708
2014    8       5       0.376033        88.65252
2014    8       6       0.2937661       73.33936
2014    8       7       0.288469        72.04916
2014    9       0       0.3447955       82.34373
2014    9       1       0.45589         101.1559
2014    9       2       0.6862956       134.6883
2014    9       3       0.8678784       156.2867
2014    9       4       0.7921674       147.6504
2014    9       5       0.6183549       125.4629
2014    9       6       0.4881          105.6567
2014    9       7       0.4173869       94.03135
2014    10      0       0.4888022       105.9279
2014    10      1       0.3350086       79.02627
2014    10      2       0.459819        99.44636
2014    10      3       0.421135        93.8129
2014    10      4       0.2325793       59.60627
2014    10      5       0.1250021       36.50319
2014    10      6       0.1804503       48.7059
2014    10      7       0.1624737       44.8392
2014    11      0       0.1533842       42.89545
2014    11      1       0.1332169       38.30808
2014    11      2       0.1428873       40.26494
2014    11      3       0.163068        44.87697
2014    11      4       0.1703221       46.47391
2014    11      5       0.1989556       52.5435
2014    11      6       0.3248066       76.89603
2014    11      7       0.4008134       89.77663
2014    12      0       0.4817544       102.4228
2014    12      1       0.5875822       118.5326
2014    12      2       0.4174324       92.49799
2014    12      3       0.3285026       76.74828
2014    12      4       0.2559107       63.6494
2014    12      5       0.2685475       66.25085
2014    12      6       0.3374702       78.79087
2014    12      7       0.6021898       120.298
2014    13      0       0.6473491       127.29
2014    13      1       0.6897786       132.7604
2014    13      2       0.7823319       144.8861
2014    13      3       0.6439741       126.3367
2014    13      4       0.2572256       64.2265
2014    13      5       0.3197626       75.98087
2014    13      6       0.20473         52.29436
2014    13      7       0.3250035       74.87059
2014    14      0       0.4218891       91.86262
2014    14      1       0.4345946       93.84813
2014    14      2       0.5453005       110.7823
2014    14      3       0.6356391       123.2525
2014    14      4       0.6526198       125.5681
2014    14      5       0.312564        73.67731
2014    14      6       0.3085475       73.00899
2014    14      7       0.2844393       68.69731
2014    15      0       0.3121936       73.0073
2014    15      1       0.3221572       74.94586
2014    15      2       0.3768746       84.87864
2014    15      3       0.4895279       103.1556
2014    15      4       0.5335105       109.9563
2014    15      5       0.4560436       98.86456
2014    15      6       0.4498879       97.54346
2014    15      7       0.3794103       85.41318
2014    16      0       0.3773395       84.87322
2014    16      1       0.1964332       50.47378
2014    16      2       0.1137572       32.78012
2014    16      3       0.09857741      29.20211
2014    16      4       0.1158819       33.141
2014    16      5       0.1332722       36.9566
2014    16      6       0.1715208       44.95321
2014    16      7       0.2277535       56.25543
2014    17      0       0.2733051       65.14529
2014    17      1       0.294278        69.1558
2014    17      2       0.2754822       66.10715
2014    17      3       0.2864576       68.35983
2014    17      4       0.2567345       62.87313
2014    17      5       0.2085781       53.71386
2014    17      6       0.1366174       38.66074
2014    17      7       0.1220029       35.04635
2014    18      0       0.1137482       33.0581
2014    18      1       0.1009656       30.1118
2014    18      2       0.1016691       30.26095
2014    18      3       0.1083784       31.73086
2014    18      4       0.1207262       34.36969
2014    18      5       0.1348573       37.21467
2014    18      6       0.1975734       50.45496
2014    18      7       0.4583863       98.40737
2014    19      0       0.7678353       141.2735
2014    19      1       0.969765        163.2689
2014    19      2       0.7654743       141.4234
2014    19      3       0.5303085       109.8086
2014    19      4       0.4801107       101.7853
2014    19      5       0.7347809       136.3145
2014    19      6       0.505941        106.5902
2014    19      7       0.3979472       89.79064
2014    20      0       0.3220133       76.18176
2014    20      1       0.1892178       49.71667
2014    20      2       0.1513012       41.16033
2014    20      3       0.1257358       35.76076
2014    20      4       0.2145247       54.35342
2014    20      5       0.3734832       83.84463
2014    20      6       0.3975181       87.26844
2014    20      7       0.4042976       88.05502
2014    21      0       0.5236671       106.8001
2014    21      1       0.4895318       102.0715
2014    21      2       0.4028739       88.80455
2014    21      3       0.393073        87.30539
2014    21      4       0.2692575       65.48954
2014    21      5       0.195002        50.77925
2014    21      6       0.2174267       54.88678
2014    21      7       0.3667094       82.88882
2014    22      0       0.7801554       142.9455
2014    22      1       0.8853812       156.2794
2014    22      2       0.8799393       156.0634
2014    22      3       0.7559608       142.4481
2014    22      4       0.9305771       161.457
2014    22      5       0.4438566       97.07403
2014    22      6       0.3173271       74.58013
2014    22      7       0.2617058       64.50422
2014    23      0       0.2309888       57.89084
2014    23      1       0.2833332       67.91879
2014    23      2       0.2759782       66.70633
2014    23      3       0.3141442       73.87968
2014    23      4       0.2982109       70.73674
2014    23      5       0.3325961       77.10308
2014    23      6       0.4240491       92.72144
2014    23      7       0.4724673       100.2581
2014    24      0       0.4426151       95.5204
2014    24      1       0.4010355       89.14413
2014    24      2       0.4354615       95.23042
2014    24      3       0.2991473       71.0298
2014    24      4       0.3663584       83.06855
2014    24      5       0.248115        61.70466
2014    24      6       0.260875        64.42979
2014    24      7       0.2879978       69.44297
2014    25      0       0.3850775       87.16472
2014    25      1       0.3823977       87.33943
2014    25      2       0.2863966       70.18643
2014    25      3       0.2323042       59.03332
2014    25      4       0.3709773       84.97168
2014    25      5       0.4847024       104.0991
2014    25      6       0.4013411       90.1764
2014    25      7       0.411302        91.70786
2014    26      0       0.4644029       100.2207
2014    26      1       0.4454509       97.51472
2014    26      2       0.3129823       74.21407
2014    26      3       0.4118186       91.58516
2014    26      4       0.3153144       74.46656
2014    26      5       0.2562788       63.22839
2014    26      6       0.2206223       56.38165
2014    26      7       0.2577586       63.88503
2014    27      0       0.3350843       78.44559
2014    27      1       0.3299059       77.66721
2014    27      2       0.3121075       74.01516
2014    27      3       0.3468793       80.08742
2014    27      4       0.3700505       84.23065
2014    27      5       0.3812872       86.20356
2014    27      6       0.3944975       88.24708
2014    27      7       0.3492248       80.61178
2014    28      0       0.294286        70.76246
2014    28      1       0.2479444       61.79374
2014    28      2       0.2091475       54.04624
2014    28      3       0.1945304       51.03357
2014    28      4       0.1637708       44.64162
2014    28      5       0.1282726       36.90939
2014    28      6       0.1283557       36.96395
2014    28      7       0.1421968       40.08358
2014    29      0       0.1602056       44.13347
2014    29      1       0.227779        58.31981
2014    29      2       0.2322169       59.62172
2014    29      3       0.257506        64.24283
2014    29      4       0.2397325       60.50184
2014    29      5       0.218406        56.13122
2014    29      6       0.1282936       37.28999
2014    29      7       0.1439799       40.51153
2014    30      0       0.189956        49.54733
2014    30      1       0.2362599       58.79814
2014    30      2       0.3185731       74.16641
2014    30      3       0.2938681       69.23496
2014    30      4       0.2681718       64.69259
2014    30      5       0.214341        54.2198
2014    30      6       0.5074355       104.7448
2014    30      7       0.4783659       101.5014
2015    1       0       0.3474746       81.16218
2015    1       1       0.3357921       78.87004
2015    1       2       0.3420105       79.99637
2015    1       3       0.3493791       81.41156
2015    1       4       0.3397623       79.16159
2015    1       5       0.3284525       76.8681
2015    1       6       0.2768838       67.75891
2015    1       7       0.3579921       82.76511
2015    2       0       0.4539406       99.13092
2015    2       1       0.5303498       111.3198
2015    2       2       0.5236332       110.561
2015    2       3       0.5226188       110.4232
2015    2       4       0.4160984       93.06257
2015    2       5       0.372262        84.80275
2015    2       6       0.5930365       119.7729
2015    2       7       0.7835971       144.4597
2015    3       0       0.8189232       147.3164
2015    3       1       0.5495222       112.0669
2015    3       2       0.5453972       110.3861
2015    3       3       0.4857527       100.9195
2015    3       4       0.3071249       71.33934
2015    3       5       0.2589901       62.55103
2015    3       6       0.3824477       84.49475
2015    3       7       0.4083486       88.52705
2015    4       0       0.4157235       89.85591
2015    4       1       0.2320156       57.3765
2015    4       2       0.1398878       38.74428
2015    4       3       0.1658805       44.1683
2015    4       4       0.1939454       49.66194
2015    4       5       0.1625807       43.22631
2015    4       6       0.246246        59.94816
2015    4       7       0.1613531       43.31413
2015    5       0       0.1058268       31.36442
2015    5       1       0.07945818      25.28781
2015    5       2       0.1069205       31.45854
2015    5       3       0.1604942       43.12656
2015    5       4       0.2196511       55.25122
2015    5       5       0.3189915       74.53542
2015    5       6       0.5563249       113.3123
2015    5       7       0.7170817       134.5584
2015    6       0       0.6124986       121.2309
2015    6       1       0.2106536       54.84082
2015    6       2       0.1613364       43.60673
2015    6       3       0.2825201       68.03856
2015    6       4       0.3486779       80.51527
2015    6       5       0.3206751       75.80566
2015    6       6       0.2927743       70.61225
2015    6       7       0.2407966       60.46832
2015    7       0       0.208598        54.08128
2015    7       1       0.216348        55.69735
2015    7       2       0.2226233       57.0186
2015    7       3       0.2146933       55.49786
2015    7       4       0.2005947       52.48583
2015    7       5       0.1892194       50.06101
2015    7       6       0.1882356       49.78959
2015    7       7       0.1865576       49.29358
2015    8       0       0.2274353       57.49344
2015    8       1       0.2644768       65.04555
2015    8       2       0.2469083       61.69129
2015    8       3       0.2190073       55.97111
2015    8       4       0.2272176       57.4029
2015    8       5       0.2771892       66.80257
2015    8       6       0.3729969       84.04713
2015    8       7       0.5114329       106.7474
2015    9       0       0.5354176       110.252
2015    9       1       0.4391869       95.64736
2015    9       2       0.3911129       87.54791
2015    9       3       0.383029        86.18082
2015    9       4       0.07260743      23.86159
2015    9       5       0.1282593       36.38305
2015    9       6       0.2157542       54.70363
2015    9       7       0.3584883       81.02711
2015    10      0       0.3976929       87.40591
2015    10      1       0.2658216       64.15176
2015    10      2       0.2360907       58.26899
2015    10      3       0.191802        49.34815
2015    10      4       0.2708158       64.37396
2015    10      5       0.361076        80.24415
2015    10      6       0.3922472       85.5507
2015    10      7       0.2957788       68.92141
2015    11      0       0.1381157       38.05766
2015    11      1       0.06930789      22.94501
2015    11      2       0.07700889      24.92815
2015    11      3       0.08345708      26.38685
2015    11      4       0.09987486      30.08108
2015    11      5       0.1228617       35.22493
2015    11      6       0.1473556       40.7094
2015    11      7       0.1798161       47.59591
2015    12      0       0.2197508       55.6868
2015    12      1       0.2799488       67.69558
2015    12      2       0.3157187       74.56791
2015    12      3       0.322716        75.83495
2015    12      4       0.2952887       71.06229
2015    12      5       0.2764844       67.21712
2015    12      6       0.182525        48.83912
2015    12      7       0.1362546       38.57624
2015    13      0       0.1466797       40.87281
2015    13      1       0.1793864       47.89434
2015    13      2       0.219946        56.36355
2015    13      3       0.2805753       68.4048
2015    13      4       0.333712        78.54945
2015    13      5       0.3806058       87.06579
2015    13      6       0.372172        85.50889
2015    13      7       0.3842602       87.69683
2015    14      0       0.397158        90.0039
2015    14      1       0.4328914       96.02574
2015    14      2       0.4847452       104.4177
2015    14      3       0.4961322       106.286
2015    14      4       0.4777366       103.3759
2015    14      5       0.4476753       98.59778
2015    14      6       0.4415161       97.75725
2015    14      7       0.421705        94.26997
2015    15      0       0.3871374       88.05086
2015    15      1       0.373825        85.53422
2015    15      2       0.3327195       78.17894
2015    15      3       0.2418302       61.15379
2015    15      4       0.2063435       53.63387
2015    15      5       0.179528        47.62049
2015    15      6       0.3030895       71.53308
2015    15      7       0.5120319       104.9433
2015    16      0       0.3359128       76.41933
2015    16      1       0.2947773       68.71805
2015    16      2       0.2684223       63.6908
2015    16      3       0.2458185       59.44445
2015    16      4       0.164853        43.92152
2015    16      5       0.1005649       30.16331
2015    16      6       0.09016276      27.37855
2015    16      7       0.162689        43.27334
2015    17      0       0.2677274       65.4961
2015    17      1       0.3636552       84.15499
2015    17      2       0.3629758       84.25942
2015    17      3       0.4223444       94.62733
2015    17      4       0.4428909       97.74168
2015    17      5       0.4041873       91.00416
2015    17      6       0.5338513       110.984
2015    17      7       0.5464393       113.112
2015    18      0       0.4438622       97.55943
2015    18      1       0.2432278       61.41571
2015    18      2       0.2442187       61.47299
2015    18      3       0.3226547       76.53166
2015    18      4       0.4561292       99.86748
2015    18      5       0.3700403       86.27764
2015    18      6       0.3285151       78.79114
2015    18      7       0.4088976       93.08828
2015    19      0       0.3388514       80.73986
2015    19      1       0.3363361       80.05087
2015    19      2       0.4533712       99.97631
2015    19      3       0.2355187       60.33557
2015    19      4       0.1513589       42.14193
2015    19      5       0.2342587       59.91385
2015    19      6       0.275008        68.62781
2015    19      7       0.2515327       64.14013
2015    20      0       0.2298554       59.6658
2015    20      1       0.4008192       91.87507
2015    20      2       0.2475144       63.32253
2015    20      3       0.1682689       45.46835
2015    20      4       0.2166842       55.92547
2015    20      5       0.235912        60.12002
2015    20      6       0.3961662       90.05121
2015    20      7       0.4279499       95.43319
2015    21      0       0.4386469       97.60885
2015    21      1       0.4734039       103.0899
2015    21      2       0.4870715       104.9576
2015    21      3       0.436385        96.68914
2015    21      4       0.3178139       75.60994
2015    21      5       0.2890956       70.19117
2015    21      6       0.3204292       76.41686
2015    21      7       0.3685351       84.26609
2015    22      0       0.4045185       90.49709
2015    22      1       0.4121905       91.97825
2015    22      2       0.3846164       87.56386
2015    22      3       0.3710718       85.12293
2015    22      4       0.3679666       84.37002
2015    22      5       0.3715315       84.80998
2015    22      6       0.3321552       78.0498
2015    22      7       0.2350798       59.52805
2015    23      0       0.176438        47.4489
2015    23      1       0.1617107       44.14617
2015    23      2       0.1685945       45.58843
2015    23      3       0.2255578       56.80207
2015    23      4       0.3248858       75.46868
2015    23      5       0.4744121       100.267
2015    23      6       0.4021063       89.58284
2015    23      7       0.3942253       89.04306
2015    24      0       0.2860101       69.61043
2015    24      1       0.110566        32.77488
2015    24      2       0.2642105       64.42485
2015    24      3       0.3606892       82.63129
2015    24      4       0.3128477       74.25992
2015    24      5       0.3125789       74.186
2015    24      6       0.4365987       96.49627
2015    24      7       0.3727563       85.77201
2015    25      0       0.1277086       36.67437
2015    25      1       0.08389264      26.75503
2015    25      2       0.0532575       19.32671
2015    25      3       0.09541748      29.64402
2015    25      4       0.1427468       39.62891
2015    25      5       0.1603718       42.74284
2015    25      6       0.2881366       67.35234
2015    25      7       0.316185        72.39527
2015    26      0       0.328645        74.37305
2015    26      1       0.2763937       64.97853
2015    26      2       0.1550729       41.53554
2015    26      3       0.193299        49.37914
2015    26      4       0.2394101       58.63916
2015    26      5       0.253989        61.31144
2015    26      6       0.237836        58.26859
2015    26      7       0.2269767       56.21546
2015    27      0       0.2317989       57.26321
2015    27      1       0.2492428       60.43319
2015    27      2       0.2719953       64.509
2015    27      3       0.2955934       68.58864
2015    27      4       0.3016664       69.67047
2015    27      5       0.2867322       66.97504
2015    27      6       0.2668048       63.244
2015    27      7       0.2881161       67.32449
2015    28      0       0.3055309       70.40179
2015    28      1       0.2721235       64.08359
2015    28      2       0.2388617       57.75033
2015    28      3       0.1994473       50.10616
2015    28      4       0.2106965       52.27361
2015    28      5       0.2020403       50.6885
2015    28      6       0.1588669       42.18327
2015    28      7       0.1510345       40.58062
2015    29      0       0.1294799       36.18702
2015    29      1       0.1070046       31.33235
2015    29      2       0.1202084       34.20867
2015    29      3       0.1385948       38.04249
2015    29      4       0.170825        44.52316
2015    29      5       0.212491        52.95345
2015    29      6       0.1651235       44.12183
2015    29      7       0.1161864       33.78376
2015    30      0       0.09728126      29.44854
2015    30      1       0.09280322      28.44246
2015    30      2       0.09205688      28.18593
2015    30      3       0.1008159       30.08309
2015    30      4       0.1352638       37.57433
2015    30      5       0.1986721       51.0276
2015    30      6       0.3297336       75.79303
2015    30      7       0.3249877       75.1055
2016    1       0       0.2644543       64.59291
2016    1       1       0.3363885       78.62849
2016    1       2       0.1530505       41.8063
2016    1       3       0.3153615       73.47086
2016    1       4       0.5454996       111.4158
2016    1       5       0.481428        101.7801
2016    1       6       0.388832        87.19139
2016    1       7       0.4108474       91.83256
2016    2       0       0.2120381       55.05656
2016    2       1       0.1108643       32.74276
2016    2       2       0.1652803       44.97713
2016    2       3       0.2408952       61.14896
2016    2       4       0.3305759       78.76426
2016    2       5       0.3355937       79.75024
2016    2       6       0.309372        75.00623
2016    2       7       0.3136235       75.98284
2016    3       0       0.3243193       77.9887
2016    3       1       0.3182451       76.63806
2016    3       2       0.2835673       70.28182
2016    3       3       0.2457719       62.97412
2016    3       4       0.2367645       60.96809
2016    3       5       0.2318755       59.79632
2016    3       6       0.2187881       56.99308
2016    3       7       0.2069668       54.56227
2016    4       0       0.1938982       51.8677
2016    4       1       0.1880945       50.5384
2016    4       2       0.1912951       51.08049
2016    4       3       0.1788409       48.39824
2016    4       4       0.1882207       50.29682
2016    4       5       0.196863        51.96352
2016    4       6       0.2063173       53.85082
2016    4       7       0.2394314       60.6157
2016    5       0       0.2412128       60.79779
2016    5       1       0.2403425       60.12704
2016    5       2       0.2664095       65.04342
2016    5       3       0.2833594       68.45943
2016    5       4       0.2768643       67.76103
2016    5       5       0.2682634       66.41063
2016    5       6       0.2718192       67.29245
2016    5       7       0.3054046       73.88918
2016    6       0       0.4002249       91.06122
2016    6       1       0.3867107       88.42848
2016    6       2       0.4374691       96.69822
2016    6       3       0.4899983       104.9543
2016    6       4       0.5614506       115.9651
2016    6       5       0.4504351       99.07968
2016    6       6       0.609869        121.9157
2016    6       7       0.9588519       163.5989
2016    7       0       1.179051        184.5139
2016    7       1       1.081683        176.8839
2016    7       2       1.083237        177.6539
2016    7       3       1.173191        185.2277
2016    7       4       1.235961        189.4445
2016    7       5       1.30126         193.9488
2016    7       6       1.213126        187.7129
2016    7       7       1.156516        183.4718
2016    8       0       1.086318        177.9942
2016    8       1       1.044381        174.5204
2016    8       2       0.9423755       165.3395
2016    8       3       0.8398757       154.6843
2016    8       4       0.7518992       144.2674
2016    8       5       0.6761905       134.6294
2016    8       6       0.6361129       129.2843
2016    8       7       0.63421         128.9092
2016    9       0       0.6320461       128.5766
2016    9       1       0.5974332       123.7113
2016    9       2       0.5654245       119.1004
2016    9       3       0.5561414       117.3931
2016    9       4       0.5432999       115.0137
2016    9       5       0.5406144       114.3579
2016    9       6       0.5594366       117.0476
2016    9       7       0.5824517       120.1254
2016    10      0       0.5966675       121.922
2016    10      1       0.5957227       121.7007
2016    10      2       0.5666264       117.367
2016    10      3       0.5297478       111.6415
2016    10      4       0.5166918       109.483
2016    10      5       0.512995        108.37
2016    10      6       0.4931556       105.0406
2016    10      7       0.5059766       107.4625
2016    11      0       0.4893681       105.3107
2016    11      1       0.4477866       98.64082
2016    11      2       0.4378433       96.96139
2016    11      3       0.4522996       99.39602
2016    11      4       0.4312671       95.82543
2016    11      5       0.4039829       91.26376
2016    11      6       0.3860824       88.35384
2016    11      7       0.368119        85.2989
2016    12      0       0.4629657       101.3524
2016    12      1       0.52245         110.2255
2016    12      2       0.5523445       113.8203
2016    12      3       0.6509955       126.7587
2016    12      4       0.9380585       160.3102
2016    12      5       0.8470747       151.7379
2016    12      6       0.6472444       128.2591
2016    12      7       0.6149315       124.1397
2016    13      0       0.4871258       105.7767
2016    13      1       0.3349708       79.89876
2016    13      2       0.2228468       57.86127
2016    13      3       0.2138822       55.76181
2016    13      4       0.1897054       50.13948
2016    13      5       0.2377045       59.99034
2016    13      6       0.2906766       70.61462
2016    13      7       0.3985724       90.25451
2016    14      0       0.6299779       125.5288
2016    14      1       0.6145441       124.2157
2016    14      2       0.5339736       112.741
2016    14      3       0.4723302       102.8329
2016    14      4       0.4153626       93.53669
2016    14      5       0.410874        92.99013
2016    14      6       0.3807833       87.77788
2016    14      7       0.381147        88.09124
2016    15      0       0.3766476       87.51907
2016    15      1       0.3903891       89.82694
2016    15      2       0.4066723       92.74031
2016    15      3       0.4018521       91.57564
2016    15      4       0.4032816       91.84083
2016    15      5       0.3898385       89.98029
2016    15      6       0.3733489       87.04589
2016    15      7       0.2464092       62.50555
2016    16      0       0.2029868       53.52245
2016    16      1       0.2625161       65.15182
2016    16      2       0.2760651       68.04226
2016    16      3       0.5825162       118.8416
2016    16      4       0.3595999       82.30345
2016    16      5       0.1135218       33.08675
2016    16      6       0.07477503      24.06023
2016    16      7       0.07908636      25.50307
2016    17      0       0.1924499       50.6776
2016    17      1       0.08690718      27.22591
2016    17      2       0.08272479      26.01301
2016    17      3       0.1286563       36.02129
2016    17      4       0.2825868       67.61996
2016    17      5       0.3808154       85.17631
2016    17      6       0.4652483       99.83083
2016    17      7       0.428732        95.19532
2016    18      0       0.3308354       78.48858
2016    18      1       0.2822034       68.6507
2016    18      2       0.4275733       93.98549
2016    18      3       0.4031205       90.94764
2016    18      4       0.5603949       116.9597
2016    18      5       0.6936951       135.1827
2016    18      6       0.7186242       138.2669
2016    18      7       0.6722717       132.4391
2016    19      0       0.4147963       93.29526
2016    19      1       0.4466164       99.36071
2016    19      2       0.5056357       108.8971
2016    19      3       0.4799126       104.5222
2016    19      4       0.4963304       107.257
2016    19      5       0.5134331       109.9604
2016    19      6       0.504333        108.6471
2016    19      7       0.5457707       114.2749
2016    20      0       0.5761344       118.4083
2016    20      1       0.4162446       93.88119
2016    20      2       0.351583        82.58758
2016    20      3       0.4037746       91.40155
2016    20      4       0.4672377       101.5281
2016    20      5       0.5128591       108.3933
2016    20      6       0.5667065       116.5742
2016    20      7       0.5472387       113.2743
2016    21      0       0.5596887       114.6642
2016    21      1       0.555197        113.4658
2016    21      2       0.7922098       143.6051
2016    21      3       0.723008        134.6959
2016    21      4       0.708598        133.0707
2016    21      5       0.5653783       113.7785
2016    21      6       0.4220174       92.65468
2016    21      7       0.3922714       87.72152
2016    22      0       0.2318948       58.64931
2016    22      1       0.1199982       34.99986
2016    22      2       0.1005194       30.39855
2016    22      3       0.1205524       34.87199
2016    22      4       0.1607397       43.51386
2016    22      5       0.1654072       44.17475
2016    22      6       0.2893378       68.86956
2016    22      7       0.473982        100.6428
2016    23      0       0.4891167       103.4307
2016    23      1       0.3597124       81.96648
2016    23      2       0.3963335       87.99663
2016    23      3       0.4821254       101.9504
2016    23      4       0.211196        53.70327
2016    23      5       0.08030266      25.29284
2016    23      6       0.06573193      21.94468
2016    23      7       0.06399122      21.63267
2016    24      0       0.08932433      27.62695
2016    24      1       0.06349711      21.56643
2016    24      2       0.08936956      27.52477
2016    24      3       0.10499         30.99924
2016    24      4       0.07982917      25.33082
2016    24      5       0.06792281      22.5333
2016    24      6       0.07449915      23.98753
2016    24      7       0.1031409       30.51108
2016    25      0       0.131272        36.88135
2016    25      1       0.1606279       43.20967
2016    25      2       0.1482315       40.61685
2016    25      3       0.1320164       37.06138
2016    25      4       0.1270433       35.98514
2016    25      5       0.1290638       36.27475
2016    25      6       0.1799728       46.86736
2016    25      7       0.2061027       52.24944
2016    26      0       0.1988455       50.66037
2016    26      1       0.1711199       44.65767
2016    26      2       0.1884842       48.32411
2016    26      3       0.1068931       31.1499
2016    26      4       0.105842        31.11344
2016    26      5       0.1244944       35.449
2016    26      6       0.115779        33.60664
2016    26      7       0.1340783       37.61574
2016    27      0       0.3268635       74.68643
2016    27      1       0.4011666       87.42919
2016    27      2       0.2159119       54.23329
2016    27      3       0.3182614       73.33473
2016    27      4       0.2760363       65.82889
2016    27      5       0.2689579       64.115
2016    27      6       0.3738012       82.57089
2016    27      7       0.1759106       46.54976
2016    28      0       0.2035628       51.68931
2016    28      1       0.4866282       102.2061
2016    28      2       0.8040291       144.8139
2016    28      3       0.9296795       158.6805
2016    28      4       0.8532517       151.3912
2016    28      5       0.6102301       121.5736
2016    28      6       0.2718098       65.87322
2016    28      7       0.2257822       56.96458
2016    29      0       0.1777103       47.22957
2016    29      1       0.1495811       41.33027
2016    29      2       0.144234        40.27102
2016    29      3       0.1746222       46.74201
2016    29      4       0.1840924       48.6668
2016    29      5       0.2178706       55.93061
2016    29      6       0.3029174       72.60884
2016    29      7       0.3977885       89.55929
2016    30      0       0.4926695       104.8027
2016    30      1       0.485511        104.1102
2016    30      2       0.4109074       92.37179
2016    30      3       0.27029         66.81868
2016    30      4       0.2046693       53.06078
2016    30      5       0.2376625       58.86293
2016    30      6       0.3052345       71.63353
2016    30      7       0.2498698       61.69218
2017    1       0       0.2047964       53.73736
2017    1       1       0.2094738       54.50685
2017    1       2       0.3080842       73.9909
2017    1       3       0.398875        91.18769
2017    1       4       0.450879        100.0856
2017    1       5       0.409363        93.54233
2017    1       6       0.3734925       87.01733
2017    1       7       0.3362246       79.90561
2017    2       0       0.2856519       70.30275
2017    2       1       0.3453094       81.68819
2017    2       2       0.3763832       87.33077
2017    2       3       0.3610736       84.55323
2017    2       4       0.3962476       90.75439
2017    2       5       0.4122067       93.27909
2017    2       6       0.3803328       87.7406
2017    2       7       0.3495202       82.27708
2017    3       0       0.4722857       103.2551
2017    3       1       0.5603532       116.5595
2017    3       2       0.4307472       96.1982
2017    3       3       0.2979476       71.7602
2017    3       4       0.2183295       55.86567
2017    3       5       0.1936216       50.7091
2017    3       6       0.2863984       69.23515
2017    3       7       0.4087662       91.20519
2017    4       0       0.4207567       93.05219
2017    4       1       0.4763535       101.3307
2017    4       2       0.5824106       116.6838
2017    4       3       0.6459438       125.7668
2017    4       4       0.572838        115.8793
2017    4       5       0.4469723       96.75138
2017    4       6       0.5158983       106.8339
2017    4       7       0.5879539       117.9528
2017    5       0       0.4927997       104.5213
2017    5       1       0.4398745       96.02554
2017    5       2       0.2251452       57.54291
2017    5       3       0.078963        25.4753
2017    5       4       0.1128375       33.27902
2017    5       5       0.1983498       51.93519
2017    5       6       0.253658        63.01866
2017    5       7       0.2875803       69.44724
2017    6       0       0.3047373       72.63669
2017    6       1       0.3154607       74.4533
2017    6       2       0.3495779       80.55784
2017    6       3       0.3485325       80.56446
2017    6       4       0.3048999       72.62599
2017    6       5       0.2798322       67.38434
2017    6       6       0.1753855       46.73733
2017    6       7       0.1855008       48.78273
2017    7       0       0.1845022       48.47208
2017    7       1       0.1202587       34.65505
2017    7       2       0.08910163      27.58721
2017    7       3       0.1072394       31.88363
2017    7       4       0.1233453       35.77829
2017    7       5       0.1443421       40.61476
2017    7       6       0.1568998       42.69668
2017    7       7       0.1645255       44.33969
2017    8       0       0.1549927       42.56533
2017    8       1       0.163199        43.93578
2017    8       2       0.149319        41.19923
2017    8       3       0.1495361       41.18479
2017    8       4       0.2180969       55.46123
2017    8       5       0.237859        59.87801
2017    8       6       0.2730728       67.36779
2017    8       7       0.2691267       66.54041
2017    9       0       0.3420569       80.08065
2017    9       1       0.4877485       103.9602
2017    9       2       0.3676756       85.18255
2017    9       3       0.3159338       75.70468
2017    9       4       0.2193255       56.8759
2017    9       5       0.1034777       31.8412
2017    9       6       0.09363713      29.33969
2017    9       7       0.1252162       36.59608
2017    10      0       0.1334588       38.00666
2017    10      1       0.1251782       36.02445
2017    10      2       0.1332975       37.47144
2017    10      3       0.129729        36.50888
2017    10      4       0.1403127       38.44835
2017    10      5       0.1830188       47.28885
2017    10      6       0.2985294       69.95265
2017    10      7       0.5819124       117.4057
2017    11      0       0.2855544       69.38682
2017    11      1       0.09822627      30.06567
2017    11      2       0.09166145      28.4163
2017    11      3       0.09817094      30.06456
2017    11      4       0.08437275      26.88313
2017    11      5       0.07388561      24.27819
2017    11      6       0.08087819      25.67488
2017    11      7       0.1926757       49.68216
2017    12      0       0.2573353       62.9546
2017    12      1       0.4000083       89.45364
2017    12      2       0.536964        111.5919
2017    12      3       0.5065478       106.4393
2017    12      4       0.5153517       107.7331
2017    12      5       0.5042902       105.566
2017    12      6       0.5283672       108.3654
2017    12      7       0.5121763       107.1289
2017    13      0       0.3350383       77.89062
2017    13      1       0.3774525       85.16108
2017    13      2       0.4230568       93.37404
2017    13      3       0.4672094       100.8591
2017    13      4       0.4570851       99.28799
2017    13      5       0.4659904       100.6703
2017    13      6       0.473593        101.6326
2017    13      7       0.5227077       109.2332
2017    14      0       0.4913865       104.6931
2017    14      1       0.4187883       92.52054
2017    14      2       0.4681054       100.458
2017    14      3       0.7409179       138.9345
2017    14      4       0.5021998       106.3994
2017    14      5       0.2669923       64.87005
2017    14      6       0.232242        57.87945
2017    14      7       0.1901276       49.41399
2017    15      0       0.2826487       67.35028
2017    15      1       0.5545674       113.1389
2017    15      2       0.7018844       133.8533
2017    15      3       0.7560547       140.3555
2017    15      4       0.7690329       142.1544
2017    15      5       0.7839038       143.6711
2017    15      6       0.7682607       141.8585
2017    15      7       0.7526194       140.8384
2017    16      0       0.656103        129.0252
2017    16      1       0.5920903       120.51
2017    16      2       0.5585512       115.7478
2017    16      3       0.4805661       103.4853
2017    16      4       0.5476579       113.3638
2017    16      5       0.6499952       127.5522
2017    16      6       0.6481855       127.3083
2017    16      7       0.678461        130.9968
2017    17      0       0.6691537       129.7074
2017    17      1       0.7621665       140.9821
2017    17      2       0.5593259       114.0391
2017    17      3       0.9502149       161.6817
2017    17      4       0.3028166       72.71449
2017    17      5       0.1092516       32.58006
2017    17      6       0.06307711      21.5366
2017    17      7       0.05626241      19.75692
2017    18      0       0.06261661      21.42813
2017    18      1       0.07457622      24.46807
2017    18      2       0.08333003      26.56462
2017    18      3       0.09853994      29.93722
2017    18      4       0.08858235      27.5613
2017    18      5       0.08866567      27.34679
2017    18      6       0.1144139       33.10798
2017    18      7       0.1494711       40.85489
2017    19      0       0.1699683       45.26351
2017    19      1       0.2133481       53.8894
2017    19      2       0.2186388       55.00143
2017    19      3       0.2071458       52.74063
2017    19      4       0.1708715       45.53401
2017    19      5       0.1422412       39.90418
2017    19      6       0.1621303       43.74194
2017    19      7       0.2442223       60.32229
2017    20      0       0.4401345       95.13989
2017    20      1       0.5345318       110.5963
2017    20      2       0.6147592       121.5878
2017    20      3       1.213901        185.3624
2017    20      4       1.174617        183.9473
2017    20      5       1.007636        169.9561
2017    20      6       1.028053        171.4316
2017    20      7       1.168861        183.6019
2017    21      0       1.140899        181.2394
2017    21      1       1.119637        179.2767
2017    21      2       1.07205         175.2569
2017    21      3       1.201927        186.2399
2017    21      4       1.073362        175.671
2017    21      5       0.8806402       157.1892
2017    21      6       1.008267        170.5666
2017    21      7       0.9633798       167.0655
2017    22      0       0.7178759       140.386
2017    22      1       0.5720072       120.903
2017    22      2       0.4700749       104.9741
2017    22      3       0.403318        93.49481
2017    22      4       0.3414045       81.95592
2017    22      5       0.3380354       80.59259
2017    22      6       0.3603801       84.6297
2017    22      7       0.3509089       83.04175
2017    23      0       0.3703341       86.16422
2017    23      1       0.4671148       101.7812
2017    23      2       0.5209971       109.9605
2017    23      3       0.4974506       105.6355
2017    23      4       0.5399914       112.1786
2017    23      5       0.7233924       136.9742
2017    23      6       0.7446213       139.5653
2017    23      7       0.632146        125.8188
2017    24      0       0.787984        144.9302
2017    24      1       0.856295        152.737
2017    24      2       0.9023104       159.0713
2017    24      3       0.9241126       162.0792
2017    24      4       0.7509121       141.5794
2017    24      5       0.472283        101.7636
2017    24      6       0.4829195       103.2204
2017    24      7       0.7165447       135.5054
2017    25      0       0.8328305       151.1291
2017    25      1       0.7429957       140.9749
2017    25      2       0.9412314       163.4844
2017    25      3       1.075482        177.1046
2017    25      4       0.5828107       120.4088
2017    25      5       0.4255728       95.72272
2017    25      6       0.3528606       83.22192
2017    25      7       0.3814287       88.42206
2017    26      0       0.4437211       98.76658
2017    26      1       0.378442        87.63855
2017    26      2       0.3954552       90.3768
2017    26      3       0.4047728       91.72493
2017    26      4       0.4306403       95.40126
2017    26      5       0.3217773       76.8645
2017    26      6       0.3089812       74.73034
2017    26      7       0.3338942       79.00302
2017    27      0       0.3914549       88.89864
2017    27      1       0.4249308       94.33588
2017    27      2       0.4931037       105.6827
2017    27      3       0.8952188       156.633
2017    27      4       0.1799773       48.20475
2017    27      5       0.3758466       84.79169
2017    27      6       0.4524685       95.70732
2017    27      7       0.2311037       57.97944
2017    28      0       0.153367        42.31714
2017    28      1       0.2009128       52.47689
2017    28      2       0.3166811       75.62504
2017    28      3       0.3605324       83.65125
2017    28      4       0.3391912       79.92036
2017    28      5       0.3296646       78.03677
2017    28      6       0.4112203       92.21512
2017    28      7       0.472793        102.3297
2017    29      0       0.5048173       107.6611
2017    29      1       0.5598016       115.4734
2017    29      2       0.58429         118.919
2017    29      3       0.5585507       115.4177
2017    29      4       0.4748192       102.6769
2017    29      5       0.463617        101.0452
2017    29      6       0.4069691       91.83035
2017    29      7       0.3012848       73.03989
2017    30      0       0.2556411       64.35241
2017    30      1       0.2246177       58.17595
2017    30      2       0.217973        56.4625
2017    30      3       0.2463127       61.70102
2017    30      4       0.2337362       58.86363
2017    30      5       0.248394        61.76622
2017    30      6       0.2686853       65.85873
2017    30      7       0.2886666       69.52452
2018    1       0       0.4443531       98.19135
2018    1       1       0.383911        87.79281
2018    1       2       0.5614112       116.3275
2018    1       3       0.7446069       140.7781
2018    1       4       0.8174427       149.0791
2018    1       5       0.7143749       136.2222
2018    1       6       0.6715765       130.7669
2018    1       7       0.6705121       131.1325
2018    2       0       0.4773211       103.994
2018    2       1       0.3846704       88.97987
2018    2       2       0.3363222       80.23715
2018    2       3       0.2744245       67.82059
2018    2       4       0.1908701       50.32403
2018    2       5       0.2425776       60.54065
2018    2       6       0.263469        64.26066
2018    2       7       0.3265567       76.29063
2018    3       0       0.2679277       65.6506
2018    3       1       0.1999799       52.10036
2018    3       2       0.2964055       72.57955
2018    3       3       0.3516501       83.37223
2018    3       4       0.4354551       97.58149
2018    3       5       0.6546817       130.003
2018    3       6       0.9958131       170.7204
2018    3       7       1.05067         175.9139
2018    4       0       1.019439        171.5287
2018    4       1       1.019728        171.5491
2018    4       2       0.7956889       148.7944
2018    4       3       0.7108091       138.1929
2018    4       4       0.3491778       83.04521
2018    4       5       0.2179473       56.95798
2018    4       6       0.2960881       72.22981
2018    4       7       0.5798255       120.241
2018    5       0       0.532558        112.3918
2018    5       1       0.4409837       97.62347
2018    5       2       0.6420708       128.8381
2018    5       3       0.8254888       152.2787
2018    5       4       0.7694383       145.7102
2018    5       5       0.6857512       134.7914
2018    5       6       0.5889003       121.0285
2018    5       7       0.5841919       120.1013
2018    6       0       0.5341371       112.3089
2018    6       1       0.4833366       103.919
2018    6       2       0.4604474       99.94125
2018    6       3       0.4093937       91.73873
2018    6       4       0.4376666       96.40716
2018    6       5       0.4170733       92.94414
2018    6       6       0.2947094       70.76793
2018    6       7       0.3531327       81.43821
2018    7       0       0.4594567       100.0211
2018    7       1       0.5099955       108.1345
2018    7       2       0.4972042       105.9613
2018    7       3       0.4634276       100.5475
2018    7       4       0.4565267       99.53132
2018    7       5       0.4541527       99.46547
2018    7       6       0.4743299       102.6981
2018    7       7       0.4393448       97.10088
2018    8       0       0.3650004       84.50151
2018    8       1       0.376111        86.37494
2018    8       2       0.4339957       96.02567
2018    8       3       0.4038939       90.80629
2018    8       4       0.2240618       57.48732
2018    8       5       0.07985945      25.53664
2018    8       6       0.06380495      21.54494
2018    8       7       0.05443839      19.47932
2018    9       0       0.07139071      23.63053
2018    9       1       0.06059159      21.00802
2018    9       2       0.05233213      18.89412
2018    9       3       0.06853078      22.84788
2018    9       4       0.07079239      23.51655
2018    9       5       0.07840419      25.33208
2018    9       6       0.09482218      29.19351
2018    9       7       0.1202206       34.95817
2018    10      0       0.1689866       45.70145
2018    10      1       0.2245054       57.40166
2018    10      2       0.2235589       56.63496
2018    10      3       0.1999005       51.57807
2018    10      4       0.2110062       54.507
2018    10      5       0.2846838       69.59188
2018    10      6       0.3169154       75.53096
2018    10      7       0.3195928       75.83851
2018    11      0       0.1843207       49.23095
2018    11      1       0.0916362       28.59637
2018    11      2       0.06361536      21.77423
2018    11      3       0.06391526      21.78114
2018    11      4       0.06131713      21.14809
2018    11      5       0.06812965      22.7163
2018    11      6       0.08062319      25.65516
2018    11      7       0.09055787      28.06167
2018    12      0       0.1238954       35.54135
2018    12      1       0.1433117       39.90684
2018    12      2       0.142912        39.78854
2018    12      3       0.1489083       41.14676
2018    12      4       0.1254942       35.88852
2018    12      5       0.1369317       38.17435
2018    12      6       0.1626554       43.71292
2018    12      7       0.204884        52.45618
2018    13      0       0.2058207       53.16456
2018    13      1       0.2048306       53.48776
2018    13      2       0.2133584       55.54427
2018    13      3       0.2065319       54.3536
2018    13      4       0.1852592       49.92544
2018    13      5       0.1855796       49.44606
2018    13      6       0.1951852       51.13834
2018    13      7       0.2229704       56.6777
2018    14      0       0.2560067       62.99194
2018    14      1       0.3294724       76.33696
2018    14      2       0.4481994       96.04202
2018    14      3       0.5015392       104.4041
2018    14      4       0.4108815       90.37201
2018    14      5       0.2920995       69.79836
2018    14      6       0.321777        75.29361
2018    14      7       0.3996272       89.15515
2018    15      0       0.443449        96.80355
2018    15      1       0.4314871       94.78113
2018    15      2       0.4247076       93.70048
2018    15      3       0.4121423       91.60096
2018    15      4       0.3882286       87.40261
2018    15      5       0.3800483       85.53959
2018    15      6       0.3948127       88.08491
2018    15      7       0.4212373       92.61882
2018    16      0       0.3967704       88.80453
2018    16      1       0.3715643       84.61862
2018    16      2       0.4153562       91.91164
2018    16      3       0.4694696       100.3982
2018    16      4       0.4563345       98.10279
2018    16      5       0.3881032       87.0904
2018    16      6       0.3459165       79.91061
2018    16      7       0.3240874       76.10632
2018    17      0       0.3267945       76.62474
2018    17      1       0.3157779       74.69983
2018    17      2       0.2829134       68.71453
2018    17      3       0.2686525       65.94732
2018    17      4       0.2761515       67.35718
2018    17      5       0.2772063       67.5282
2018    17      6       0.2842485       68.81833
2018    17      7       0.319634        75.14861
2018    18      0       0.3129002       73.99454
2018    18      1       0.2288639       58.37936
2018    18      2       0.1254348       36.48539
2018    18      3       0.07352917      24.19431
2018    18      4       0.06715767      22.56765
2018    18      5       0.06482233      22.05847
2018    18      6       0.05453436      19.49467
2018    18      7       0.05549867      19.65014
2018    19      0       0.05891458      20.48828
2018    19      1       0.06484603      21.96189
2018    19      2       0.06814761      22.77653
2018    19      3       0.06576193      22.17238
2018    19      4       0.0658771       22.17852
2018    19      5       0.06734573      22.55433
2018    19      6       0.07705037      24.83272
2018    19      7       0.08976611      27.62234
2018    20      0       0.08718813      27.03819
2018    20      1       0.1018696       30.13656
2018    20      2       0.1522105       40.82238
2018    20      3       0.2312956       56.97627
2018    20      4       0.3039747       71.22112
2018    20      5       0.3342914       77.25894
2018    20      6       0.3799881       85.71562
2018    20      7       0.4149239       92.1256
2018    21      0       0.3636831       83.69259
2018    21      1       0.3200666       75.98788
2018    21      2       0.349116        81.27421
2018    21      3       0.3928629       88.47897
2018    21      4       0.4005157       88.97589
2018    21      5       0.4642445       99.47946
2018    21      6       0.5781458       116.7867
2018    21      7       0.7726829       141.8883
2018    22      0       0.8898508       154.3977
2018    22      1       0.6735177       129.6294
2018    22      2       0.5183588       108.9261
2018    22      3       0.8077892       145.3698
2018    22      4       0.4980092       103.8908
2018    22      5       0.2955094       69.78291
2018    22      6       0.2189583       55.23189
2018    22      7       0.1877016       49.09121
2018    23      0       0.3503774       79.94499
2018    23      1       0.4973492       104.588
2018    23      2       0.5734615       115.8448
2018    23      3       0.7202583       135.7633
2018    23      4       0.7427065       138.3827
2018    23      5       0.7500411       139.2237
2018    23      6       0.7456313       138.8087
2018    23      7       0.8513175       150.6332
2018    24      0       0.7843295       143.3368
2018    24      1       0.6595313       127.5332
2018    24      2       0.6332199       125.0753
2018    24      3       0.416937        93.02939
2018    24      4       0.3464167       80.70251
2018    24      5       0.3764355       85.42125
2018    24      6       0.3186625       75.52879
2018    24      7       0.3415343       79.52766
2018    25      0       0.3997558       89.38442
2018    25      1       0.4743573       101.3383
2018    25      2       0.567711        115.5147
2018    25      3       0.6695764       129.4251
2018    25      4       0.7737352       141.9153
2018    25      5       0.8568378       150.8837
2018    25      6       0.817575        147.1905
2018    25      7       0.5526206       113.8954
2018    26      0       0.5206413       108.7554
2018    26      1       0.4523068       98.66635
2018    26      2       0.2115334       55.24097
2018    26      3       0.1187252       34.39885
2018    26      4       0.1433127       39.42074
2018    26      5       0.2391202       59.32844
2018    26      6       0.381162        85.91298
2018    26      7       0.6267325       124.1031
2018    27      0       0.7488934       139.9821
2018    27      1       0.8306055       149.9334
2018    27      2       0.9298108       160.2936
2018    27      3       0.9912082       166.2935
2018    27      4       0.535048        111.9698
2018    27      5       0.5021592       106.7275
2018    27      6       0.7598318       141.936
2018    27      7       0.6773265       130.7517
2018    28      0       0.6283018       123.5346
2018    28      1       0.6566785       128.8788
2018    28      2       0.6892978       132.8861
2018    28      3       0.4476199       98.39827
2018    28      4       0.6120465       121.9861
2018    28      5       0.9258251       159.1321
2018    28      6       1.033642        168.2366
2018    28      7       0.518386        108.2514
2018    29      0       0.5278568       108.3536
2018    29      1       0.463401        98.40409
2018    29      2       0.5235623       107.7934
2018    29      3       0.8493587       149.8152
2018    29      4       0.8026911       145.8103
2018    29      5       0.6005333       119.5309
2018    29      6       0.4944504       103.1798
2018    29      7       0.4004691       87.98486
2018    30      0       0.5418036       109.6335
2018    30      1       0.5021093       104.232
2018    30      2       0.4675047       98.71452
2018    30      3       0.363308        81.98834
2018    30      4       0.303024        71.39533
2018    30      5       0.2329899       57.96725
2018    30      6       0.2350266       57.85685
2018    30      7       0.3595465       80.96039
