####################################################################################################
# Month: 08Aug                                                                                     #
# Station: KEN                                                                                     #
# Frequency: 230 GHz                                                                               #
# Columns are: year    day     segment         tau     Tb (K)                                      #
####################################################################################################
2009    1       0       0.2417812       62.74223
2009    1       1       0.2322112       60.60603
2009    1       2       0.2384405       61.758
2009    1       3       0.4454537       101.0489
2009    1       4       0.7164151       141.665
2009    1       5       0.8366642       157.0552
2009    1       6       0.5210165       113.8662
2009    1       7       0.2952648       73.59997
2009    2       0       0.240164        62.4073
2009    2       1       0.2622369       66.84073
2009    2       2       0.2632063       67.04303
2009    2       3       0.4717298       105.838
2009    2       4       0.6350659       130.5839
2009    2       5       0.8519708       158.3718
2009    2       6       0.5533322       118.7652
2009    2       7       0.4078362       94.64284
2009    3       0       0.413449        95.33526
2009    3       1       0.4358651       99.05168
2009    3       2       0.4332786       98.58311
2009    3       3       0.8044077       152.0811
2009    3       4       1.113669        184.1659
2009    3       5       1.058207        179.9159
2009    3       6       0.7762779       150.0273
2009    3       7       0.4506172       102.1734
2009    4       0       0.4281485       97.99853
2009    4       1       0.409711        94.79828
2009    4       2       0.3727848       88.38953
2009    4       3       0.5078849       112.0872
2009    4       4       0.8804902       161.6944
2009    4       5       0.8598853       159.5599
2009    4       6       0.4314549       99.03379
2009    4       7       0.2086334       55.57869
2009    5       0       0.1964949       52.76059
2009    5       1       0.2288335       59.67447
2009    5       2       0.2138572       56.42952
2009    5       3       0.4932409       109.164
2009    5       4       0.7994948       152.0795
2009    5       5       0.7828291       150.2011
2009    5       6       0.4021648       93.71534
2009    5       7       0.2459936       63.47501
2009    6       0       0.1709719       46.83783
2009    6       1       0.1516304       42.29787
2009    6       2       0.1826016       49.41409
2009    6       3       0.4749934       106.0441
2009    6       4       0.5687732       120.6283
2009    6       5       0.8799455       161.4908
2009    6       6       0.4619022       104.0823
2009    6       7       0.1977336       53.03076
2009    7       0       0.2277407       59.36531
2009    7       1       0.479091        106.6988
2009    7       2       0.4618196       103.8507
2009    7       3       0.6743853       136.0821
2009    7       4       0.8927301       162.1203
2009    7       5       0.8556666       158.249
2009    7       6       0.4662193       104.6664
2009    7       7       0.320135        78.41323
2009    8       0       0.2574404       65.7022
2009    8       1       0.1882335       50.84653
2009    8       2       0.1792012       48.86681
2009    8       3       0.2379159       61.67079
2009    8       4       0.7112831       140.9825
2009    8       5       0.6429432       131.6635
2009    8       6       0.3051012       75.36372
2009    8       7       0.2024141       54.04315
2009    9       0       0.2381625       61.52015
2009    9       1       0.2207514       57.90211
2009    9       2       0.1723374       47.32652
2009    9       3       0.2185787       57.45531
2009    9       4       0.5044483       110.628
2009    9       5       0.7337269       143.9378
2009    9       6       0.331041        80.36281
2009    9       7       0.1532572       42.98957
2009    10      0       0.1209856       35.28437
2009    10      1       0.1293537       37.17735
2009    10      2       0.1609489       44.4175
2009    10      3       0.2297531       59.54052
2009    10      4       0.501052        109.6404
2009    10      5       0.7512373       145.739
2009    10      6       0.4299994       98.30063
2009    10      7       0.2241272       58.66178
2009    11      0       0.2227509       58.2308
2009    11      1       0.2416431       62.21346
2009    11      2       0.208201        55.1281
2009    11      3       0.3378744       81.61487
2009    11      4       0.7088322       140.5318
2009    11      5       0.8915834       162.8301
2009    11      6       0.5006313       110.645
2009    11      7       0.3342627       81.46102
2009    12      0       0.300812        74.80418
2009    12      1       0.3058901       75.67857
2009    12      2       0.3361827       81.35052
2009    12      3       0.5886772       123.7992
2009    12      4       1.053376        178.4881
2009    12      5       1.276903        198.0494
2009    12      6       1.125536        186.3938
2009    12      7       0.6254718       129.7785
2009    13      0       0.6159611       128.0239
2009    13      1       0.7862991       150.4647
2009    13      2       0.7478819       144.8074
2009    13      3       1.254026        195.5977
2009    13      4       1.273185        197.2385
2009    13      5       1.217436        193.1418
2009    13      6       1.033188        177.2327
2009    13      7       0.8910879       162.8099
2009    14      0       0.5295919       114.694
2009    14      1       0.3058585       75.51982
2009    14      2       0.3414967       81.87286
2009    14      3       0.6354816       130.1841
2009    14      4       0.9593987       169.3665
2009    14      5       1.224033        193.7649
2009    14      6       1.026658        176.9932
2009    14      7       0.5826458       123.0599
2009    15      0       0.4201093       96.68396
2009    15      1       0.5489313       117.8621
2009    15      2       0.846242        157.5792
2009    15      3       1.122519        184.876
2009    15      4       1.182373        189.4467
2009    15      5       1.105635        183.1782
2009    15      6       0.8770384       160.9745
2009    15      7       0.5170704       112.8795
2009    16      0       0.428705        98.18203
2009    16      1       0.406482        94.25063
2009    16      2       0.3886553       90.8438
2009    16      3       0.664177        134.5205
2009    16      4       0.7894893       150.3609
2009    16      5       0.8507617       157.1959
2009    16      6       0.6145232       127.4793
2009    16      7       0.4826435       107.2492
2009    17      0       0.4250851       97.21484
2009    17      1       0.4223222       96.66408
2009    17      2       0.5693609       120.0703
2009    17      3       0.9476142       167.5974
2009    17      4       1.156667        187.0649
2009    17      5       1.072585        179.4064
2009    17      6       0.6937182       138.1354
2009    17      7       0.4152785       95.47782
2009    18      0       0.290121        71.79276
2009    18      1       0.2319177       59.82899
2009    18      2       0.2730678       68.52266
2009    18      3       0.4749184       105.7419
2009    18      4       0.7429172       144.2826
2009    18      5       0.8193017       153.6155
2009    18      6       0.4426617       100.1218
2009    18      7       0.2961526       73.12643
2009    19      0       0.2253136       58.32105
2009    19      1       0.1917776       50.9562
2009    19      2       0.2866029       70.80548
2009    19      3       0.5547605       117.9348
2009    19      4       0.8327793       154.5247
2009    19      5       0.8785659       159.8823
2009    19      6       0.4979362       109.3052
2009    19      7       0.2692918       67.91189
2009    20      0       0.2447721       62.72703
2009    20      1       0.2195081       57.36379
2009    20      2       0.2199795       57.45617
2009    20      3       0.4938202       108.3409
2009    20      4       0.7914534       149.9485
2009    20      5       0.7490156       144.8799
2009    20      6       0.4756591       105.7898
2009    20      7       0.1791848       48.70658
2009    21      0       0.132687        37.97292
2009    21      1       0.1380817       39.29142
2009    21      2       0.1382541       39.38102
2009    21      3       0.3267681       79.57093
2009    21      4       0.8151385       153.6313
2009    21      5       0.9707498       170.9236
2009    21      6       0.5801316       122.8958
2009    21      7       0.4443393       101.0518
2009    22      0       0.4675084       104.8709
2009    22      1       0.3600265       85.76278
2009    22      2       0.224617        58.715
2009    22      3       0.4042685       93.84313
2009    22      4       0.7963646       151.41
2009    22      5       0.841135        157.0697
2009    22      6       0.4165917       96.36955
2009    22      7       0.2729426       69.32717
2009    23      0       0.2924674       73.00826
2009    23      1       0.2896958       72.30604
2009    23      2       0.2606837       66.46443
2009    23      3       0.3237221       79.15974
2009    23      4       0.6097615       127.341
2009    23      5       0.6061446       126.8493
2009    23      6       0.369634        87.98858
2009    23      7       0.1893624       51.41966
2009    24      0       0.1616924       45.10488
2009    24      1       0.1707425       47.14785
2009    24      2       0.178675        48.94315
2009    24      3       0.4756274       106.2033
2009    24      4       0.8445869       157.2266
2009    24      5       0.7505363       145.8972
2009    24      6       0.4125833       95.50129
2009    24      7       0.1924759       52.05096
2009    25      0       0.1443126       41.00778
2009    25      1       0.1545709       43.34745
2009    25      2       0.1767415       48.41036
2009    25      3       0.4809807       106.9936
2009    25      4       0.648066        132.231
2009    25      5       0.8352108       156.5169
2009    25      6       0.5720771       121.9151
2009    25      7       0.3160749       77.70579
2009    26      0       0.2460528       63.62856
2009    26      1       0.2132055       56.59298
2009    26      2       0.2223131       58.50224
2009    26      3       0.4410894       100.6811
2009    26      4       0.6321996       129.9568
2009    26      5       0.6329176       130.4137
2009    26      6       0.3080693       76.17939
2009    26      7       0.2306707       60.29062
2009    27      0       0.1918274       51.73979
2009    27      1       0.1460866       41.31347
2009    27      2       0.1166841       34.34268
2009    27      3       0.1614812       44.82724
2009    27      4       0.2652853       67.21166
2009    27      5       0.292797        72.84267
2009    27      6       0.2068871       55.20322
2009    27      7       0.1551609       43.55279
2009    28      0       0.1362122       39.0655
2009    28      1       0.1229565       35.86553
2009    28      2       0.1114058       33.03484
2009    28      3       0.2412372       62.08999
2009    28      4       0.4162942       95.40698
2009    28      5       0.4610719       103.3135
2009    28      6       0.2891055       72.18339
2009    28      7       0.1934996       52.13062
2009    29      0       0.1960634       52.46044
2009    29      1       0.1763837       48.05592
2009    29      2       0.1442422       40.74555
2009    29      3       0.1622471       44.84681
2009    29      4       0.22783         59.13918
2009    29      5       0.2760925       69.14326
2009    29      6       0.2392577       61.90631
2009    29      7       0.2186725       57.55001
2009    30      0       0.2252954       58.78831
2009    30      1       0.2062626       54.69039
2009    30      2       0.1717719       47.10784
2009    30      3       0.3128379       76.6018
2009    30      4       0.4553741       102.301
2009    30      5       0.8192722       154.3792
2009    30      6       0.4910262       108.8453
2009    30      7       0.2414754       62.65594
2009    31      0       0.1785258       48.88999
2009    31      1       0.1834599       49.86974
2009    31      2       0.2197762       57.70329
2009    31      3       0.4384898       99.7344
2009    31      4       0.6243058       128.4074
2009    31      5       0.8929399       162.6169
2009    31      6       0.4925768       109.1969
2009    31      7       0.2748125       69.55569
2010    1       0       0.443942        100.5773
2010    1       1       0.6416137       131.2131
2010    1       2       0.6387115       130.6081
2010    1       3       0.6036309       125.5191
2010    1       4       0.7540217       145.2437
2010    1       5       0.7954756       150.9668
2010    1       6       0.5411714       116.686
2010    1       7       0.351616        84.31514
2010    2       0       0.290387        72.29795
2010    2       1       0.273515        68.84682
2010    2       2       0.2552957       65.13119
2010    2       3       0.3229123       78.72525
2010    2       4       0.5193759       113.1055
2010    2       5       0.4319165       98.3988
2010    2       6       0.2763298       69.38188
2010    2       7       0.2056123       54.37022
2010    3       0       0.1915001       51.28543
2010    3       1       0.1674001       45.80439
2010    3       2       0.1773972       48.02351
2010    3       3       0.1936882       51.72671
2010    3       4       0.4933094       108.815
2010    3       5       0.4302626       98.24961
2010    3       6       0.2471863       63.41011
2010    3       7       0.1692613       46.35352
2010    4       0       0.163212        44.94345
2010    4       1       0.1594569       44.17616
2010    4       2       0.1659624       45.6821
2010    4       3       0.2047355       54.34857
2010    4       4       0.663409        134.3447
2010    4       5       0.6840061       137.4574
2010    4       6       0.4268512       97.97833
2010    4       7       0.2112706       56.03599
2010    5       0       0.2062957       54.76324
2010    5       1       0.1932926       51.87326
2010    5       2       0.1801458       48.93111
2010    5       3       0.2419878       62.34231
2010    5       4       0.6583642       133.8565
2010    5       5       0.8039993       152.9093
2010    5       6       0.5088288       111.6821
2010    5       7       0.3139708       77.0949
2010    6       0       0.2819502       70.68063
2010    6       1       0.2472597       63.52231
2010    6       2       0.1958464       52.52941
2010    6       3       0.3310146       80.41373
2010    6       4       0.761247        147.7307
2010    6       5       0.8012621       152.8349
2010    6       6       0.4804026       107.2996
2010    6       7       0.2794293       70.38671
2010    7       0       0.2240541       58.70333
2010    7       1       0.2315748       60.23822
2010    7       2       0.2742197       69.079
2010    7       3       0.4188936       96.49524
2010    7       4       0.8156194       154.1829
2010    7       5       0.8812435       161.8257
2010    7       6       0.6480835       132.8763
2010    7       7       0.3601179       86.22155
2010    8       0       0.2994006       74.43825
2010    8       1       0.3408147       82.27327
2010    8       2       0.3260701       79.559
2010    8       3       0.4959604       109.6183
2010    8       4       0.8580782       158.5467
2010    8       5       1.010029        174.4928
2010    8       6       0.8716352       160.6949
2010    8       7       0.5089433       111.7396
2010    9       0       0.511917        111.7953
2010    9       1       0.5734735       120.9705
2010    9       2       0.5938522       124.131
2010    9       3       0.6758697       135.5499
2010    9       4       0.9215207       164.8709
2010    9       5       0.6477823       132.2944
2010    9       6       0.3384654       82.09635
2010    9       7       0.173219        47.77494
2010    10      0       0.2052822       54.78585
2010    10      1       0.2348917       61.08186
2010    10      2       0.2633219       66.94873
2010    10      3       0.4187854       96.58209
2010    10      4       0.845229        156.8592
2010    10      5       0.9454465       168.1676
2010    10      6       0.6672257       135.2045
2010    10      7       0.3509185       83.98424
2010    11      0       0.3738011       87.92965
2010    11      1       0.4711818       104.7154
2010    11      2       0.3785311       88.61446
2010    11      3       0.3958697       91.97504
2010    11      4       0.7668446       147.6281
2010    11      5       0.7428185       144.4979
2010    11      6       0.5689155       120.7553
2010    11      7       0.3857461       90.33127
2010    12      0       0.4688815       104.5187
2010    12      1       0.5976156       124.982
2010    12      2       0.5242585       113.9529
2010    12      3       0.5242301       114.0442
2010    12      4       0.6606105       134.067
2010    12      5       0.6135848       127.4329
2010    12      6       0.377336        89.07628
2010    12      7       0.27682         69.54973
2010    13      0       0.2876503       71.58082
2010    13      1       0.2906          72.15319
2010    13      2       0.2370738       61.27835
2010    13      3       0.3780654       89.07353
2010    13      4       0.6485649       132.4479
2010    13      5       0.6862096       138.0091
2010    13      6       0.4576126       103.465
2010    13      7       0.2957578       73.67503
2010    14      0       0.2914889       72.70087
2010    14      1       0.2392292       61.92541
2010    14      2       0.1708846       46.99604
2010    14      3       0.1942797       52.28395
2010    14      4       0.5382326       116.2955
2010    14      5       0.72987         143.4592
2010    14      6       0.6743101       136.2451
2010    14      7       0.329451        80.4224
2010    15      0       0.3069181       75.9456
2010    15      1       0.5078546       111.6832
2010    15      2       0.723217        142.7629
2010    15      3       0.682512        137.2957
2010    15      4       0.9641445       170.4047
2010    15      5       1.09943         183.3919
2010    15      6       1.063895        180.2415
2010    15      7       0.7769968       149.6506
2010    16      0       0.7513708       145.9295
2010    16      1       0.7884381       149.1438
2010    16      2       0.7329796       141.4167
2010    16      3       0.7446734       143.1274
2010    16      4       0.8948657       160.8397
2010    16      5       0.906528        163.3605
2010    16      6       0.8608736       158.7923
2010    16      7       0.7108886       140.7876
2010    17      0       0.5696556       120.4638
2010    17      1       0.5160992       111.8072
2010    17      2       0.6412328       130.0406
2010    17      3       1.019964        174.2372
2010    17      4       1.076752        179.3407
2010    17      5       1.073437        179.1235
2010    17      6       1.015326        174.1775
2010    17      7       0.6835187       136.7712
2010    18      0       0.4585917       102.6809
2010    18      1       0.5437678       116.3989
2010    18      2       0.4985583       109.087
2010    18      3       0.6612717       133.1863
2010    18      4       1.00567         172.8739
2010    18      5       1.008037        173.4218
2010    18      6       0.8378569       155.5821
2010    18      7       0.6332779       130.1412
2010    19      0       0.5848565       122.7464
2010    19      1       0.7879766       150.2139
2010    19      2       0.8204136       154.1137
2010    19      3       0.5687691       120.2435
2010    19      4       0.846978        156.6111
2010    19      5       0.8565206       157.8347
2010    19      6       0.6141868       127.0031
2010    19      7       0.4264127       97.44583
2010    20      0       0.466348        103.9108
2010    20      1       0.5323197       114.7253
2010    20      2       0.4670986       104.1528
2010    20      3       0.8271422       153.7778
2010    20      4       1.002676        172.2382
2010    20      5       0.9702135       169.485
2010    20      6       0.7951671       150.6475
2010    20      7       0.7217606       141.6377
2010    21      0       0.7342699       143.32
2010    21      1       0.9091102       163.7671
2010    21      2       0.80927         152.1979
2010    21      3       0.8084417       151.6679
2010    21      4       1.184852        189.4514
2010    21      5       1.200328        190.4922
2010    21      6       1.075164        179.5169
2010    21      7       0.7546045       145.9581
2010    22      0       0.4843639       107.335
2010    22      1       0.5367302       115.741
2010    22      2       0.586906        122.9488
2010    22      3       0.9181246       163.9863
2010    22      4       0.7903604       148.7599
2010    22      5       0.7717496       146.8748
2010    22      6       0.765619        147.3276
2010    22      7       0.6935427       138.6128
2010    23      0       0.586576        123.4839
2010    23      1       0.459334        103.2813
2010    23      2       0.4268996       97.54723
2010    23      3       0.6790983       136.5075
2010    23      4       1.054287        178.4889
2010    23      5       1.264819        196.4861
2010    23      6       1.153788        188.0963
2010    23      7       0.8441652       157.9385
2010    24      0       0.6187201       128.291
2010    24      1       0.6050345       125.9207
2010    24      2       0.7264716       142.98
2010    24      3       0.9412022       167.6198
2010    24      4       1.274473        197.3331
2010    24      5       1.322679        201.0209
2010    24      6       1.208143        192.7058
2010    24      7       1.196547        191.8652
2010    25      0       0.9831139       172.2907
2010    25      1       1.01627         176.1371
2010    25      2       1.101018        183.8468
2010    25      3       0.9508029       168.7869
2010    25      4       1.010127        174.6
2010    25      5       1.190361        191.6193
2010    25      6       1.25811         196.8767
2010    25      7       1.146235        187.4619
2010    26      0       0.8390975       156.4715
2010    26      1       0.9233806       165.9724
2010    26      2       0.8828101       161.8527
2010    26      3       0.8345817       156.032
2010    26      4       1.140284        186.0751
2010    26      5       1.15825         188.186
2010    26      6       1.060823        180.1509
2010    26      7       0.8651727       160.2648
2010    27      0       0.7711916       148.9453
2010    27      1       0.7857704       150.5999
2010    27      2       0.7338369       144.1482
2010    27      3       0.8567176       158.9364
2010    27      4       1.024588        176.0226
2010    27      5       1.094858        183.3762
2010    27      6       1.075124        181.7674
2010    27      7       0.9399801       168.2848
2010    28      0       0.6258305       129.6642
2010    28      1       0.6380193       131.5081
2010    28      2       0.6676356       135.3687
2010    28      3       0.7951861       151.5631
2010    28      4       1.061215        179.5637
2010    28      5       1.114949        184.3533
2010    28      6       0.9803331       172.2896
2010    28      7       0.6922764       139.1725
2010    29      0       0.6762209       136.4114
2010    29      1       0.548909        117.6649
2010    29      2       0.517059        112.623
2010    29      3       0.7418078       144.4439
2010    29      4       1.023724        174.9521
2010    29      5       1.058378        178.7449
2010    29      6       0.9148345       165.0206
2010    29      7       0.8035843       152.3742
2010    30      0       0.749919        144.4528
2010    30      1       0.7356829       141.765
2010    30      2       0.659921        132.6052
2010    30      3       0.6631481       133.5272
2010    30      4       0.8155894       152.7924
2010    30      5       0.8306091       155.1022
2010    30      6       0.6187224       128.1757
2010    30      7       0.4240846       97.51368
2010    31      0       0.3731874       88.41797
2010    31      1       0.565559        120.3109
2010    31      2       0.6899002       137.35
2010    31      3       0.6976605       138.3447
2010    31      4       0.9004095       162.6622
2010    31      5       0.7862547       150.1262
2010    31      6       0.5872996       123.9516
2010    31      7       0.6197245       128.9265
2011    1       0       0.606226        127.4566
2011    1       1       0.5881522       124.4974
2011    1       2       0.5269301       115.2692
2011    1       3       0.8362961       158.0286
2011    1       4       1.182471        191.5217
2011    1       5       1.214276        194.6577
2011    1       6       0.8625218       161.2095
2011    1       7       0.5400684       117.91
2011    2       0       0.4998802       111.1552
2011    2       1       0.5328827       116.0362
2011    2       2       0.4535678       103.0748
2011    2       3       0.5320981       116.3244
2011    2       4       0.8817947       162.534
2011    2       5       0.9076247       165.6788
2011    2       6       0.5749584       123.0607
2011    2       7       0.3298552       81.16381
2011    3       0       0.2948472       74.12877
2011    3       1       0.3305212       81.0222
2011    3       2       0.3187608       78.59359
2011    3       3       0.4381356       100.6107
2011    3       4       0.7056466       140.8151
2011    3       5       0.9418677       168.8337
2011    3       6       0.4220992       97.90113
2011    3       7       0.2412957       62.94298
2011    4       0       0.2725789       69.10416
2011    4       1       0.3123838       76.95546
2011    4       2       0.278836        70.13847
2011    4       3       0.2892475       72.09537
2011    4       4       0.330145        80.07673
2011    4       5       0.3065701       75.48237
2011    4       6       0.273042        68.97132
2011    4       7       0.2349715       60.96948
2011    5       0       0.2462304       63.06253
2011    5       1       0.2622609       66.22707
2011    5       2       0.306023        75.05917
2011    5       3       0.365808        86.64814
2011    5       4       0.5865483       123.3707
2011    5       5       0.8230918       154.7426
2011    5       6       0.5689564       120.9095
2011    5       7       0.3869612       90.92249
2011    6       0       0.3877206       90.83784
2011    6       1       0.3911472       91.32807
2011    6       2       0.3927522       91.60681
2011    6       3       0.5936425       124.2244
2011    6       4       0.9766173       170.8811
2011    6       5       1.076264        180.7508
2011    6       6       0.8468661       157.993
2011    6       7       0.5439336       117.4534
2011    7       0       0.3614222       86.25453
2011    7       1       0.4037323       93.69916
2011    7       2       0.5898291       123.1243
2011    7       3       0.8371923       155.026
2011    7       4       1.021693        174.3464
2011    7       5       1.026158        175.4945
2011    7       6       0.9007357       163.2842
2011    7       7       0.5830904       122.694
2011    8       0       0.5391187       115.6401
2011    8       1       0.7023394       138.3356
2011    8       2       0.7141342       139.4571
2011    8       3       0.8122911       152.058
2011    8       4       1.191638        190.0791
2011    8       5       1.174788        189.2584
2011    8       6       1.175579        189.7412
2011    8       7       1.195536        191.4612
2011    9       0       1.238971        194.5879
2011    9       1       1.188604        190.3678
2011    9       2       1.08519         181.4227
2011    9       3       1.127038        185.0075
2011    9       4       1.355087        202.854
2011    9       5       1.49524         212.6652
2011    9       6       1.348143        203.0945
2011    9       7       1.237476        195.3262
2011    10      0       1.232633        195.2927
2011    10      1       1.196647        191.6636
2011    10      2       1.218982        193.0835
2011    10      3       1.270429        196.6886
2011    10      4       1.352267        202.427
2011    10      5       1.314473        201.0123
2011    10      6       1.26874         197.8218
2011    10      7       1.220708        193.8992
2011    11      0       1.130656        185.3843
2011    11      1       0.9656797       169.0689
2011    11      2       0.8288269       153.8692
2011    11      3       0.957174        167.7303
2011    11      4       1.062346        177.7047
2011    11      5       0.8883226       160.7342
2011    11      6       1.104633        183.2839
2011    11      7       1.134079        185.9686
2011    12      0       1.038655        177.1969
2011    12      1       0.6694808       134.6321
2011    12      2       0.5928857       123.6958
2011    12      3       1.089426        181.7297
2011    12      4       1.249396        195.2986
2011    12      5       1.316967        200.613
2011    12      6       1.276365        197.9351
2011    12      7       1.029064        177.4256
2011    13      0       0.8265932       155.6794
2011    13      1       0.9795612       171.9898
2011    13      2       0.913846        164.4165
2011    13      3       1.176375        189.2642
2011    13      4       1.24346         194.7259
2011    13      5       1.148254        186.4755
2011    13      6       1.179864        189.4227
2011    13      7       1.112104        184.3478
2011    14      0       0.9147827       165.3254
2011    14      1       0.8440853       157.741
2011    14      2       0.9371652       167.8521
2011    14      3       0.9715516       170.6578
2011    14      4       1.219777        193.5798
2011    14      5       1.17808         190.609
2011    14      6       1.082988        182.5682
2011    14      7       0.8066751       153.7465
2011    15      0       0.792322        151.3245
2011    15      1       0.8587926       158.9997
2011    15      2       0.8817777       161.4739
2011    15      3       0.9638991       169.7966
2011    15      4       1.111658        183.4834
2011    15      5       1.056115        179.0731
2011    15      6       0.8323568       156.4878
2011    15      7       0.8023671       153.044
2011    16      0       0.9015877       163.7389
2011    16      1       0.9109167       163.7523
2011    16      2       0.8590265       157.545
2011    16      3       0.793712        149.4126
2011    16      4       0.8978833       160.679
2011    16      5       0.8619727       156.8353
2011    16      6       0.6724089       134.4859
2011    16      7       0.4245925       96.60966
2011    17      0       0.290949        71.93004
2011    17      1       0.2432667       62.32661
2011    17      2       0.2524012       64.22129
2011    17      3       0.3476919       83.11731
2011    17      4       0.6401007       130.8459
2011    17      5       0.7388994       144.2265
2011    17      6       0.6051001       126.1727
2011    17      7       0.3753812       88.65999
2011    18      0       0.2970766       73.49124
2011    18      1       0.2509692       63.99212
2011    18      2       0.2995889       73.80547
2011    18      3       0.5785089       121.7384
2011    18      4       0.9350316       166.2371
2011    18      5       0.8705549       159.661
2011    18      6       0.6960638       138.9859
2011    18      7       0.3419306       82.4418
2011    19      0       0.2188823       57.51559
2011    19      1       0.2000047       53.3775
2011    19      2       0.2223308       58.15908
2011    19      3       0.3430724       82.45328
2011    19      4       0.6238269       128.5046
2011    19      5       0.6329651       129.7834
2011    19      6       0.3041089       75.02703
2011    19      7       0.1469934       41.54186
2011    20      0       0.1315423       37.83521
2011    20      1       0.135984        38.81321
2011    20      2       0.1495869       41.96063
2011    20      3       0.2663059       67.41638
2011    20      4       0.7101263       140.4404
2011    20      5       0.922164        165.6495
2011    20      6       0.7941603       151.7707
2011    20      7       0.2996914       74.59749
2011    21      0       0.2364918       61.5592
2011    21      1       0.2462176       63.51866
2011    21      2       0.3169389       77.69687
2011    21      3       0.7904838       150.8897
2011    21      4       0.9124049       164.0661
2011    21      5       0.9306297       166.667
2011    21      6       0.9375663       168.5323
2011    21      7       0.8236943       155.8687
2011    22      0       0.4076525       94.79682
2011    22      1       0.4731611       106.0303
2011    22      2       0.654216        133.5593
2011    22      3       0.8095371       153.5467
2011    22      4       1.018495        175.0357
2011    22      5       1.06158         179.8016
2011    22      6       0.9142146       165.9246
2011    22      7       0.6771551       137.0901
2011    23      0       0.5917561       124.5393
2011    23      1       0.5017767       110.5434
2011    23      2       0.6095332       127.2636
2011    23      3       0.7128641       141.4575
2011    23      4       1.078935        181.1375
2011    23      5       1.006935        174.8215
2011    23      6       0.787188        151.0423
2011    23      7       0.4069827       94.70059
2011    24      0       0.2527004       64.96354
2011    24      1       0.2174002       57.12501
2011    24      2       0.2140785       56.21071
2011    24      3       0.2814294       70.37294
2011    24      4       0.5676755       120.6846
2011    24      5       0.8289394       155.7013
2011    24      6       0.8478918       158.2272
2011    24      7       0.4247789       97.68788
2011    25      0       0.3041301       74.95394
2011    25      1       0.3798908       88.89073
2011    25      2       0.507381        110.2185
2011    25      3       0.937278        165.3309
2011    25      4       1.138824        184.8489
2011    25      5       1.062115        178.7718
2011    25      6       1.101607        183.2618
2011    25      7       0.9753877       170.1364
2011    26      0       0.7699149       145.8463
2011    26      1       0.7395569       142.0045
2011    26      2       0.7124407       138.9004
2011    26      3       0.9542153       167.2121
2011    26      4       1.174235        188.3194
2011    26      5       1.12974         185.2756
2011    26      6       0.9406843       167.6108
2011    26      7       0.7187587       142.2001
2011    27      0       0.6400911       131.1767
2011    27      1       0.6618436       133.9063
2011    27      2       0.6289669       129.3839
2011    27      3       0.7510659       146.1165
2011    27      4       1.17219         189.5511
2011    27      5       1.144334        187.7904
2011    27      6       1.157751        189.4227
2011    27      7       0.9472375       169.7653
2011    28      0       0.5844791       123.9665
2011    28      1       0.7810842       150.6362
2011    28      2       0.9239378       166.7217
2011    28      3       0.9841487       172.9243
2011    28      4       1.18037         190.2568
2011    28      5       1.26215         197.179
2011    28      6       1.214104        194.0425
2011    28      7       0.9909573       174.2646
2011    29      0       0.6029618       126.3929
2011    29      1       0.7256534       143.2703
2011    29      2       0.8535042       159.0713
2011    29      3       0.6238171       129.6521
2011    29      4       0.9021805       163.8783
2011    29      5       1.019707        175.6537
2011    29      6       0.9315788       167.3834
2011    29      7       0.6630512       135.1243
2011    30      0       0.5084827       111.8447
2011    30      1       0.3679177       87.23837
2011    30      2       0.3018157       74.61909
2011    30      3       0.4313071       98.81562
2011    30      4       0.6671137       135.0906
2011    30      5       0.6607235       134.4667
2011    30      6       0.3918624       91.91551
2011    30      7       0.2173922       57.31196
2011    31      0       0.220066        57.70604
2011    31      1       0.2430446       62.61249
2011    31      2       0.280395        70.26507
2011    31      3       0.4643986       104.2719
2011    31      4       0.9483053       168.4474
2011    31      5       0.8452173       157.414
2011    31      6       0.5709616       121.6602
2011    31      7       0.314884        77.6473
2012    1       0       0.3117917       76.97102
2012    1       1       0.2600918       66.37817
2012    1       2       0.2620559       66.69877
2012    1       3       0.49897         110.084
2012    1       4       0.9276869       166.3512
2012    1       5       1.038063        177.8281
2012    1       6       0.8912976       163.2245
2012    1       7       0.4459388       101.6545
2012    2       0       0.4340761       99.40194
2012    2       1       0.5265641       114.5846
2012    2       2       0.5053368       111.1443
2012    2       3       0.5487085       117.9869
2012    2       4       0.8654565       159.4241
2012    2       5       0.9115473       165.1261
2012    2       6       0.8439445       158.0423
2012    2       7       0.4245007       97.74425
2012    3       0       0.3593161       85.76338
2012    3       1       0.3186707       78.00116
2012    3       2       0.3313958       80.37702
2012    3       3       0.4559052       102.8207
2012    3       4       0.915363        165.0415
2012    3       5       0.9122099       164.596
2012    3       6       0.653695        133.2188
2012    3       7       0.3922383       91.93051
2012    4       0       0.3744881       88.41067
2012    4       1       0.3938915       91.60577
2012    4       2       0.44694         100.8497
2012    4       3       0.6094283       126.2743
2012    4       4       0.7827565       148.8051
2012    4       5       0.7873869       149.9782
2012    4       6       0.7493204       145.6873
2012    4       7       0.4826017       107.182
2012    5       0       0.4454263       100.7335
2012    5       1       0.4043032       93.62323
2012    5       2       0.4408019       99.93367
2012    5       3       0.7440023       144.6363
2012    5       4       0.8758428       159.6454
2012    5       5       0.8837361       161.2605
2012    5       6       0.6785658       136.8931
2012    5       7       0.4776726       106.6832
2012    6       0       0.5563145       118.8246
2012    6       1       0.7402618       144.4397
2012    6       2       0.8728867       160.5517
2012    6       3       0.9155398       165.4108
2012    6       4       0.8024145       152.5458
2012    6       5       0.7284364       143.2471
2012    6       6       0.6301926       129.9876
2012    6       7       0.6475924       132.6171
2012    7       0       0.8290791       155.6506
2012    7       1       0.8819521       161.2338
2012    7       2       0.9666788       170.0828
2012    7       3       0.9996252       173.2247
2012    7       4       1.001502        173.3638
2012    7       5       1.061332        179.4374
2012    7       6       1.052175        178.8202
2012    7       7       0.9750348       171.6716
2012    8       0       0.8460481       157.3858
2012    8       1       0.8745955       160.5648
2012    8       2       0.919427        165.5508
2012    8       3       0.8448874       156.3267
2012    8       4       0.9706736       169.4854
2012    8       5       1.08309         180.592
2012    8       6       1.066096        179.5392
2012    8       7       0.8869161       161.9436
2012    9       0       0.8965141       162.5773
2012    9       1       0.7654554       146.811
2012    9       2       0.6253019       128.3281
2012    9       3       0.5892155       123.4092
2012    9       4       0.516123        112.3159
2012    9       5       0.4586046       103.0692
2012    9       6       0.426366        97.62433
2012    9       7       0.433739        98.51084
2012    10      0       0.4149888       95.06895
2012    10      1       0.4170021       95.27639
2012    10      2       0.3804166       88.59819
2012    10      3       0.3670995       86.22878
2012    10      4       0.4458165       100.4701
2012    10      5       0.4637572       103.7877
2012    10      6       0.4276125       97.69246
2012    10      7       0.4230917       96.77404
2012    11      0       0.4367328       98.87557
2012    11      1       0.401389        92.75398
2012    11      2       0.3709629       87.17403
2012    11      3       0.4288475       97.50689
2012    11      4       0.8438667       156.5361
2012    11      5       0.9233359       165.5853
2012    11      6       0.5815491       122.9228
2012    11      7       0.4144112       95.88986
2012    12      0       0.3237005       78.80358
2012    12      1       0.3090781       75.80945
2012    12      2       0.2096695       55.33766
2012    12      3       0.3382128       81.00083
2012    12      4       0.738562        143.3411
2012    12      5       0.7794242       148.9098
2012    12      6       0.6058719       125.6927
2012    12      7       0.4038261       93.5234
2012    13      0       0.3380743       81.32268
2012    13      1       0.2871686       71.45269
2012    13      2       0.2490159       63.81048
2012    13      3       0.4565064       102.5326
2012    13      4       0.8070717       152.467
2012    13      5       0.6728491       135.1897
2012    13      6       0.5026861       110.0524
2012    13      7       0.448625        101.5817
2012    14      0       0.4752031       105.4186
2012    14      1       0.4995742       108.6842
2012    14      2       0.4655637       103.563
2012    14      3       0.4212029       95.91796
2012    14      4       0.515305        111.2428
2012    14      5       0.5965437       123.694
2012    14      6       0.5119233       111.0947
2012    14      7       0.4306634       98.02773
2012    15      0       0.4091539       94.36481
2012    15      1       0.3581655       85.10997
2012    15      2       0.2873719       71.53286
2012    15      3       0.4511258       101.7557
2012    15      4       0.8016162       151.4647
2012    15      5       0.9400893       166.8947
2012    15      6       0.9895082       171.8355
2012    15      7       0.9452825       167.9101
2012    16      0       0.9923363       173.0801
2012    16      1       0.9129909       164.6184
2012    16      2       0.7851305       149.7122
2012    16      3       1.075298        180.1049
2012    16      4       1.194515        190.2832
2012    16      5       1.240934        194.3898
2012    16      6       1.210679        192.1431
2012    16      7       1.144647        187.0194
2012    17      0       1.043467        177.9425
2012    17      1       1.006424        174.1382
2012    17      2       0.9844472       171.9016
2012    17      3       0.9172419       164.5479
2012    17      4       1.033083        174.807
2012    17      5       1.109493        182.0735
2012    17      6       1.10428         182.2299
2012    17      7       1.008391        174.0434
2012    18      0       0.8224456       154.4378
2012    18      1       0.5037912       110.1479
2012    18      2       0.4429172       99.80919
2012    18      3       0.5604641       118.691
2012    18      4       0.9492988       167.3404
2012    18      5       1.042378        177.0384
2012    18      6       0.9717334       170.7946
2012    18      7       0.5861807       123.4881
2012    19      0       0.4348106       98.9229
2012    19      1       0.3010032       74.09795
2012    19      2       0.234149        60.52828
2012    19      3       0.3051775       75.18745
2012    19      4       0.5781196       122.0673
2012    19      5       0.4164976       95.82497
2012    19      6       0.4484816       101.2703
2012    19      7       0.4165475       95.67742
2012    20      0       0.2865256       71.4722
2012    20      1       0.2417561       62.24129
2012    20      2       0.2845812       71.02399
2012    20      3       0.4061654       94.03054
2012    20      4       0.4953988       109.0638
2012    20      5       0.4337873       98.89283
2012    20      6       0.3210672       78.37156
2012    20      7       0.2465          63.42471
2012    21      0       0.2044445       54.31082
2012    21      1       0.1372496       38.98483
2012    21      2       0.09636572      29.13571
2012    21      3       0.1023272       30.5847
2012    21      4       0.1804834       48.83906
2012    21      5       0.2701872       67.98088
2012    21      6       0.2520845       64.35273
2012    21      7       0.1601307       44.44003
2012    22      0       0.1247334       36.15555
2012    22      1       0.1461707       41.08527
2012    22      2       0.1580473       43.81864
2012    22      3       0.4180763       96.16442
2012    22      4       0.7780009       148.525
2012    22      5       0.7966218       151.0063
2012    22      6       0.6440257       131.5253
2012    22      7       0.4715644       105.4282
2012    23      0       0.3814551       89.95413
2012    23      1       0.4638805       104.3088
2012    23      2       0.5319773       114.9861
2012    23      3       0.8492001       156.4613
2012    23      4       1.192524        189.2072
2012    23      5       1.141903        185.7076
2012    23      6       0.9509521       168.7791
2012    23      7       0.9978845       173.238
2012    24      0       0.5836278       122.2647
2012    24      1       0.4646808       103.5099
2012    24      2       0.4458962       100.3399
2012    24      3       0.6046605       125.1408
2012    24      4       0.8984771       162.003
2012    24      5       1.038958        176.8099
2012    24      6       1.105915        183.2392
2012    24      7       0.9659839       169.9072
2012    25      0       0.7278169       142.7249
2012    25      1       0.7679727       147.8673
2012    25      2       0.7592083       146.1446
2012    25      3       0.8166689       152.675
2012    25      4       0.9306808       165.0879
2012    25      5       0.9184602       163.5341
2012    25      6       0.8941373       162.2155
2012    25      7       0.8668959       158.5833
2012    26      0       0.6058068       125.9585
2012    26      1       0.57566         121.7606
2012    26      2       0.5976938       124.5085
2012    26      3       0.8207052       153.5795
2012    26      4       1.120161        184.0134
2012    26      5       1.104573        182.9945
2012    26      6       1.043341        177.7272
2012    26      7       0.8561438       158.2947
2012    27      0       0.6338099       130.1893
2012    27      1       0.7305932       143.4292
2012    27      2       0.7394592       144.427
2012    27      3       0.7700821       147.7649
2012    27      4       1.106513        182.5659
2012    27      5       1.200428        191.3032
2012    27      6       1.071606        180.4065
2012    27      7       0.9626514       169.114
2012    28      0       0.8532429       156.413
2012    28      1       0.6971127       136.9397
2012    28      2       0.5312315       113.8829
2012    28      3       0.8314913       154.7051
2012    28      4       1.173766        188.7519
2012    28      5       1.217585        192.4605
2012    28      6       1.089974        182.1384
2012    28      7       0.8213079       154.7456
2012    29      0       0.7414349       144.7687
2012    29      1       0.6339199       130.0733
2012    29      2       0.3992678       92.53963
2012    29      3       0.445109        100.5022
2012    29      4       0.6168422       127.3873
2012    29      5       0.597669        124.8792
2012    29      6       0.3648459       86.71743
2012    29      7       0.2252216       58.91486
2012    30      0       0.2257078       58.8498
2012    30      1       0.2296138       59.81366
2012    30      2       0.230753        60.07362
2012    30      3       0.3479644       83.61696
2012    30      4       0.6971479       138.9491
2012    30      5       0.5251013       114.043
2012    30      6       0.3640818       86.67265
2012    30      7       0.2585544       65.98922
2012    31      0       0.2868876       71.47649
2012    31      1       0.2804793       70.33282
2012    31      2       0.2538953       65.02312
2012    31      3       0.4694089       105.4594
2012    31      4       0.8238715       154.6381
2012    31      5       0.6678558       134.732
2012    31      6       0.4087799       94.7932
2012    31      7       0.2437078       63.13691
2013    1       0       0.4003927       92.49339
2013    1       1       0.3529797       83.94008
2013    1       2       0.3421733       81.94443
2013    1       3       0.440988        99.70097
2013    1       4       0.6522267       132.2598
2013    1       5       0.6676829       134.5563
2013    1       6       0.6197256       128.0388
2013    1       7       0.4480251       101.2189
2013    2       0       0.3992441       92.38186
2013    2       1       0.3290999       79.35997
2013    2       2       0.3145757       76.57478
2013    2       3       0.4531067       102.1963
2013    2       4       0.6953646       138.4254
2013    2       5       0.8043488       152.0301
2013    2       6       0.5769403       121.8924
2013    2       7       0.549425        117.7884
2013    3       0       0.4774266       106.1146
2013    3       1       0.4499369       101.282
2013    3       2       0.4822617       106.6045
2013    3       3       0.6002481       125.0178
2013    3       4       0.8833347       160.7997
2013    3       5       0.8120744       152.7195
2013    3       6       0.6217172       127.9673
2013    3       7       0.4851015       107.0758
2013    4       0       0.4687626       104.2622
2013    4       1       0.4510345       101.1676
2013    4       2       0.5570259       117.4097
2013    4       3       0.6973672       136.9047
2013    4       4       0.8842534       159.4558
2013    4       5       0.9172205       163.6422
2013    4       6       0.7378622       143.6909
2013    4       7       0.5757887       121.2602
2013    5       0       0.6081708       125.8781
2013    5       1       0.6676861       133.7965
2013    5       2       0.6639005       132.5606
2013    5       3       0.5982809       123.3841
2013    5       4       0.7781622       148.6104
2013    5       5       0.7054488       139.5205
2013    5       6       0.6979828       138.7446
2013    5       7       0.6341547       130.168
2013    6       0       0.5737158       121.0917
2013    6       1       0.5579224       118.4558
2013    6       2       0.5549561       118.1063
2013    6       3       0.7723484       148.2549
2013    6       4       1.09321         182.1696
2013    6       5       0.9427377       168.2103
2013    6       6       0.7398672       144.757
2013    6       7       0.6265685       128.5499
2013    7       0       0.6164371       126.8958
2013    7       1       0.5902815       123.3145
2013    7       2       0.6022689       125.0968
2013    7       3       1.019994        175.1291
2013    7       4       1.21587         192.2329
2013    7       5       1.034584        176.9814
2013    7       6       0.6791422       136.7256
2013    7       7       0.5224134       113.9625
2013    8       0       0.4817257       107.2431
2013    8       1       0.4685765       105.0584
2013    8       2       0.4269658       98.01494
2013    8       3       0.6065854       127.0457
2013    8       4       0.9831095       172.3727
2013    8       5       1.008566        175.0459
2013    8       6       0.6251701       129.5347
2013    8       7       0.3265948       79.77089
2013    9       0       0.2923838       72.79564
2013    9       1       0.3099023       76.22045
2013    9       2       0.3272626       79.56324
2013    9       3       0.5581232       119.4033
2013    9       4       1.034549        176.8355
2013    9       5       0.9541912       169.8038
2013    9       6       0.567351        121.2947
2013    9       7       0.3617729       86.64329
2013    10      0       0.3317968       80.81335
2013    10      1       0.3139626       77.26076
2013    10      2       0.2959768       73.662
2013    10      3       0.4425066       101.0133
2013    10      4       0.8795608       161.4645
2013    10      5       0.91379         165.482
2013    10      6       0.5835323       123.7434
2013    10      7       0.3911192       92.31973
2013    11      0       0.3542851       85.38317
2013    11      1       0.3704884       88.26397
2013    11      2       0.3479173       84.09783
2013    11      3       0.5893734       124.8578
2013    11      4       0.8899278       163.0135
2013    11      5       1.08561         183.3537
2013    11      6       0.8857067       163.6731
2013    11      7       0.5372147       117.3896
2013    12      0       0.4059663       95.21491
2013    12      1       0.3460708       84.05374
2013    12      2       0.3197313       78.77229
2013    12      3       0.590414        124.7881
2013    12      4       0.9197189       165.8942
2013    12      5       0.974221        172.0609
2013    12      6       0.9232795       167.2218
2013    12      7       0.535188        116.7394
2013    13      0       0.4170661       97.1017
2013    13      1       0.3697731       88.33553
2013    13      2       0.4337888       99.5165
2013    13      3       0.7750782       149.6062
2013    13      4       1.129877        186.2769
2013    13      5       1.32644         202.5454
2013    13      6       1.141402        188.6559
2013    13      7       0.7360753       145.884
2013    14      0       0.5706627       122.3858
2013    14      1       0.5662602       121.5032
2013    14      2       0.642506        132.9245
2013    14      3       1.022805        176.9886
2013    14      4       1.473711        212.2729
2013    14      5       1.415257        208.7828
2013    14      6       1.314137        201.7057
2013    14      7       1.120021        186.1705
2013    15      0       0.758224        147.3266
2013    15      1       0.7255828       142.915
2013    15      2       0.7366414       144.0013
2013    15      3       1.071318        180.5919
2013    15      4       1.116696        184.4715
2013    15      5       1.169438        189.507
2013    15      6       0.9548023       170.5766
2013    15      7       0.8685963       161.7205
2013    16      0       0.8339757       157.6415
2013    16      1       0.7795033       150.6162
2013    16      2       0.7192868       142.603
2013    16      3       0.8748908       161.1686
2013    16      4       1.189502        191.0467
2013    16      5       1.407618        208.3317
2013    16      6       1.173391        191.1363
2013    16      7       0.7577841       148.3366
2013    17      0       0.6865102       138.9107
2013    17      1       0.8197568       155.795
2013    17      2       0.7939625       152.7849
2013    17      3       0.989706        173.8865
2013    17      4       1.321071        201.9231
2013    17      5       1.241193        195.8808
2013    17      6       1.088194        182.3826
2013    17      7       0.9476035       168.3644
2013    18      0       0.8735231       160.4492
2013    18      1       0.6925742       138.7732
2013    18      2       0.6361886       131.2835
2013    18      3       1.06349         180.4429
2013    18      4       1.265529        197.4094
2013    18      5       1.242692        195.7584
2013    18      6       1.181418        190.6945
2013    18      7       0.9939422       173.6356
2013    19      0       0.8677675       159.6094
2013    19      1       0.7709369       147.8289
2013    19      2       0.8153903       153.1939
2013    19      3       1.162187        187.5966
2013    19      4       1.267763        196.1844
2013    19      5       1.140112        185.6727
2013    19      6       0.8995215       162.2245
2013    19      7       0.7394688       143.3791
2013    20      0       0.6311827       129.0007
2013    20      1       0.5074039       110.5612
2013    20      2       0.4979576       109.1195
2013    20      3       0.6560067       133.2971
2013    20      4       1.00467         174.0642
2013    20      5       0.935928        167.4136
2013    20      6       0.7969888       152.0419
2013    20      7       0.4890616       108.6424
2013    21      0       0.3655603       87.18618
2013    21      1       0.3328174       80.92678
2013    21      2       0.3811688       89.86566
2013    21      3       0.5849858       123.7829
2013    21      4       1.040549        177.6674
2013    21      5       0.9945122       173.5601
2013    21      6       0.6255186       129.6334
2013    21      7       0.5491419       117.9109
2013    22      0       0.580624        122.5014
2013    22      1       0.3921462       91.92484
2013    22      2       0.3109355       76.79332
2013    22      3       0.4223069       97.49027
2013    22      4       0.7667551       148.1153
2013    22      5       0.8499614       157.6569
2013    22      6       0.6412786       131.3739
2013    22      7       0.382715        89.76944
2013    23      0       0.2797124       69.98346
2013    23      1       0.2442489       62.73984
2013    23      2       0.2237379       58.36249
2013    23      3       0.2962584       73.57195
2013    23      4       0.3221634       78.60967
2013    23      5       0.4423105       100.5148
2013    23      6       0.2790291       70.21679
2013    23      7       0.195341        52.50818
2013    24      0       0.1661906       45.81058
2013    24      1       0.1615117       44.7059
2013    24      2       0.1531906       42.78892
2013    24      3       0.1512362       42.37122
2013    24      4       0.2848509       71.08691
2013    24      5       0.3791434       89.18968
2013    24      6       0.253292        64.75282
2013    24      7       0.1418111       40.27052
2013    25      0       0.1237607       35.94863
2013    25      1       0.1156938       34.01933
2013    25      2       0.09024176      27.851
2013    25      3       0.1553339       43.36379
2013    25      4       0.5196571       112.8602
2013    25      5       0.7007781       139.16
2013    25      6       0.4737063       105.677
2013    25      7       0.1860439       50.50611
2013    26      0       0.1116444       33.1708
2013    26      1       0.09082056      28.01186
2013    26      2       0.07704796      24.57712
2013    26      3       0.08744461      27.21822
2013    26      4       0.4153022       95.6436
2013    26      5       0.5373681       115.712
2013    26      6       0.4963174       109.4793
2013    26      7       0.1628745       45.29423
2013    27      0       0.131205        37.75317
2013    27      1       0.1577          43.7878
2013    27      2       0.1809156       48.97328
2013    27      3       0.3128095       76.45757
2013    27      4       0.8795443       160.3458
2013    27      5       1.012867        174.1852
2013    27      6       0.92806         165.9706
2013    27      7       0.4598073       103.3515
2013    28      0       0.2768728       69.52362
2013    28      1       0.1876266       50.55849
2013    28      2       0.1929002       51.60008
2013    28      3       0.3876635       90.65219
2013    28      4       0.6803712       135.8304
2013    28      5       0.9170782       164.7192
2013    28      6       0.676134        136.0734
2013    28      7       0.2492524       64.06084
2013    29      0       0.1749189       47.8183
2013    29      1       0.2024098       53.74839
2013    29      2       0.2209526       57.7456
2013    29      3       0.3376952       81.39611
2013    29      4       0.7238132       142.1092
2013    29      5       0.8391506       156.5957
2013    29      6       0.6356297       131.0581
2013    29      7       0.3541099       84.9694
2013    30      0       0.2614581       66.66843
2013    30      1       0.2288596       59.78407
2013    30      2       0.2584502       66.01452
2013    30      3       0.5245287       113.9729
2013    30      4       0.9701918       170.2354
2013    30      5       1.075159        180.6632
2013    30      6       0.8076236       153.0801
2013    30      7       0.5296754       114.9871
2013    31      0       0.4809801       107.1635
2013    31      1       0.5583029       119.2965
2013    31      2       0.7146557       141.2255
2013    31      3       1.130873        185.3465
2013    31      4       1.17228         188.7742
2013    31      5       1.128287        184.8542
2013    31      6       1.031814        175.7666
2013    31      7       0.9136047       163.455
2014    1       0       0.2951          73.49872
2014    1       1       0.2553342       65.35727
2014    1       2       0.2513218       64.45883
2014    1       3       0.5448242       117.0449
2014    1       4       0.8293239       155.1125
2014    1       5       0.8683138       159.6757
2014    1       6       0.7052866       140.282
2014    1       7       0.3883763       91.17344
2014    2       0       0.2681138       68.04497
2014    2       1       0.241922        62.24206
2014    2       2       0.330491        79.68901
2014    2       3       0.5234252       113.4139
2014    2       4       0.8712446       159.1267
2014    2       5       0.922358        165.2532
2014    2       6       0.5860521       123.1263
2014    2       7       0.5017457       110.0507
2014    3       0       0.5102933       111.1778
2014    3       1       0.5520289       117.617
2014    3       2       0.5792352       121.8679
2014    3       3       0.6811767       136.2669
2014    3       4       0.949968        168.1257
2014    3       5       0.8846501       161.9456
2014    3       6       0.7981984       152.4817
2014    3       7       0.5557201       119.2156
2014    4       0       0.4819851       107.4307
2014    4       1       0.4819119       107.2114
2014    4       2       0.6014651       125.7657
2014    4       3       0.7944714       150.8345
2014    4       4       0.9770763       170.0147
2014    4       5       0.7449704       144.0478
2014    4       6       0.4801306       105.9772
2014    4       7       0.4146864       94.98618
2014    5       0       0.337671        80.78824
2014    5       1       0.3356781       80.38708
2014    5       2       0.3580675       84.76731
2014    5       3       0.6713767       135.3593
2014    5       4       1.043176        177.2011
2014    5       5       1.074122        180.5183
2014    5       6       0.783771        149.9209
2014    5       7       0.6925106       138.0442
2014    6       0       0.5886106       123.2762
2014    6       1       0.6234499       128.6438
2014    6       2       0.7552239       146.4643
2014    6       3       0.7005399       139.0315
2014    6       4       1.040996        176.4394
2014    6       5       1.033809        175.9586
2014    6       6       0.8521204       157.6491
2014    6       7       0.5722755       121.0304
2014    7       0       0.6896946       138.2816
2014    7       1       0.802152        152.3548
2014    7       2       0.7887173       150.3894
2014    7       3       0.7360923       143.5142
2014    7       4       0.8352901       155.6462
2014    7       5       0.8022204       152.0886
2014    7       6       0.6334909       130.1912
2014    7       7       0.5175906       113.1371
2014    8       0       0.4583645       103.3256
2014    8       1       0.468053        104.7421
2014    8       2       0.6258338       129.1144
2014    8       3       1.060821        179.2887
2014    8       4       1.119789        184.5927
2014    8       5       1.137851        186.2247
2014    8       6       1.066106        180.2134
2014    8       7       0.882155        161.4012
2014    9       0       0.6824945       136.4128
2014    9       1       0.5528967       117.9404
2014    9       2       0.5268271       113.928
2014    9       3       0.918696        164.5482
2014    9       4       1.175477        188.52
2014    9       5       1.175677        188.5315
2014    9       6       1.122727        184.6723
2014    9       7       0.72491         142.1691
2014    10      0       0.6587082       133.3415
2014    10      1       0.7568539       146.3996
2014    10      2       0.7417289       144.5162
2014    10      3       0.9325737       166.1187
2014    10      4       1.113948        183.7918
2014    10      5       1.135669        185.7874
2014    10      6       1.111591        183.4502
2014    10      7       0.9893621       171.3444
2014    11      0       0.7872277       148.5359
2014    11      1       0.736869        141.9744
2014    11      2       0.8420966       154.4737
2014    11      3       0.7647104       145.1364
2014    11      4       0.6811535       134.8212
2014    11      5       0.622274        127.2804
2014    11      6       0.7076642       139.4734
2014    11      7       0.6120882       126.2438
2014    12      0       0.4956291       108.4694
2014    12      1       0.461878        102.8601
2014    12      2       0.4257898       96.6227
2014    12      3       0.6162757       126.7413
2014    12      4       0.8855742       159.841
2014    12      5       0.9588298       167.6534
2014    12      6       0.7655399       146.7605
2014    12      7       0.5541295       117.7285
2014    13      0       0.4408974       99.49885
2014    13      1       0.4961527       108.49
2014    13      2       0.4880338       107.2567
2014    13      3       0.5809993       121.1815
2014    13      4       0.9661932       168.8101
2014    13      5       0.8213161       153.1196
2014    13      6       0.5077951       110.6499
2014    13      7       0.3606943       85.39293
2014    14      0       0.3167569       77.15499
2014    14      1       0.3077384       75.41324
2014    14      2       0.3378218       81.16098
2014    14      3       0.5242703       113.4421
2014    14      4       0.8682401       159.1332
2014    14      5       0.8563943       157.8074
2014    14      6       0.6125373       126.9334
2014    14      7       0.3881693       90.76887
2014    15      0       0.3537814       84.30344
2014    15      1       0.3497378       83.40946
2014    15      2       0.3280511       79.27986
2014    15      3       0.4911058       108.3817
2014    15      4       0.69328         137.8712
2014    15      5       0.6713723       135.0973
2014    15      6       0.3986206       92.72299
2014    15      7       0.3272609       79.59129
2014    16      0       0.3235098       78.61316
2014    16      1       0.2989633       73.7282
2014    16      2       0.2625779       66.51051
2014    16      3       0.4671676       104.6036
2014    16      4       0.8992888       162.6627
2014    16      5       1.060032        178.6838
2014    16      6       1.006841        173.9502
2014    16      7       0.8847822       161.548
2014    17      0       0.7338429       143.4472
2014    17      1       0.7062883       139.966
2014    17      2       0.6485345       132.2688
2014    17      3       0.6575508       133.4779
2014    17      4       0.6493658       131.8305
2014    17      5       0.6154594       126.8917
2014    17      6       0.4612697       103.2545
2014    17      7       0.3398272       81.57094
2014    18      0       0.3484531       82.90584
2014    18      1       0.3727462       87.22901
2014    18      2       0.3391663       80.89553
2014    18      3       0.347487        82.61842
2014    18      4       0.5368225       114.9687
2014    18      5       0.6095981       125.7877
2014    18      6       0.3595439       84.96494
2014    18      7       0.2949062       72.51287
2014    19      0       0.3041369       74.38666
2014    19      1       0.2483185       63.39281
2014    19      2       0.1803324       48.9126
2014    19      3       0.1892959       50.98275
2014    19      4       0.5350411       115.3733
2014    19      5       0.5930752       124.1775
2014    19      6       0.3517927       84.20516
2014    19      7       0.1642901       45.5478
2014    20      0       0.1208533       35.30035
2014    20      1       0.1125097       33.24452
2014    20      2       0.1409853       39.95131
2014    20      3       0.3661004       86.53323
2014    20      4       0.567194        119.9153
2014    20      5       0.6490895       132.2155
2014    20      6       0.2824747       70.83038
2014    20      7       0.1461998       41.45016
2014    21      0       0.1392884       39.73407
2014    21      1       0.1331942       38.26779
2014    21      2       0.124755        36.26497
2014    21      3       0.2962022       73.43251
2014    21      4       0.5405879       115.849
2014    21      5       0.7648592       147.2459
2014    21      6       0.5848071       123.2825
2014    21      7       0.344022        82.89662
2014    22      0       0.2847242       71.19175
2014    22      1       0.2991422       73.91092
2014    22      2       0.311796        76.33143
2014    22      3       0.5998383       124.8359
2014    22      4       0.8190265       153.059
2014    22      5       0.9690893       169.9359
2014    22      6       0.6414601       131.2619
2014    22      7       0.3201477       78.44231
2014    23      0       0.2821747       70.9564
2014    23      1       0.3153369       77.40627
2014    23      2       0.4002256       92.8088
2014    23      3       0.7020977       138.8735
2014    23      4       1.070411        178.9331
2014    23      5       1.178409        188.6562
2014    23      6       0.9983332       172.9267
2014    23      7       0.9453475       167.2628
2014    24      0       0.7994352       149.9835
2014    24      1       0.8049725       150.0836
2014    24      2       1.092362        181.126
2014    24      3       1.176309        189.0891
2014    24      4       1.058585        178.6879
2014    24      5       0.776078        148.2374
2014    24      6       0.6096293       126.2579
2014    24      7       0.4918207       108.6064
2014    25      0       0.4647362       104.1642
2014    25      1       0.4480865       101.2793
2014    25      2       0.4391241       99.69842
2014    25      3       0.7010206       139.2979
2014    25      4       1.176545        189.3521
2014    25      5       1.128121        185.7279
2014    25      6       1.034732        177.4287
2014    25      7       0.7229022       142.8094
2014    26      0       0.5002724       110.534
2014    26      1       0.5389326       116.5468
2014    26      2       0.3781211       89.32773
2014    26      3       0.4133208       95.70381
2014    26      4       0.6969016       139.1104
2014    26      5       0.6726435       136.1305
2014    26      6       0.5552656       119.3098
2014    26      7       0.3077791       76.16082
2014    27      0       0.1858355       50.41056
2014    27      1       0.1647437       45.51075
2014    27      2       0.1901726       51.22141
2014    27      3       0.3401134       82.19287
2014    27      4       0.7031889       140.3688
2014    27      5       0.7125737       141.8987
2014    27      6       0.5097898       112.5566
2014    27      7       0.3109115       77.2805
2014    28      0       0.3072676       76.4175
2014    28      1       0.3945063       92.64303
2014    28      2       0.385077        90.76965
2014    28      3       0.6496805       133.3371
2014    28      4       0.9740966       171.5593
2014    28      5       1.129925        186.5237
2014    28      6       1.088075        183.1945
2014    28      7       0.7097112       141.6727
2014    29      0       0.5707358       121.7865
2014    29      1       0.795203        152.1411
2014    29      2       0.7267451       143.545
2014    29      3       0.6754281       136.7596
2014    29      4       0.9353375       167.4488
2014    29      5       1.039497        177.7184
2014    29      6       0.8324199       156.3627
2014    29      7       0.6980486       139.6351
2014    30      0       0.7322939       143.5286
2014    30      1       0.8271376       154.5205
2014    30      2       0.8251446       153.0776
2014    30      3       0.8765122       159.3379
2014    30      4       0.9057665       163.835
2014    30      5       1.172385        189.1787
2014    30      6       1.231998        194.4353
2014    30      7       0.9510303       168.9183
2014    31      0       0.7915933       151.1773
2014    31      1       0.7043409       139.5213
2014    31      2       0.6027234       125.4131
2014    31      3       0.7083372       140.2465
2014    31      4       0.98129         171.6702
2014    31      5       0.9597321       169.7013
2014    31      6       0.7750333       148.9965
2014    31      7       0.5560308       118.9299
2015    1       0       0.5170116       112.8154
2015    1       1       0.5713575       121.2771
2015    1       2       0.7429286       145.2138
2015    1       3       0.9247207       166.2472
2015    1       4       1.079355        180.9584
2015    1       5       1.062905        179.6862
2015    1       6       1.026931        176.3646
2015    1       7       1.057693        179.3938
2015    2       0       1.138329        186.5519
2015    2       1       1.007603        173.5637
2015    2       2       0.9056778       162.8142
2015    2       3       0.8858966       160.8039
2015    2       4       0.8680437       158.65
2015    2       5       0.7803928       148.8122
2015    2       6       0.6864594       137.4894
2015    2       7       0.6925819       138.4564
2015    3       0       0.5949102       124.9469
2015    3       1       0.2949339       73.70609
2015    3       2       0.1930909       52.27718
2015    3       3       0.3681863       88.01409
2015    3       4       0.6081506       127.5443
2015    3       5       0.5600084       120.3355
2015    3       6       0.3189787       78.44055
2015    3       7       0.2025543       54.22117
2015    4       0       0.1772579       48.53639
2015    4       1       0.1664525       46.14106
2015    4       2       0.2082823       55.48887
2015    4       3       0.4786809       107.2891
2015    4       4       0.6950529       139.3466
2015    4       5       0.7096781       141.266
2015    4       6       0.4726245       106.2499
2015    4       7       0.2717474       69.05206
2015    5       0       0.2442213       63.19762
2015    5       1       0.2738148       69.23475
2015    5       2       0.2060697       54.87516
2015    5       3       0.200358        53.704
2015    5       4       0.5646188       120.4627
2015    5       5       0.7021096       140.0994
2015    5       6       0.514104        112.7569
2015    5       7       0.2554361       65.56144
2015    6       0       0.1858269       50.52127
2015    6       1       0.1614365       44.94277
2015    6       2       0.1799558       49.16505
2015    6       3       0.5359152       115.99
2015    6       4       0.885507        161.8087
2015    6       5       0.987267        172.6597
2015    6       6       0.8298488       156.0688
2015    6       7       0.6098253       127.3285
2015    7       0       0.4729414       106.0792
2015    7       1       0.448478        101.7777
2015    7       2       0.3728537       88.25706
2015    7       3       0.5456566       117.3128
2015    7       4       0.8856882       161.7356
2015    7       5       0.8454217       157.0336
2015    7       6       0.5647571       120.5162
2015    7       7       0.2932289       73.16805
2015    8       0       0.1914487       51.59633
2015    8       1       0.1711251       46.85758
2015    8       2       0.1670175       45.81983
2015    8       3       0.4691252       105.0438
2015    8       4       0.7018594       139.3361
2015    8       5       0.6403499       130.6231
2015    8       6       0.3239576       78.80961
2015    8       7       0.2012273       53.52197
2015    9       0       0.1736269       47.31846
2015    9       1       0.1692375       46.25241
2015    9       2       0.1761041       47.80519
2015    9       3       0.3013068       74.45077
2015    9       4       0.8168907       153.6396
2015    9       5       0.7906449       149.7128
2015    9       6       0.4497888       101.4585
2015    9       7       0.3593574       85.59563
2015    10      0       0.2799627       69.96008
2015    10      1       0.2378828       61.18764
2015    10      2       0.2442138       62.65594
2015    10      3       0.3521697       84.2677
2015    10      4       0.6370717       130.4646
2015    10      5       0.5716241       121.3546
2015    10      6       0.1962627       52.66786
2015    10      7       0.1118344       33.11648
2015    11      0       0.09164516      28.10944
2015    11      1       0.09029547      27.73462
2015    11      2       0.107969        32.04278
2015    11      3       0.2246411       58.58764
2015    11      4       0.4255287       97.23343
2015    11      5       0.5998912       125.4251
2015    11      6       0.2504826       64.24702
2015    11      7       0.1026974       30.96482
2015    12      0       0.09845193      29.82983
2015    12      1       0.1092473       32.40645
2015    12      2       0.1138287       33.54811
2015    12      3       0.2999802       74.31205
2015    12      4       0.6242735       128.9944
2015    12      5       0.7170327       141.9196
2015    12      6       0.3469851       83.62298
2015    12      7       0.197068        53.03351
2015    13      0       0.2056244       54.71364
2015    13      1       0.2036131       54.22532
2015    13      2       0.2064275       54.87705
2015    13      3       0.4989783       109.9642
2015    13      4       0.7808981       149.3065
2015    13      5       0.8757419       160.9664
2015    13      6       0.4177831       96.4483
2015    13      7       0.2949384       73.23678
2015    14      0       0.3676464       87.02498
2015    14      1       0.3171425       77.51897
2015    14      2       0.2696118       68.01278
2015    14      3       0.5084371       111.2081
2015    14      4       0.888228        161.6305
2015    14      5       0.916646        165.2866
2015    14      6       0.6351717       130.7973
2015    14      7       0.3531116       84.66838
2015    15      0       0.3507994       84.0867
2015    15      1       0.2820327       70.64635
2015    15      2       0.1824494       49.42912
2015    15      3       0.3634327       86.02659
2015    15      4       0.6441643       131.094
2015    15      5       0.4508003       101.3238
2015    15      6       0.1988351       53.104
2015    15      7       0.137109        38.85836
2015    16      0       0.1447998       40.55278
2015    16      1       0.1336755       38.02632
2015    16      2       0.09716773      29.366
2015    16      3       0.08609625      26.68285
2015    16      4       0.1588445       43.98581
2015    16      5       0.1714995       46.92334
2015    16      6       0.1101245       32.66826
2015    16      7       0.07314808      23.52275
2015    17      0       0.0667215       21.85218
2015    17      1       0.07407318      23.70752
2015    17      2       0.1022167       30.6227
2015    17      3       0.1590201       43.95568
2015    17      4       0.3237491       78.58399
2015    17      5       0.6435608       131.545
2015    17      6       0.4651263       104.3039
2015    17      7       0.3548851       84.8795
2015    18      0       0.3286225       79.95621
2015    18      1       0.2604241       66.35238
2015    18      2       0.2401979       62.07857
2015    18      3       0.4512518       101.9099
2015    18      4       0.9603937       169.0594
2015    18      5       1.033229        176.3478
2015    18      6       0.7150036       140.9025
2015    18      7       0.3040584       74.66002
2015    19      0       0.2054039       54.22872
2015    19      1       0.1956814       52.21243
2015    19      2       0.2331071       60.42789
2015    19      3       0.4204641       96.58246
2015    19      4       0.8323857       155.5892
2015    19      5       0.7001547       138.8982
2015    19      6       0.4562122       102.4153
2015    19      7       0.3114284       76.1693
2015    20      0       0.2362604       60.83099
2015    20      1       0.2005366       53.1677
2015    20      2       0.192814        51.54109
2015    20      3       0.4752174       105.6155
2015    20      4       0.9916938       172.5094
2015    20      5       0.9239885       164.9341
2015    20      6       0.6858256       137.2853
2015    20      7       0.3979938       91.97274
2015    21      0       0.2850014       70.14889
2015    21      1       0.2640034       66.07914
2015    21      2       0.2916569       72.08692
2015    21      3       0.4516711       101.7067
2015    21      4       0.8253788       153.9802
2015    21      5       0.8266213       154.1664
2015    21      6       0.385791        90.49404
2015    21      7       0.2566832       65.52258
2015    22      0       0.3144163       76.9987
2015    22      1       0.3117493       76.38589
2015    22      2       0.2901356       71.9976
2015    22      3       0.3461716       82.80069
2015    22      4       0.5440892       115.9395
2015    22      5       0.5750539       120.5281
2015    22      6       0.2651069       66.34637
2015    22      7       0.1622629       44.01207
2015    23      0       0.1279702       35.97057
2015    23      1       0.1174049       33.48137
2015    23      2       0.1078866       31.2573
2015    23      3       0.1140106       32.91468
2015    23      4       0.1545463       42.65423
2015    23      5       0.1646409       45.10066
2015    23      6       0.1512768       41.98299
2015    23      7       0.1131241       32.91004
2015    24      0       0.1056436       30.9983
2015    24      1       0.1133774       32.66132
2015    24      2       0.1151136       33.05686
2015    24      3       0.140444        39.1875
2015    24      4       0.2380705       60.65138
2015    24      5       0.2917749       71.60026
2015    24      6       0.2315968       59.53914
2015    24      7       0.1352249       37.96785
2015    25      0       0.1383468       38.82373
2015    25      1       0.1618411       44.45298
2015    25      2       0.1684718       46.06579
2015    25      3       0.3211854       78.18242
2015    25      4       0.6353602       130.142
2015    25      5       0.555321        118.6234
2015    25      6       0.2512746       64.33577
2015    25      7       0.1179525       34.51093
2015    26      0       0.1279088       36.81039
2015    26      1       0.1450403       40.78185
2015    26      2       0.1547028       43.02771
2015    26      3       0.3333809       80.57729
2015    26      4       0.5533513       117.941
2015    26      5       0.5040169       110.2846
2015    26      6       0.3441622       82.64865
2015    26      7       0.210724        55.66175
2015    27      0       0.1883949       50.74155
2015    27      1       0.2065412       54.75486
2015    27      2       0.1399529       39.71898
2015    27      3       0.2682662       67.87437
2015    27      4       0.4734666       105.6338
2015    27      5       0.5642379       120.3625
2015    27      6       0.2885079       72.07619
2015    27      7       0.2036927       54.18828
2015    28      0       0.359216        85.53527
2015    28      1       0.4573145       102.9603
2015    28      2       0.272476        68.46059
2015    28      3       0.3584257       85.35068
2015    28      4       0.4285107       97.85265
2015    28      5       0.4934488       109.026
2015    28      6       0.3193958       78.25359
2015    28      7       0.2538865       65.08654
2015    29      0       0.2578249       65.68798
2015    29      1       0.2561341       65.21603
2015    29      2       0.2523432       64.38875
2015    29      3       0.4086544       94.4149
2015    29      4       0.6683493       134.7609
2015    29      5       0.7669487       147.8776
2015    29      6       0.5285663       114.9495
2015    29      7       0.3953434       92.57566
2015    30      0       0.3590541       85.74468
2015    30      1       0.3826001       89.9046
2015    30      2       0.3555986       84.87231
2015    30      3       0.6638221       134.0168
2015    30      4       1.094761        182.5641
2015    30      5       1.134122        186.0458
2015    30      6       0.8865819       162.2202
2015    30      7       0.4729487       105.3411
2015    31      0       0.3585521       85.04842
2015    31      1       0.2979455       73.30605
2015    31      2       0.3041022       74.43774
2015    31      3       0.4394673       98.98379
2015    31      4       0.8528566       156.8428
2015    31      5       0.7995253       151.3278
2015    31      6       0.3987664       92.79237
2015    31      7       0.2668734       67.5856
2016    1       0       0.7733002       148.2282
2016    1       1       0.5375114       115.2286
2016    1       2       0.393985        91.78459
2016    1       3       0.4389695       100.2089
2016    1       4       0.9065714       163.6165
2016    1       5       1.101833        183.137
2016    1       6       0.8838176       161.8524
2016    1       7       0.5627566       120.5646
2016    2       0       0.4481811       102.0928
2016    2       1       0.4883697       108.9152
2016    2       2       0.4397161       100.4251
2016    2       3       0.8096076       153.4131
2016    2       4       0.9781681       170.9694
2016    2       5       0.9636945       170.0999
2016    2       6       0.8493954       158.2216
2016    2       7       0.5277534       114.9651
2016    3       0       0.4971405       109.997
2016    3       1       0.5371238       116.4264
2016    3       2       0.5008774       110.9525
2016    3       3       0.7824005       151.2274
2016    3       4       1.040387        178.181
2016    3       5       1.253684        196.8823
2016    3       6       1.227299        195.475
2016    3       7       1.062244        181.3626
2016    4       0       0.7481299       146.6258
2016    4       1       0.8970782       163.2906
2016    4       2       0.7666337       147.1756
2016    4       3       1.046698        177.2612
2016    4       4       1.285425        197.1721
2016    4       5       1.335701        201.5996
2016    4       6       1.322701        201.6551
2016    4       7       1.256162        196.9245
2016    5       0       1.144141        188.0425
2016    5       1       1.1627          189.113
2016    5       2       0.993182        173.0888
2016    5       3       0.9846866       171.6544
2016    5       4       1.22617         193.0656
2016    5       5       1.262789        196.4106
2016    5       6       1.199905        191.8664
2016    5       7       0.8580806       159.3206
2016    6       0       0.8776207       161.1112
2016    6       1       0.6979642       138.5377
2016    6       2       0.7293242       142.9815
2016    6       3       0.840054        156.7914
2016    6       4       1.221163        192.9894
2016    6       5       1.204366        191.6587
2016    6       6       1.085445        182.0988
2016    6       7       0.987056        172.9976
2016    7       0       0.832449        155.6121
2016    7       1       1.00613         174.1302
2016    7       2       0.787788        149.8774
2016    7       3       0.7873822       150.3508
2016    7       4       1.07779         181.2431
2016    7       5       0.8743705       160.7778
2016    7       6       0.7282068       143.5824
2016    7       7       0.6752943       136.5414
2016    8       0       0.6842591       137.4445
2016    8       1       0.672326        135.5228
2016    8       2       0.6449933       131.6037
2016    8       3       0.6705061       135.4677
2016    8       4       0.8884545       162.5202
2016    8       5       0.8775098       161.3431
2016    8       6       0.677536        136.6238
2016    8       7       0.6183162       128.3136
2016    9       0       0.6905272       138.2892
2016    9       1       0.8328776       155.788
2016    9       2       0.8704665       159.6519
2016    9       3       0.8163983       153.1721
2016    9       4       0.7369988       143.8336
2016    9       5       0.6949744       138.7138
2016    9       6       0.5489377       117.9144
2016    9       7       0.4309781       98.84715
2016    10      0       0.4056283       94.1596
2016    10      1       0.4237741       97.09393
2016    10      2       0.470266        105.016
2016    10      3       0.5150728       112.676
2016    10      4       0.7466617       145.5725
2016    10      5       0.9607599       170.1346
2016    10      6       0.6845101       137.6965
2016    10      7       0.4024834       93.90122
2016    11      0       0.3755023       88.72159
2016    11      1       0.3901123       91.23654
2016    11      2       0.4223634       96.99797
2016    11      3       0.6227304       128.9778
2016    11      4       0.9861339       172.0911
2016    11      5       1.08393         181.9519
2016    11      6       0.9055848       164.6362
2016    11      7       0.594716        125.1521
2016    12      0       0.5504069       117.9109
2016    12      1       0.5612828       119.4686
2016    12      2       0.5733981       121.5607
2016    12      3       0.9048463       164.1841
2016    12      4       1.287887        198.6484
2016    12      5       1.101334        184.0449
2016    12      6       0.8274878       156.6594
2016    12      7       0.4960276       110.3858
2016    13      0       0.4583146       103.8652
2016    13      1       0.4795131       107.1828
2016    13      2       0.4384276       100.2401
2016    13      3       0.7377217       145.0296
2016    13      4       1.024891        176.5247
2016    13      5       1.022336        176.7019
2016    13      6       0.6942273       139.5643
2016    13      7       0.390153        91.84626
2016    14      0       0.319973        78.46633
2016    14      1       0.3262789       79.58308
2016    14      2       0.3032179       75.15795
2016    14      3       0.5965741       126.0589
2016    14      4       0.8394732       157.3203
2016    14      5       0.9630872       171.2426
2016    14      6       0.5466942       118.4634
2016    14      7       0.3880393       91.76195
2016    15      0       0.3596325       86.36165
2016    15      1       0.3622993       86.67535
2016    15      2       0.3419228       82.86024
2016    15      3       0.6479702       133.2862
2016    15      4       0.9189723       165.9189
2016    15      5       0.9254855       166.5586
2016    15      6       0.5556324       119.7643
2016    15      7       0.3884857       91.65444
2016    16      0       0.3722269       88.31861
2016    16      1       0.310106        76.31156
2016    16      2       0.2149441       56.70153
2016    16      3       0.2016639       53.75431
2016    16      4       0.2182089       57.43491
2016    16      5       0.1866128       50.53141
2016    16      6       0.1398735       39.91483
2016    16      7       0.09875618      30.0158
2016    17      0       0.09961962      30.18213
2016    17      1       0.08939645      27.69986
2016    17      2       0.0805526       25.50846
2016    17      3       0.09548607      29.23696
2016    17      4       0.2111235       55.85023
2016    17      5       0.3215079       78.59124
2016    17      6       0.2109439       56.00532
2016    17      7       0.1295828       37.73898
2016    18      0       0.1273837       37.19383
2016    18      1       0.1479611       42.02317
2016    18      2       0.125343        36.72743
2016    18      3       0.1712723       47.54837
2016    18      4       0.3060198       75.83639
2016    18      5       0.3557472       85.31393
2016    18      6       0.2666849       67.92418
2016    18      7       0.175601        48.4865
2016    19      0       0.1745859       48.20742
2016    19      1       0.166601        46.3149
2016    19      2       0.1980427       53.32534
2016    19      3       0.453158        102.828
2016    19      4       0.7862824       150.5316
2016    19      5       0.8725212       160.4029
2016    19      6       0.6342652       130.6774
2016    19      7       0.2635767       67.358
2016    20      0       0.1705777       47.16611
2016    20      1       0.1410837       40.26786
2016    20      2       0.1294185       37.49319
2016    20      3       0.2780718       70.066
2016    20      4       0.8131381       153.106
2016    20      5       1.096656        182.2187
2016    20      6       0.8125739       153.4114
2016    20      7       0.6262678       129.4665
2016    21      0       0.5427457       117.0205
2016    21      1       0.7038224       140.3899
2016    21      2       0.7570668       147.0512
2016    21      3       1.137488        186.4818
2016    21      4       1.3271          201.4306
2016    21      5       1.194959        191.8326
2016    21      6       1.069213        180.4281
2016    21      7       1.021755        175.7429
2016    22      0       0.9422596       167.4526
2016    22      1       0.9389996       166.8734
2016    22      2       0.7654217       146.5521
2016    22      3       1.221949        192.2429
2016    22      4       1.333787        200.8318
2016    22      5       1.170281        188.8267
2016    22      6       0.9336022       167.1427
2016    22      7       0.6883739       138.3012
2016    23      0       0.5662459       120.5125
2016    23      1       0.7931936       151.2679
2016    23      2       0.8711488       160.0787
2016    23      3       1.103794        182.95
2016    23      4       1.115541        183.6051
2016    23      5       0.9976634       172.3457
2016    23      6       0.8225008       153.495
2016    23      7       0.6187457       127.5782
2016    24      0       0.6399309       130.3329
2016    24      1       0.5668039       119.5374
2016    24      2       0.4911259       107.8038
2016    24      3       0.4469049       100.6268
2016    24      4       0.6315595       129.5203
2016    24      5       0.5187835       112.6922
2016    24      6       0.3282239       79.71328
2016    24      7       0.2640838       67.19569
2016    25      0       0.2512019       64.33192
2016    25      1       0.2549113       65.01678
2016    25      2       0.2778326       69.53062
2016    25      3       0.328364        79.32169
2016    25      4       0.6336511       129.6938
2016    25      5       0.7869384       150.1757
2016    25      6       0.5212624       113.56
2016    25      7       0.3075239       75.83569
2016    26      0       0.260307        66.11524
2016    26      1       0.240827        62.00738
2016    26      2       0.2430975       62.50755
2016    26      3       0.4535388       102.2505
2016    26      4       0.7072055       140.0653
2016    26      5       0.7464635       145.1801
2016    26      6       0.3993731       92.75582
2016    26      7       0.2286477       59.41512
2016    27      0       0.1878973       50.45988
2016    27      1       0.1469166       41.16219
2016    27      2       0.133844        38.09821
2016    27      3       0.1623697       44.65081
2016    27      4       0.3502146       83.48597
2016    27      5       0.420907        96.51603
2016    27      6       0.2356575       61.05742
2016    27      7       0.1448692       40.94633
2016    28      0       0.1299375       37.37116
2016    28      1       0.1136815       33.47558
2016    28      2       0.09554018      29.04892
2016    28      3       0.1398143       39.67316
2016    28      4       0.4435351       100.4123
2016    28      5       0.7163837       141.4431
2016    28      6       0.32063         78.31739
2016    28      7       0.1396459       39.81469
2016    29      0       0.1293742       37.2734
2016    29      1       0.1470554       41.35398
2016    29      2       0.1651217       45.50911
2016    29      3       0.2605079       66.22781
2016    29      4       0.564054        119.9427
2016    29      5       0.5656829       120.3347
2016    29      6       0.3112822       76.63245
2016    29      7       0.1799417       49.18288
2016    30      0       0.1460345       41.41282
2016    30      1       0.1404222       40.09983
2016    30      2       0.1306271       37.81375
2016    30      3       0.1261665       36.81818
2016    30      4       0.3645043       87.0539
2016    30      5       0.5294787       115.0244
2016    30      6       0.3097404       76.61117
2016    30      7       0.1441704       41.24927
2016    31      0       0.1238384       36.33712
2016    31      1       0.1329652       38.38245
2016    31      2       0.1462378       41.39911
2016    31      3       0.2767223       69.70355
2016    31      4       0.699255        139.1049
2016    31      5       0.8055327       152.4918
2016    31      6       0.5284167       114.8226
2016    31      7       0.2368253       61.47352
2017    1       0       0.3378142       81.2759
2017    1       1       0.276713        69.33507
2017    1       2       0.2838825       70.72316
2017    1       3       0.3561915       84.80078
2017    1       4       0.5939933       124.2579
2017    1       5       0.6177157       127.72
2017    1       6       0.4881104       108.1481
2017    1       7       0.4159644       95.98598
2017    2       0       0.3594751       85.59448
2017    2       1       0.4031398       93.5002
2017    2       2       0.3782116       88.9218
2017    2       3       0.4999257       110.0389
2017    2       4       0.8867043       161.4305
2017    2       5       0.9072749       163.6165
2017    2       6       0.6983959       139.0187
2017    2       7       0.4807885       106.6897
2017    3       0       0.4518968       101.6933
2017    3       1       0.368838        87.03998
2017    3       2       0.2434202       62.49247
2017    3       3       0.3836056       90.04851
2017    3       4       0.6512693       132.6042
2017    3       5       0.5296376       114.6431
2017    3       6       0.4178573       96.52333
2017    3       7       0.232209        60.5911
2017    4       0       0.1940059       52.22124
2017    4       1       0.2193779       57.65569
2017    4       2       0.2703449       68.39152
2017    4       3       0.4975131       110.3263
2017    4       4       0.691295        138.6017
2017    4       5       0.7595583       147.7107
2017    4       6       0.5880481       124.5214
2017    4       7       0.3294707       80.43337
2017    5       0       0.2000251       53.69333
2017    5       1       0.1445845       41.01172
2017    5       2       0.1429968       40.61847
2017    5       3       0.3340784       81.15123
2017    5       4       0.647177        132.3193
2017    5       5       0.9023941       164.0447
2017    5       6       0.6933437       139.2292
2017    5       7       0.3002917       74.6821
2017    6       0       0.2106051       55.89869
2017    6       1       0.2220754       58.23139
2017    6       2       0.2580485       65.65192
2017    6       3       0.5495649       118.0653
2017    6       4       0.8670135       159.6675
2017    6       5       1.076339        181.091
2017    6       6       1.007215        174.992
2017    6       7       0.5177517       113.1741
2017    7       0       0.5210007       113.347
2017    7       1       0.6935764       137.4028
2017    7       2       0.8870239       160.366
2017    7       3       1.123334        184.1307
2017    7       4       1.115427        183.9136
2017    7       5       1.11711         183.5942
2017    7       6       0.8835333       160.7661
2017    7       7       0.7314489       142.7112
2017    8       0       0.7421927       143.319
2017    8       1       0.7888656       148.4109
2017    8       2       0.6446636       129.822
2017    8       3       0.5790736       120.9235
2017    8       4       0.8276172       152.5486
2017    8       5       0.7410366       142.0513
2017    8       6       0.6491323       130.3442
2017    8       7       0.6124082       126.0459
2017    9       0       0.4964409       108.1862
2017    9       1       0.4990139       108.3452
2017    9       2       0.5161332       111.4145
2017    9       3       0.8281728       153.8085
2017    9       4       1.178899        187.9502
2017    9       5       1.125771        183.792
2017    9       6       1.030242        175.7678
2017    9       7       0.7793104       149.0867
2017    10      0       0.7210332       141.5469
2017    10      1       0.8356544       155.4621
2017    10      2       0.6551025       132.6632
2017    10      3       0.5840196       122.6245
2017    10      4       1.065666        179.0187
2017    10      5       1.102563        182.8538
2017    10      6       1.049125        178.1836
2017    10      7       0.841318        156.9018
2017    11      0       0.7802735       149.5572
2017    11      1       0.5662335       119.9228
2017    11      2       0.79322         150.6857
2017    11      3       0.6204065       128.2496
2017    11      4       0.6464045       132.0977
2017    11      5       0.6396988       131.0854
2017    11      6       0.4846121       107.6613
2017    11      7       0.4980765       109.9712
2017    12      0       0.6336128       130.2947
2017    12      1       0.7231801       142.1222
2017    12      2       0.568933        120.3231
2017    12      3       0.503164        110.3777
2017    12      4       0.8366458       156.3314
2017    12      5       0.7522656       145.8955
2017    12      6       0.6394378       131.0598
2017    12      7       0.3893891       91.14384
2017    13      0       0.3888638       90.95538
2017    13      1       0.4471629       101.1333
2017    13      2       0.4695769       104.9379
2017    13      3       0.5713522       121.0874
2017    13      4       0.7850678       149.9483
2017    13      5       0.7214585       142.001
2017    13      6       0.5116709       111.9346
2017    13      7       0.3529665       84.35649
2017    14      0       0.3569343       84.99224
2017    14      1       0.3938027       91.59002
2017    14      2       0.3676361       86.91788
2017    14      3       0.5420411       116.8013
2017    14      4       0.7321876       143.0994
2017    14      5       0.7552497       146.6141
2017    14      6       0.5226506       114.0129
2017    14      7       0.3754489       88.76603
2017    15      0       0.3119399       76.62224
2017    15      1       0.2950132       73.24023
2017    15      2       0.3086304       75.9594
2017    15      3       0.4420414       100.8613
2017    15      4       0.8369837       156.6673
2017    15      5       0.9411294       168.2615
2017    15      6       0.6646555       135.4082
2017    15      7       0.4482182       102.0595
2017    16      0       0.3934063       92.1169
2017    16      1       0.352718        84.5958
2017    16      2       0.3193079       78.28528
2017    16      3       0.4162919       96.427
2017    16      4       0.7003933       139.6864
2017    16      5       0.6548146       133.8148
2017    16      6       0.3954303       92.88959
2017    16      7       0.2885915       72.60438
2017    17      0       0.2973327       74.1427
2017    17      1       0.3397564       82.28701
2017    17      2       0.2949062       73.62234
2017    17      3       0.5318899       115.7799
2017    17      4       0.8747106       161.0045
2017    17      5       1.003434        174.7124
2017    17      6       0.6589112       134.6968
2017    17      7       0.3383446       82.30781
2017    18      0       0.27951         70.57393
2017    18      1       0.2767771       69.88113
2017    18      2       0.2542132       65.22937
2017    18      3       0.4371298       100.104
2017    18      4       0.8333846       156.2229
2017    18      5       0.7618126       147.8601
2017    18      6       0.4217679       97.38476
2017    18      7       0.2304124       60.28367
2017    19      0       0.2031158       54.16849
2017    19      1       0.1782284       48.56898
2017    19      2       0.1567732       43.60194
2017    19      3       0.2230737       58.45914
2017    19      4       0.4109786       95.16192
2017    19      5       0.4371735       99.62109
2017    19      6       0.3124614       76.63243
2017    19      7       0.2468313       63.41521
2017    20      0       0.2215539       58.15629
2017    20      1       0.2106995       55.7015
2017    20      2       0.2115753       55.72738
2017    20      3       0.2577879       65.46602
2017    20      4       0.5174997       112.9375
2017    20      5       0.5135125       112.3858
2017    20      6       0.3577431       85.38252
2017    20      7       0.266603        67.43929
2017    21      0       0.2574647       65.40987
2017    21      1       0.2331172       60.35976
2017    21      2       0.2171777       57.05047
2017    21      3       0.3414935       82.53895
2017    21      4       0.6732125       136.2656
2017    21      5       0.5879355       124.1257
2017    21      6       0.3679119       87.65108
2017    21      7       0.3221136       78.92461
2017    22      0       0.3728676       88.36973
2017    22      1       0.3460892       83.37233
2017    22      2       0.2315306       60.45004
2017    22      3       0.4656917       105.0192
2017    22      4       0.8976785       163.2598
2017    22      5       1.022123        176.5707
2017    22      6       0.859011        159.7197
2017    22      7       0.795109        152.161
2017    23      0       0.6090613       127.294
2017    23      1       0.6353431       130.8065
2017    23      2       0.6687085       135.2615
2017    23      3       0.8614277       159.024
2017    23      4       1.109303        183.5152
2017    23      5       1.211561        192.1739
2017    23      6       1.271943        197.1181
2017    23      7       1.043292        177.3323
2017    24      0       0.8957385       161.7834
2017    24      1       0.9776515       170.483
2017    24      2       0.9781134       170.7128
2017    24      3       0.9214251       164.9225
2017    24      4       0.9768053       170.7172
2017    24      5       0.8486349       157.3264
2017    24      6       0.5622133       119.8242
2017    24      7       0.4415566       100.6113
2017    25      0       0.462166        103.8867
2017    25      1       0.7236311       142.5206
2017    25      2       0.751421        145.4946
2017    25      3       0.6690315       134.22
2017    25      4       0.8021339       151.3662
2017    25      5       0.7252119       142.5387
2017    25      6       0.4396967       100.1963
2017    25      7       0.2848653       71.26381
2017    26      0       0.2586162       65.57015
2017    26      1       0.2826071       70.3369
2017    26      2       0.2854426       71.02755
2017    26      3       0.4995828       109.7803
2017    26      4       0.8234809       154.099
2017    26      5       0.7515382       145.7571
2017    26      6       0.4238741       97.27741
2017    26      7       0.2308297       60.04444
2017    27      0       0.1731724       47.273
2017    27      1       0.1405413       39.8339
2017    27      2       0.1204626       35.11136
2017    27      3       0.149468        41.9084
2017    27      4       0.646635        132.063
2017    27      5       0.7822717       149.615
2017    27      6       0.686045        137.5732
2017    27      7       0.3664046       86.92934
2017    28      0       0.3232256       78.6714
2017    28      1       0.3722273       87.76067
2017    28      2       0.4167939       95.79152
2017    28      3       0.4432939       100.3181
2017    28      4       0.8227659       154.2961
2017    28      5       0.9165096       165.1468
2017    28      6       0.8400663       157.0473
2017    28      7       0.6764554       136.7029
2017    29      0       0.5725017       121.563
2017    29      1       0.5242872       113.9233
2017    29      2       0.442843        100.5842
2017    29      3       0.4670994       104.457
2017    29      4       0.9995217       173.2055
2017    29      5       1.145627        186.4407
2017    29      6       1.03337         176.7912
2017    29      7       0.7199664       141.8533
2017    30      0       0.6140027       127.5564
2017    30      1       0.6298618       129.956
2017    30      2       0.5390486       116.4148
2017    30      3       0.7860711       150.3153
2017    30      4       1.155497        187.812
2017    30      5       1.199289        191.6371
2017    30      6       0.9868289       171.5519
2017    30      7       0.9590512       168.3208
2017    31      0       0.7302295       141.6041
2017    31      1       0.6437361       130.5429
2017    31      2       0.6567431       132.1528
2017    31      3       0.9006182       161.7191
2017    31      4       1.073369        179.0406
2017    31      5       1.099981        181.6175
2017    31      6       1.101561        181.7348
2017    31      7       0.8533893       156.3018
2018    1       0       0.2916399       72.9661
2018    1       1       0.2414304       62.62155
2018    1       2       0.2330314       60.81598
2018    1       3       0.3609291       86.57268
2018    1       4       0.6282728       130.2714
2018    1       5       0.4999055       110.661
2018    1       6       0.4026452       94.18209
2018    1       7       0.21449         57.14858
2018    2       0       0.1504114       42.55721
2018    2       1       0.132518        38.11646
2018    2       2       0.1219136       35.60654
2018    2       3       0.2579353       66.00273
2018    2       4       0.4075086       94.74786
2018    2       5       0.4137712       95.72542
2018    2       6       0.2399723       62.19575
2018    2       7       0.1169382       34.54763
2018    3       0       0.08094025      25.62599
2018    3       1       0.07604216      24.37152
2018    3       2       0.07915679      25.16293
2018    3       3       0.2303357       60.17657
2018    3       4       0.4981436       110.1494
2018    3       5       0.536473        116.3551
2018    3       6       0.4111201       95.43648
2018    3       7       0.205102        54.74117
2018    4       0       0.1617158       44.93655
2018    4       1       0.1644921       45.46073
2018    4       2       0.1699304       46.64508
2018    4       3       0.3822762       89.608
2018    4       4       0.5752884       121.1085
2018    4       5       0.3767505       88.63767
2018    4       6       0.2098753       55.54037
2018    4       7       0.1964208       52.45384
2018    5       0       0.2154711       56.48652
2018    5       1       0.2248987       58.5293
2018    5       2       0.2462314       63.07697
2018    5       3       0.291353        72.24639
2018    5       4       0.6150912       127.5018
2018    5       5       0.4627777       103.3275
2018    5       6       0.3611486       85.35942
2018    5       7       0.3591645       85.03109
2018    6       0       0.3744208       88.02773
2018    6       1       0.3708107       87.53301
2018    6       2       0.3295738       79.93324
2018    6       3       0.3318299       80.44043
2018    6       4       0.5627524       119.6807
2018    6       5       0.5072646       111.2364
2018    6       6       0.3211565       78.42742
2018    6       7       0.2383407       61.65827
2018    7       0       0.2849556       71.09781
2018    7       1       0.2847817       71.05887
2018    7       2       0.2877211       71.68131
2018    7       3       0.3001571       74.24575
2018    7       4       0.3104736       76.35433
2018    7       5       0.2337579       60.88069
2018    7       6       0.2123902       56.25686
2018    7       7       0.2273504       59.42833
2018    8       0       0.2117676       56.00832
2018    8       1       0.2115891       55.74674
2018    8       2       0.2842277       70.60409
2018    8       3       0.4199687       95.79329
2018    8       4       0.6193773       127.4895
2018    8       5       0.5846239       122.6277
2018    8       6       0.5411191       116.2127
2018    8       7       0.5009278       110.0482
2018    9       0       0.492232        108.711
2018    9       1       0.6181083       128.0156
2018    9       2       0.624775        129.034
2018    9       3       0.6384103       131.0699
2018    9       4       0.9344466       166.9003
2018    9       5       0.9688024       170.5344
2018    9       6       0.8027009       152.7725
2018    9       7       0.3873139       91.20844
2018    10      0       0.3036463       75.20282
2018    10      1       0.3139179       77.12808
2018    10      2       0.3295729       80.18569
2018    10      3       0.7294864       143.9031
2018    10      4       1.066062        180.3498
2018    10      5       0.8786295       161.4357
2018    10      6       0.9001917       164.3817
2018    10      7       0.5210798       113.9045
2018    11      0       0.4680056       104.9319
2018    11      1       0.5945551       124.6595
2018    11      2       0.6752569       136.377
2018    11      3       0.598598        125.3632
2018    11      4       0.6821874       136.7126
2018    11      5       0.5874999       123.4893
2018    11      6       0.524696        113.9832
2018    11      7       0.4043603       93.83274
2018    12      0       0.3879093       90.7985
2018    12      1       0.3741494       88.21639
2018    12      2       0.3634194       86.10518
2018    12      3       0.3551354       84.59341
2018    12      4       0.4212984       96.63831
2018    12      5       0.4435521       100.7519
2018    12      6       0.3720364       88.18235
2018    12      7       0.2865079       71.74097
2018    13      0       0.3023811       74.63171
2018    13      1       0.283866        70.96134
2018    13      2       0.258738        65.95194
2018    13      3       0.3076814       75.84335
2018    13      4       0.294464        73.1198
2018    13      5       0.2900068       72.40206
2018    13      6       0.2764129       69.78342
2018    13      7       0.2419649       62.83906
2018    14      0       0.2267486       59.54928
2018    14      1       0.2226403       58.59362
2018    14      2       0.2415462       62.47454
2018    14      3       0.2875894       72.09292
2018    14      4       0.7777773       149.9113
2018    14      5       0.7746938       149.7303
2018    14      6       0.5410402       117.4289
2018    14      7       0.3228409       79.42553
2018    15      0       0.2377366       62.24141
2018    15      1       0.2778044       70.28489
2018    15      2       0.2702279       68.67081
2018    15      3       0.4164435       96.70512
2018    15      4       0.6904284       138.6357
2018    15      5       0.6004313       125.824
2018    15      6       0.4437416       101.1944
2018    15      7       0.321555        78.96019
2018    16      0       0.2955751       73.90752
2018    16      1       0.3256848       79.66138
2018    16      2       0.3084259       76.1261
2018    16      3       0.5620791       120.1252
2018    16      4       0.9070959       164.14
2018    16      5       0.8259578       155.1285
2018    16      6       0.6674149       135.308
2018    16      7       0.4177921       96.58902
2018    17      0       0.3051796       75.63168
2018    17      1       0.2967812       74.01115
2018    17      2       0.4212675       97.24415
2018    17      3       0.6679089       134.7806
2018    17      4       1.066051        179.3734
2018    17      5       1.149335        186.5715
2018    17      6       0.9304007       166.2228
2018    17      7       0.752719        146.0853
2018    18      0       0.6385919       130.8392
2018    18      1       0.5984902       124.982
2018    18      2       0.5860266       122.9067
2018    18      3       1.074861        180.1491
2018    18      4       1.368884        203.7212
2018    18      5       1.2348          194.3479
2018    18      6       1.149573        187.5756
2018    18      7       0.6559859       133.3014
2018    19      0       0.7530501       146.0224
2018    19      1       1.011509        174.8071
2018    19      2       1.025923        176.152
2018    19      3       0.9694897       170.587
2018    19      4       0.9862027       171.515
2018    19      5       1.028005        176.2395
2018    19      6       0.9093118       164.7978
2018    19      7       0.6429974       131.5233
2018    20      0       0.6415415       130.4825
2018    20      1       0.6156696       126.8078
2018    20      2       0.5381841       115.2024
2018    20      3       0.6408356       130.6659
2018    20      4       0.9456043       167.7597
2018    20      5       0.8362048       155.6501
2018    20      6       0.8314817       155.6379
2018    20      7       0.7845658       149.9054
2018    21      0       0.6544081       132.1259
2018    21      1       0.5497797       117.026
2018    21      2       0.4843858       106.8497
2018    21      3       0.6247524       128.2014
2018    21      4       1.014463        174.2231
2018    21      5       1.018845        174.7077
2018    21      6       0.8266307       154.985
2018    21      7       0.5551082       118.596
2018    22      0       0.5290007       114.4033
2018    22      1       0.4893941       107.9026
2018    22      2       0.480949        106.6159
2018    22      3       0.6995187       138.491
2018    22      4       1.161143        188.1328
2018    22      5       1.172878        189.7447
2018    22      6       1.129139        186.1009
2018    22      7       0.9066805       163.6431
2018    23      0       0.5687084       119.9144
2018    23      1       0.5179553       112.3131
2018    23      2       0.6093929       125.9359
2018    23      3       0.9958837       171.3608
2018    23      4       1.184808        188.2774
2018    23      5       1.082862        179.81
2018    23      6       1.037576        176.0132
2018    23      7       0.8099169       152.252
2018    24      0       0.7021619       138.8936
2018    24      1       0.6648683       134.0805
2018    24      2       0.6535619       132.3928
2018    24      3       1.14279         186.4086
2018    24      4       1.343717        201.401
2018    24      5       1.259512        195.3654
2018    24      6       1.218518        192.5503
2018    24      7       0.8742569       159.8167
2018    25      0       0.718562        141.0155
2018    25      1       0.6625601       133.8021
2018    25      2       0.5538557       117.9846
2018    25      3       0.7436314       144.583
2018    25      4       1.045502        177.2579
2018    25      5       1.039578        176.8539
2018    25      6       1.002719        173.9256
2018    25      7       0.5722245       120.9531
2018    26      0       0.4412265       99.91268
2018    26      1       0.3344778       80.76737
2018    26      2       0.3263841       79.46114
2018    26      3       0.6432693       131.7887
2018    26      4       1.025875        175.6656
2018    26      5       0.8746117       159.2592
2018    26      6       0.632454        129.6686
2018    26      7       0.3818476       89.63188
2018    27      0       0.4243377       97.05357
2018    27      1       0.4824227       106.6516
2018    27      2       0.5733582       120.352
2018    27      3       0.9474533       166.5609
2018    27      4       1.110293        182.0751
2018    27      5       0.9996715       171.9875
2018    27      6       0.9902497       172.0032
2018    27      7       0.9866987       172.4548
2018    28      0       0.8165147       153.8252
2018    28      1       0.8503039       157.6549
2018    28      2       0.7820071       149.3601
2018    28      3       0.8026123       150.5894
2018    28      4       1.086783        180.0963
2018    28      5       1.044743        176.1314
2018    28      6       0.9331123       165.6797
2018    28      7       0.7534232       145.758
2018    29      0       0.7106051       139.81
2018    29      1       0.841681        155.0656
2018    29      2       0.8377673       153.9432
2018    29      3       0.7544574       144.1125
2018    29      4       1.069245        177.7922
2018    29      5       1.147895        185.0546
2018    29      6       1.075581        179.4749
2018    29      7       1.090835        182.2535
2018    30      0       1.005273        173.7764
2018    30      1       0.9195135       164.7706
2018    30      2       0.6931366       137.3661
2018    30      3       0.766796        147.3228
2018    30      4       1.050912        177.5407
2018    30      5       1.073754        179.9272
2018    30      6       1.083828        181.6871
2018    30      7       0.7267291       143.0797
2018    31      0       0.5919038       123.9033
2018    31      1       0.6255771       128.6668
2018    31      2       0.5284894       114.1387
2018    31      3       0.6573039       133.2591
2018    31      4       1.012513        174.0621
2018    31      5       1.124772        184.5899
2018    31      6       1.002566        173.3628
2018    31      7       0.6227176       128.2442
