####################################################################################################
# Month: 05May                                                                                     #
# Station: JELM                                                                                    #
# Frequency: 230 GHz                                                                               #
# Columns are: year    day     segment         tau     Tb (K)                                      #
####################################################################################################
2009    1       0       0.3705426       84.90713
2009    1       1       0.4081599       91.22757
2009    1       2       0.3738844       85.23035
2009    1       3       0.4155437       92.29708
2009    1       4       0.4648226       100.706
2009    1       5       0.4671826       101.3272
2009    1       6       0.6669213       130.1314
2009    1       7       0.5797698       119.0665
2009    2       0       0.6812917       132.3895
2009    2       1       0.5983136       121.3323
2009    2       2       0.4501574       98.91787
2009    2       3       0.4296478       95.66291
2009    2       4       0.4293548       95.75165
2009    2       5       0.5500183       114.2994
2009    2       6       0.6676918       131.075
2009    2       7       0.7234062       138.2357
2009    3       0       0.7324801       139.4469
2009    3       1       0.696655        134.5293
2009    3       2       0.5822496       119.0537
2009    3       3       0.469709        101.6767
2009    3       4       0.2828089       68.80495
2009    3       5       0.2861129       69.28407
2009    3       6       0.385044        87.38542
2009    3       7       0.4885146       105.0163
2009    4       0       0.519756        109.2273
2009    4       1       0.3521766       81.66857
2009    4       2       0.3470018       80.67801
2009    4       3       0.3363419       78.66367
2009    4       4       0.3412612       78.89664
2009    4       5       0.2678075       64.7825
2009    4       6       0.4158799       92.17628
2009    4       7       0.4257          94.19555
2009    5       0       0.3559861       82.23119
2009    5       1       0.3480716       80.85326
2009    5       2       0.4281605       94.83894
2009    5       3       0.4026301       90.61586
2009    5       4       0.4270038       94.93549
2009    5       5       0.4143673       92.5582
2009    5       6       0.6467327       127.9859
2009    5       7       0.5701352       117.5442
2009    6       0       0.4704942       102.7796
2009    6       1       0.3323692       78.75969
2009    6       2       0.2481495       62.22974
2009    6       3       0.2915867       70.95131
2009    6       4       0.2209598       56.55557
2009    6       5       0.2515823       62.74206
2009    6       6       0.3370895       79.78451
2009    6       7       0.3667599       85.89416
2009    7       0       0.3845596       89.19088
2009    7       1       0.359807        84.61301
2009    7       2       0.2614028       65.4226
2009    7       3       0.319506        76.65166
2009    7       4       0.3554523       83.285
2009    7       5       0.3513143       82.3412
2009    7       6       0.3731973       86.52399
2009    7       7       0.3963867       90.78831
2009    8       0       0.4143393       93.78624
2009    8       1       0.3840491       88.16543
2009    8       2       0.2460907       61.73316
2009    8       3       0.1887225       49.46495
2009    8       4       0.1388781       38.02904
2009    8       5       0.117988        33.19372
2009    8       6       0.1314844       36.28045
2009    8       7       0.1389893       38.08594
2009    9       0       0.1535182       41.35161
2009    9       1       0.1841989       47.80457
2009    9       2       0.256823        62.62842
2009    9       3       0.2362603       58.81164
2009    9       4       0.1564942       42.07986
2009    9       5       0.1165029       33.11976
2009    9       6       0.1394152       38.22808
2009    9       7       0.1766868       46.35403
2009    10      0       0.3247361       75.05925
2009    10      1       0.471929        100.1278
2009    10      2       0.4741823       101.3777
2009    10      3       0.4163649       92.4325
2009    10      4       0.330539        77.50501
2009    10      5       0.2837423       68.60743
2009    10      6       0.3313177       77.38568
2009    10      7       0.2798673       67.99714
2009    11      0       0.2372514       59.67737
2009    11      1       0.199212        51.71021
2009    11      2       0.2165273       55.21755
2009    11      3       0.2280528       57.55511
2009    11      4       0.2083032       53.42637
2009    11      5       0.223135        56.09349
2009    11      6       0.2811987       68.4308
2009    11      7       0.3317368       78.68641
2009    12      0       0.3338606       79.2423
2009    12      1       0.4335102       96.52877
2009    12      2       0.4857333       104.7681
2009    12      3       0.4335962       96.65498
2009    12      4       0.519218        110.0911
2009    12      5       0.2329639       59.55099
2009    12      6       0.3228052       77.45204
2009    12      7       0.4217804       94.93421
2009    13      0       0.2922983       70.98746
2009    13      1       0.3173182       75.57685
2009    13      2       0.3913221       89.00916
2009    13      3       0.3251768       76.27288
2009    13      4       0.2705889       65.496
2009    13      5       0.1355825       37.00774
2009    13      6       0.08905526      26.53637
2009    13      7       0.08528866      25.83082
2009    14      0       0.08484511      25.71307
2009    14      1       0.1093425       31.06354
2009    14      2       0.2492717       60.5159
2009    14      3       0.3711492       83.85466
2009    14      4       0.323797        75.86609
2009    14      5       0.3666056       83.81205
2009    14      6       0.3383731       79.36609
2009    14      7       0.3650873       84.6899
2009    15      0       0.403355        91.42782
2009    15      1       0.4506716       99.35218
2009    15      2       0.4027949       91.28366
2009    15      3       0.3255835       76.9926
2009    15      4       0.3155844       75.3682
2009    15      5       0.1863517       49.64308
2009    15      6       0.195535        51.55912
2009    15      7       0.2282747       58.41889
2009    16      0       0.2403848       60.87879
2009    16      1       0.2292776       58.24351
2009    16      2       0.2588093       63.96387
2009    16      3       0.3104948       73.87626
2009    16      4       0.2545137       63.40031
2009    16      5       0.1714679       46.30648
2009    16      6       0.2193789       56.52297
2009    16      7       0.2480552       62.38838
2009    17      0       0.2196005       56.51543
2009    17      1       0.1843682       48.77958
2009    17      2       0.2388843       60.22498
2009    17      3       0.3232167       76.94386
2009    17      4       0.3124283       75.33898
2009    17      5       0.3376167       80.26483
2009    17      6       0.3724522       86.88214
2009    17      7       0.3983435       91.96204
2009    18      0       0.3780907       88.60336
2009    18      1       0.319063        77.52585
2009    18      2       0.2845253       70.72675
2009    18      3       0.2948623       72.97663
2009    18      4       0.2875583       71.52384
2009    18      5       0.2575641       65.38309
2009    18      6       0.2974327       73.59433
2009    18      7       0.3809444       89.42846
2009    19      0       0.4552013       102.1794
2009    19      1       0.4078859       94.20719
2009    19      2       0.3227185       78.54047
2009    19      3       0.2411894       62.16031
2009    19      4       0.240868        61.70103
2009    19      5       0.2513745       63.68385
2009    19      6       0.3258961       78.71228
2009    19      7       0.5147717       111.2002
2009    20      0       0.6154752       126.1006
2009    20      1       0.4277026       97.06845
2009    20      2       0.4012423       92.59903
2009    20      3       0.3765579       88.00131
2009    20      4       0.4352772       98.18663
2009    20      5       0.4086007       93.53825
2009    20      6       0.5349469       113.7743
2009    20      7       0.5682222       119.0559
2009    21      0       0.6532352       131.7407
2009    21      1       0.528686        113.3853
2009    21      2       0.3749702       87.48316
2009    21      3       0.3656506       85.73129
2009    21      4       0.3807565       88.3526
2009    21      5       0.399251        91.27715
2009    21      6       0.565833        117.6868
2009    21      7       0.6916889       134.8472
2009    22      0       0.5368077       113.6432
2009    22      1       0.3527589       83.30656
2009    22      2       0.3395961       80.68366
2009    22      3       0.2902607       70.98752
2009    22      4       0.2901676       70.69369
2009    22      5       0.3195971       75.94021
2009    22      6       0.4958557       106.6088
2009    22      7       0.7054542       136.6785
2009    23      0       0.7765387       145.82
2009    23      1       0.5315729       112.1278
2009    23      2       0.4751251       103.5304
2009    23      3       0.5653098       118.2453
2009    23      4       0.6601754       132.1266
2009    23      5       0.8533328       156.1468
2009    23      6       1.084603        178.8665
2009    23      7       1.076595        178.5455
2009    24      0       1.032773        175.0151
2009    24      1       0.8801132       159.2547
2009    24      2       0.8844742       159.8629
2009    24      3       0.7062193       138.2967
2009    24      4       0.6122616       125.906
2009    24      5       0.5990246       123.7794
2009    24      6       0.8479307       156.1668
2009    24      7       0.959893        168.4412
2009    25      0       0.960653        167.6239
2009    25      1       0.8371083       154.1385
2009    25      2       0.6140732       126.0967
2009    25      3       0.5316886       114.0655
2009    25      4       0.5042793       109.4353
2009    25      5       0.6083206       124.6949
2009    25      6       0.7191547       138.2584
2009    25      7       0.7948625       147.1155
2009    26      0       0.8692883       155.9872
2009    26      1       0.8285359       152.1544
2009    26      2       0.7091921       137.597
2009    26      3       0.5452043       114.5315
2009    26      4       0.5013595       107.4836
2009    26      5       0.4634344       101.0729
2009    26      6       0.4335002       95.99644
2009    26      7       0.3981226       90.27905
2009    27      0       0.3634165       84.42897
2009    27      1       0.3162795       75.82105
2009    27      2       0.2508854       63.05971
2009    27      3       0.1855796       49.29634
2009    27      4       0.1793783       48.06079
2009    27      5       0.2217545       57.16573
2009    27      6       0.3679639       85.4038
2009    27      7       0.5611221       116.0956
2009    28      0       0.5800255       118.7178
2009    28      1       0.4624573       101.531
2009    28      2       0.3990441       91.18867
2009    28      3       0.4049834       92.22846
2009    28      4       0.3734197       86.81891
2009    28      5       0.3696512       86.23343
2009    28      6       0.50057         107.7462
2009    28      7       0.5563427       116.1422
2009    29      0       0.472596        103.1316
2009    29      1       0.3470385       82.07681
2009    29      2       0.3511006       83.18741
2009    29      3       0.3616909       85.34215
2009    29      4       0.3599892       84.96959
2009    29      5       0.3832864       89.20106
2009    29      6       0.544628        115.1614
2009    29      7       0.574569        119.8515
2009    30      0       0.5263286       112.7767
2009    30      1       0.4648175       103.0535
2009    30      2       0.5222678       112.1234
2009    30      3       0.5661918       118.7011
2009    30      4       0.5191376       111.6664
2009    30      5       0.5184599       111.5278
2009    30      6       0.6902638       135.283
2009    30      7       0.7923569       148.0982
2009    31      0       0.685902        134.9554
2009    31      1       0.4757455       105.2044
2009    31      2       0.4424677       99.76588
2009    31      3       0.4304878       97.55152
2009    31      4       0.4383782       98.80171
2009    31      5       0.4815877       105.9668
2009    31      6       0.6717679       133.6465
2009    31      7       0.811281        151.2682
2010    1       0       0.3511522       79.00754
2010    1       1       0.2681753       63.99779
2010    1       2       0.2658343       63.51256
2010    1       3       0.2727753       65.2097
2010    1       4       0.1637109       43.11855
2010    1       5       0.1531039       40.70382
2010    1       6       0.2979275       69.88511
2010    1       7       0.3005452       70.60546
2010    2       0       0.2937811       69.33864
2010    2       1       0.2325228       57.4191
2010    2       2       0.1894719       48.48792
2010    2       3       0.1634691       42.98908
2010    2       4       0.1744365       45.24244
2010    2       5       0.2841542       66.92911
2010    2       6       0.3327184       76.18145
2010    2       7       0.3065232       71.58809
2010    3       0       0.2619424       63.36167
2010    3       1       0.2092871       52.75422
2010    3       2       0.2089943       52.5896
2010    3       3       0.16818         44.15317
2010    3       4       0.1528258       40.64872
2010    3       5       0.2154384       53.96326
2010    3       6       0.2665003       64.8396
2010    3       7       0.3212973       75.408
2010    4       0       0.2936571       70.47984
2010    4       1       0.223203        56.64724
2010    4       2       0.2272408       57.91415
2010    4       3       0.2305451       58.91107
2010    4       4       0.4062701       91.86078
2010    4       5       0.2949439       70.99485
2010    4       6       0.2331527       58.4705
2010    4       7       0.1871217       48.76347
2010    5       0       0.1564981       41.96378
2010    5       1       0.1211795       33.87615
2010    5       2       0.114346        32.29797
2010    5       3       0.1339853       36.88032
2010    5       4       0.1397881       38.20828
2010    5       5       0.1722          45.34338
2010    5       6       0.280501        67.81013
2010    5       7       0.4137834       92.68837
2010    6       0       0.5854056       119.9945
2010    6       1       0.595336        121.1785
2010    6       2       0.5606089       116.4863
2010    6       3       0.3915925       89.85317
2010    6       4       0.4473711       98.47899
2010    6       5       0.3504472       80.97753
2010    6       6       0.3601961       82.18566
2010    6       7       0.3486429       79.75019
2010    7       0       0.2540525       61.90555
2010    7       1       0.2231564       55.35788
2010    7       2       0.194995        49.43302
2010    7       3       0.1448965       38.77584
2010    7       4       0.1086584       30.74458
2010    7       5       0.1228435       33.96241
2010    7       6       0.1964446       49.69381
2010    7       7       0.2117535       53.14695
2010    8       0       0.1848989       47.71785
2010    8       1       0.1711074       44.73705
2010    8       2       0.1725323       45.10494
2010    8       3       0.1593659       42.39536
2010    8       4       0.1578812       42.03404
2010    8       5       0.1970239       50.24661
2010    8       6       0.3416332       78.31485
2010    8       7       0.4191433       92.77445
2010    9       0       0.4989162       106.369
2010    9       1       0.302096        72.17842
2010    9       2       0.3245783       76.106
2010    9       3       0.3054381       72.98787
2010    9       4       0.2560735       63.38946
2010    9       5       0.2338101       58.8852
2010    9       6       0.2656288       65.61799
2010    9       7       0.3108776       74.06803
2010    10      0       0.4256546       94.11018
2010    10      1       0.4661173       101.1212
2010    10      2       0.4771714       102.6371
2010    10      3       0.2527667       62.82956
2010    10      4       0.2082834       53.46598
2010    10      5       0.2231239       56.64485
2010    10      6       0.3974476       89.23675
2010    10      7       0.4447794       97.41705
2010    11      0       0.5046669       106.2663
2010    11      1       0.4227831       93.83917
2010    11      2       0.3212459       75.78604
2010    11      3       0.3106747       73.47844
2010    11      4       0.3959804       88.4807
2010    11      5       0.3933332       88.25554
2010    11      6       0.4516822       98.52101
2010    11      7       0.5319179       110.81
2010    12      0       0.533885        111.012
2010    12      1       0.5144575       107.2649
2010    12      2       0.4959997       103.6357
2010    12      3       0.3566925       80.74574
2010    12      4       0.2578039       62.51165
2010    12      5       0.2276844       56.52637
2010    12      6       0.2783249       66.50026
2010    12      7       0.369127        82.91572
2010    13      0       0.4127592       90.53062
2010    13      1       0.3501891       79.83594
2010    13      2       0.2819782       67.2034
2010    13      3       0.2518069       61.16349
2010    13      4       0.2062542       51.83429
2010    13      5       0.195983        49.779
2010    13      6       0.25046         61.18346
2010    13      7       0.2646864       64.21065
2010    14      0       0.3189669       74.41879
2010    14      1       0.3891337       86.81453
2010    14      2       0.2971891       70.27692
2010    14      3       0.264531        64.16879
2010    14      4       0.2490869       61.13788
2010    14      5       0.2599696       63.29902
2010    14      6       0.4066684       90.19934
2010    14      7       0.508069        106.792
2010    15      0       0.5247917       110.0644
2010    15      1       0.430788        94.71275
2010    15      2       0.4952427       105.1039
2010    15      3       0.5371827       111.5756
2010    15      4       0.4522317       97.98527
2010    15      5       0.4824321       102.9756
2010    15      6       0.5700362       116.0113
2010    15      7       0.5303527       110.1662
2010    16      0       0.4358433       95.78921
2010    16      1       0.2618499       63.97353
2010    16      2       0.2278646       57.07957
2010    16      3       0.2037678       52.08861
2010    16      4       0.193096        49.91235
2010    16      5       0.1774874       46.74908
2010    16      6       0.2215053       56.18243
2010    16      7       0.2785554       67.5621
2010    17      0       0.2938872       70.57567
2010    17      1       0.2227108       56.78172
2010    17      2       0.1969178       51.4171
2010    17      3       0.2113866       54.17707
2010    17      4       0.2028572       52.39317
2010    17      5       0.2092211       53.73879
2010    17      6       0.2616016       64.61834
2010    17      7       0.3272616       77.69864
2010    18      0       0.3839174       88.23917
2010    18      1       0.3922798       89.95424
2010    18      2       0.4003979       91.67048
2010    18      3       0.3683571       85.875
2010    18      4       0.4796269       103.8843
2010    18      5       0.4707526       102.1552
2010    18      6       0.4924262       105.8115
2010    18      7       0.6111044       123.7493
2010    19      0       0.5936004       121.0159
2010    19      1       0.4482222       97.48215
2010    19      2       0.3041195       72.41311
2010    19      3       0.2779683       67.63894
2010    19      4       0.2970968       71.5314
2010    19      5       0.3212977       76.18272
2010    19      6       0.4941143       105.5768
2010    19      7       0.5906359       120.1397
2010    20      0       0.6239952       125.3125
2010    20      1       0.507943        108.6497
2010    20      2       0.4446528       98.56322
2010    20      3       0.3798423       87.57741
2010    20      4       0.353521        82.8316
2010    20      5       0.3727533       86.22815
2010    20      6       0.2716683       67.54299
2010    20      7       0.300182        73.28689
2010    21      0       0.3314493       79.03437
2010    21      1       0.3860428       88.48962
2010    21      2       0.4227636       95.0744
2010    21      3       0.475429        103.8229
2010    21      4       0.3383345       80.33578
2010    21      5       0.2814822       69.29923
2010    21      6       0.3581459       84.20408
2010    21      7       0.4322928       97.51809
2010    22      0       0.3903386       90.70324
2010    22      1       0.312748        76.01772
2010    22      2       0.2867437       71.04719
2010    22      3       0.278248        69.48688
2010    22      4       0.2400798       61.29084
2010    22      5       0.2515006       63.47999
2010    22      6       0.3144717       76.04123
2010    22      7       0.4480179       99.76972
2010    23      0       0.5186791       110.8763
2010    23      1       0.4579717       101.0148
2010    23      2       0.2485643       62.4808
2010    23      3       0.1847263       48.83028
2010    23      4       0.2000749       52.06586
2010    23      5       0.2378511       60.05325
2010    23      6       0.3234264       77.37936
2010    23      7       0.4867006       105.7167
2010    24      0       0.5694512       118.387
2010    24      1       0.5280243       112.0791
2010    24      2       0.3884368       89.15008
2010    24      3       0.3131543       75.36853
2010    24      4       0.276652        68.27126
2010    24      5       0.2956295       71.83044
2010    24      6       0.4033356       90.71003
2010    24      7       0.2811312       66.4323
2010    25      0       0.3236963       74.93771
2010    25      1       0.1877255       48.75761
2010    25      2       0.1113793       31.94564
2010    25      3       0.1440805       39.07997
2010    25      4       0.2122196       53.54743
2010    25      5       0.263396        63.74181
2010    25      6       0.2897031       69.45152
2010    25      7       0.3415988       79.81081
2010    26      0       0.3794897       87.13489
2010    26      1       0.361065        84.23081
2010    26      2       0.2832531       69.85356
2010    26      3       0.2026497       53.32202
2010    26      4       0.1806961       48.40083
2010    26      5       0.1926494       50.79192
2010    26      6       0.2811178       68.83481
2010    26      7       0.3782917       87.14192
2010    27      0       0.4412683       98.1141
2010    27      1       0.3666788       85.65895
2010    27      2       0.3209151       77.37342
2010    27      3       0.2726462       67.90642
2010    27      4       0.2117113       55.34373
2010    27      5       0.2181277       56.66817
2010    27      6       0.2852373       70.78027
2010    27      7       0.3361408       81.0014
2010    28      0       0.3525991       84.25608
2010    28      1       0.2836184       70.999
2010    28      2       0.1803605       49.0659
2010    28      3       0.1685403       46.48403
2010    28      4       0.14156         40.4053
2010    28      5       0.1471544       41.67103
2010    28      6       0.2772896       70.56465
2010    28      7       0.4931117       109.7514
2010    29      0       0.5327699       116.1073
2010    29      1       0.4852505       108.3099
2010    29      2       0.2965752       73.90468
2010    29      3       0.2641982       67.50634
2010    29      4       0.2229529       58.14469
2010    29      5       0.2561643       64.54151
2010    29      6       0.3492604       82.71345
2010    29      7       0.5682487       118.4624
2010    30      0       0.493951        106.9847
2010    30      1       0.2398739       60.56599
2010    30      2       0.1358786       37.98764
2010    30      3       0.1296915       36.60586
2010    30      4       0.1251176       35.596
2010    30      5       0.1085208       31.70023
2010    30      6       0.1509336       41.49441
2010    30      7       0.1934059       50.97826
2010    31      0       0.201873        52.86497
2010    31      1       0.1648072       44.65181
2010    31      2       0.1743858       46.27279
2010    31      3       0.1885776       49.21159
2010    31      4       0.193302        50.47663
2010    31      5       0.1859446       48.83937
2010    31      6       0.268563        66.00854
2010    31      7       0.3263619       77.37515
2011    1       0       0.1819654       46.12681
2011    1       1       0.119517        32.98104
2011    1       2       0.08532574      25.20277
2011    1       3       0.08608385      25.30267
2011    1       4       0.08165573      24.21906
2011    1       5       0.1217806       33.23174
2011    1       6       0.2042203       50.78326
2011    1       7       0.2080981       51.65919
2011    2       0       0.2705973       63.97217
2011    2       1       0.1949578       49.04422
2011    2       2       0.1484453       39.2622
2011    2       3       0.1261277       34.32511
2011    2       4       0.1173267       32.36567
2011    2       5       0.1342688       36.12082
2011    2       6       0.2071722       51.30879
2011    2       7       0.230494        56.36128
2011    3       0       0.2462842       59.7004
2011    3       1       0.1228933       34.34705
2011    3       2       0.1273483       35.39969
2011    3       3       0.1224619       34.4408
2011    3       4       0.08415277      25.59064
2011    3       5       0.1101144       31.48722
2011    3       6       0.2395403       58.80635
2011    3       7       0.2912751       68.99673
2011    4       0       0.284353        67.89798
2011    4       1       0.3571847       81.2828
2011    4       2       0.352484        80.05748
2011    4       3       0.2850367       68.19539
2011    4       4       0.149521        40.42602
2011    4       5       0.1671361       44.08267
2011    4       6       0.2742813       65.58909
2011    4       7       0.2468031       60.27652
2011    5       0       0.2355929       58.13159
2011    5       1       0.198663        50.71652
2011    5       2       0.1254587       34.98748
2011    5       3       0.08393647      25.42334
2011    5       4       0.05975645      19.4696
2011    5       5       0.07038158      21.85815
2011    5       6       0.1149023       32.56322
2011    5       7       0.1504056       40.80465
2011    6       0       0.1505831       41.22074
2011    6       1       0.1540607       42.09374
2011    6       2       0.1918467       50.12578
2011    6       3       0.220299        55.89718
2011    6       4       0.2519109       62.10144
2011    6       5       0.2623688       64.05522
2011    6       6       0.3489517       80.75023
2011    6       7       0.5465325       113.4077
2011    7       0       0.4907217       105.542
2011    7       1       0.4250199       95.0413
2011    7       2       0.4825089       104.0949
2011    7       3       0.4395151       97.67304
2011    7       4       0.4535275       100.3166
2011    7       5       0.3695226       85.63862
2011    7       6       0.3240612       77.37481
2011    7       7       0.3524315       82.75118
2011    8       0       0.3386097       80.28753
2011    8       1       0.2591923       65.01157
2011    8       2       0.2028005       53.19938
2011    8       3       0.2180151       56.07531
2011    8       4       0.1788699       47.97677
2011    8       5       0.1475257       40.87978
2011    8       6       0.2099709       54.66674
2011    8       7       0.2891851       70.81315
2011    9       0       0.2678563       66.99522
2011    9       1       0.2122257       55.29755
2011    9       2       0.2272312       58.24092
2011    9       3       0.215092        55.55824
2011    9       4       0.2483282       62.13886
2011    9       5       0.2641711       65.79583
2011    9       6       0.3702716       86.03265
2011    9       7       0.5341515       112.7771
2011    10      0       0.6753596       132.7573
2011    10      1       0.3880029       87.69384
2011    10      2       0.2190473       55.71885
2011    10      3       0.2168389       55.24423
2011    10      4       0.1647061       44.34553
2011    10      5       0.1522353       41.60165
2011    10      6       0.3137635       74.01749
2011    10      7       0.3186058       74.92638
2011    11      0       0.3890868       87.59663
2011    11      1       0.3849811       87.15839
2011    11      2       0.4891269       104.2589
2011    11      3       0.5067941       107.1252
2011    11      4       0.4430857       97.25615
2011    11      5       0.4337124       96.15518
2011    11      6       0.443241        97.70661
2011    11      7       0.5146866       108.3636
2011    12      0       0.3538003       81.98877
2011    12      1       0.3693456       84.07106
2011    12      2       0.4259582       93.55394
2011    12      3       0.4168233       93.02998
2011    12      4       0.3622443       83.18307
2011    12      5       0.427834        93.99862
2011    12      6       0.4816148       102.7629
2011    12      7       0.4647962       100.851
2011    13      0       0.4056143       91.43283
2011    13      1       0.2819022       68.86978
2011    13      2       0.2452228       61.67704
2011    13      3       0.2251825       57.63249
2011    13      4       0.2001034       52.39043
2011    13      5       0.1579269       43.05643
2011    13      6       0.1905813       50.26263
2011    13      7       0.2341845       59.68395
2011    14      0       0.259187        64.86202
2011    14      1       0.2511468       63.17039
2011    14      2       0.2417393       61.30266
2011    14      3       0.256231        64.18968
2011    14      4       0.278661        68.58559
2011    14      5       0.3022535       73.11515
2011    14      6       0.3604117       83.51878
2011    14      7       0.4361092       96.05557
2011    15      0       0.4003248       90.20958
2011    15      1       0.326753        77.08178
2011    15      2       0.4009658       90.43654
2011    15      3       0.3904636       88.97482
2011    15      4       0.5102108       107.9286
2011    15      5       0.4597493       100.443
2011    15      6       0.4857651       104.9632
2011    15      7       0.5679823       117.71
2011    16      0       0.5641377       117.8613
2011    16      1       0.396457        91.61384
2011    16      2       0.2412922       61.66658
2011    16      3       0.2204905       57.27067
2011    16      4       0.1501049       41.86384
2011    16      5       0.106052        31.33283
2011    16      6       0.1958968       51.68836
2011    16      7       0.370861        85.39258
2011    17      0       0.4817521       103.6511
2011    17      1       0.4526246       99.1486
2011    17      2       0.3843414       88.01324
2011    17      3       0.298012        71.92166
2011    17      4       0.2687198       65.84508
2011    17      5       0.3611572       82.1763
2011    17      6       0.5372589       111.2825
2011    17      7       0.5054768       106.6935
2011    18      0       0.4822085       102.5767
2011    18      1       0.3576059       81.83615
2011    18      2       0.3201533       75.19566
2011    18      3       0.383975        86.7029
2011    18      4       0.4393247       95.63627
2011    18      5       0.3405055       78.79158
2011    18      6       0.4757312       101.8199
2011    18      7       0.5365093       111.5808
2011    19      0       0.5915067       120.2214
2011    19      1       0.5125741       107.6958
2011    19      2       0.51055         108.0703
2011    19      3       0.4162039       92.8525
2011    19      4       0.4529397       98.32015
2011    19      5       0.4177124       91.835
2011    19      6       0.3506861       80.24507
2011    19      7       0.3956606       88.11411
2011    20      0       0.4477966       96.61163
2011    20      1       0.3636148       82.68019
2011    20      2       0.3189904       74.61627
2011    20      3       0.2643227       64.38233
2011    20      4       0.2481273       61.24569
2011    20      5       0.2788381       67.32875
2011    20      6       0.4050705       90.04208
2011    20      7       0.4513565       97.56824
2011    21      0       0.4130639       91.36995
2011    21      1       0.3048438       72.33059
2011    21      2       0.4243799       93.29287
2011    21      3       0.4146838       91.95417
2011    21      4       0.3854279       86.57657
2011    21      5       0.4118731       91.42013
2011    21      6       0.4953829       104.8719
2011    21      7       0.5866211       118.4006
2011    22      0       0.5484189       113.5906
2011    22      1       0.3804041       86.99845
2011    22      2       0.3491708       81.48782
2011    22      3       0.3104285       74.37524
2011    22      4       0.2445301       61.47228
2011    22      5       0.2456761       61.85076
2011    22      6       0.4243822       95.48702
2011    22      7       0.5722843       118.6593
2011    23      0       0.5861333       120.3888
2011    23      1       0.4423066       98.12563
2011    23      2       0.3986424       90.55026
2011    23      3       0.439156        97.03573
2011    23      4       0.4689274       102.052
2011    23      5       0.5254072       111.0025
2011    23      6       0.5172622       109.7195
2011    23      7       0.5777285       118.3067
2011    24      0       0.4470877       98.63629
2011    24      1       0.5816067       118.6947
2011    24      2       0.2886008       69.93167
2011    24      3       0.2966111       71.56634
2011    24      4       0.2716852       66.65834
2011    24      5       0.2775902       67.74513
2011    24      6       0.4022249       90.27249
2011    24      7       0.447925        98.25712
2011    25      0       0.5364655       111.9803
2011    25      1       0.4667198       101.3171
2011    25      2       0.347285        80.98505
2011    25      3       0.3616818       82.96144
2011    25      4       0.2647972       65.08568
2011    25      5       0.296586        71.07482
2011    25      6       0.4167713       93.15317
2011    25      7       0.4843073       104.5171
2011    26      0       0.3374127       79.82835
2011    26      1       0.1840555       48.98392
2011    26      2       0.2823275       68.59416
2011    26      3       0.3416368       80.55353
2011    26      4       0.2969689       71.97017
2011    26      5       0.2888401       70.14797
2011    26      6       0.3507671       81.75736
2011    26      7       0.5132915       108.6372
2011    27      0       0.5858269       119.5509
2011    27      1       0.5605477       116.1352
2011    27      2       0.387577        87.60755
2011    27      3       0.2998999       71.19023
2011    27      4       0.3232143       75.43734
2011    27      5       0.2842801       68.21388
2011    27      6       0.3653147       83.57069
2011    27      7       0.4300743       95.01437
2011    28      0       0.4410443       97.27283
2011    28      1       0.4865958       104.8589
2011    28      2       0.4564194       99.97653
2011    28      3       0.493353        105.6579
2011    28      4       0.5618204       115.5944
2011    28      5       0.5148139       108.901
2011    28      6       0.6121209       124.0013
2011    28      7       0.6447554       129.1333
2011    29      0       0.7629996       144.8765
2011    29      1       0.6841865       135.1792
2011    29      2       0.5152277       111.5132
2011    29      3       0.3353533       80.44986
2011    29      4       0.2903463       71.99406
2011    29      5       0.279034        69.8157
2011    29      6       0.3774097       88.59639
2011    29      7       0.4984271       109.016
2011    30      0       0.5813685       121.5766
2011    30      1       0.5365627       114.5934
2011    30      2       0.418842        95.53446
2011    30      3       0.2972928       72.93045
2011    30      4       0.2105665       54.76554
2011    30      5       0.1783536       47.37253
2011    30      6       0.2897104       69.22855
2011    30      7       0.3511518       80.03534
2011    31      0       0.2833313       67.92474
2011    31      1       0.2084727       53.29525
2011    31      2       0.1879936       49.13722
2011    31      3       0.1264186       35.65181
2011    31      4       0.1041051       30.21005
2011    31      5       0.1135625       32.52322
2011    31      6       0.1629946       44.14253
2011    31      7       0.222576        57.31793
2012    1       0       0.2877773       69.33995
2012    1       1       0.2885741       69.60656
2012    1       2       0.3223789       76.36174
2012    1       3       0.325653        77.34098
2012    1       4       0.3536362       82.27778
2012    1       5       0.4347113       96.20868
2012    1       6       0.5564245       115.4413
2012    1       7       0.6082065       122.18
2012    2       0       0.5150181       108.8411
2012    2       1       0.3240898       77.30593
2012    2       2       0.427615        95.48603
2012    2       3       0.5153695       109.5634
2012    2       4       0.4474753       99.02981
2012    2       5       0.3633408       84.3086
2012    2       6       0.4903638       104.8424
2012    2       7       0.5971183       120.6957
2012    3       0       0.4411922       97.12587
2012    3       1       0.3065766       73.9423
2012    3       2       0.2889987       70.97641
2012    3       3       0.2756597       68.28765
2012    3       4       0.1889986       50.33593
2012    3       5       0.2678158       66.60918
2012    3       6       0.4252437       95.11125
2012    3       7       0.4290838       95.9533
2012    4       0       0.4142458       93.30068
2012    4       1       0.3790823       86.95081
2012    4       2       0.3712047       85.75969
2012    4       3       0.3645094       85.33188
2012    4       4       0.3074318       74.97654
2012    4       5       0.2547063       64.53667
2012    4       6       0.2444312       62.41163
2012    4       7       0.2453751       62.60776
2012    5       0       0.231304        59.84518
2012    5       1       0.2021593       53.64304
2012    5       2       0.1843802       49.57701
2012    5       3       0.1785037       48.01191
2012    5       4       0.1860865       49.80756
2012    5       5       0.1598523       43.79895
2012    5       6       0.2293628       58.73846
2012    5       7       0.3063694       73.89372
2012    6       0       0.3533882       82.5068
2012    6       1       0.2996166       72.52141
2012    6       2       0.2350552       59.28337
2012    6       3       0.1982818       51.50262
2012    6       4       0.1868087       48.93926
2012    6       5       0.1900311       49.60752
2012    6       6       0.3186359       74.96734
2012    6       7       0.478044        102.4713
2012    7       0       0.5091495       107.6249
2012    7       1       0.4066854       91.15287
2012    7       2       0.4205936       93.34711
2012    7       3       0.46335         100.1737
2012    7       4       0.4680268       100.8311
2012    7       5       0.3997317       89.61104
2012    7       6       0.3462003       80.36009
2012    7       7       0.4123432       91.79643
2012    8       0       0.3258632       77.07647
2012    8       1       0.2555845       63.61879
2012    8       2       0.1978173       51.56102
2012    8       3       0.1581607       42.74245
2012    8       4       0.1446186       39.62154
2012    8       5       0.1623971       43.57024
2012    8       6       0.1865871       48.98854
2012    8       7       0.2029585       52.67364
2012    9       0       0.2071623       53.7774
2012    9       1       0.1873825       49.70575
2012    9       2       0.1672967       45.36563
2012    9       3       0.1377753       38.72778
2012    9       4       0.1524654       42.12182
2012    9       5       0.1850191       49.30721
2012    9       6       0.2174265       56.04303
2012    9       7       0.252972        63.42713
2012    10      0       0.2615084       65.33134
2012    10      1       0.2397022       60.82496
2012    10      2       0.2340821       59.59936
2012    10      3       0.2335717       59.46197
2012    10      4       0.2241366       57.31917
2012    10      5       0.2285341       58.24811
2012    10      6       0.2458931       62.17576
2012    10      7       0.2858923       70.22358
2012    11      0       0.3441127       80.78833
2012    11      1       0.4276592       95.17994
2012    11      2       0.4014413       91.50019
2012    11      3       0.4938596       106.1702
2012    11      4       0.4108087       92.83119
2012    11      5       0.5394191       112.2186
2012    11      6       0.5167749       108.6168
2012    11      7       0.5360746       112.3252
2012    12      0       0.6271246       125.3484
2012    12      1       0.3297634       78.16837
2012    12      2       0.2153814       55.73734
2012    12      3       0.1662417       44.89926
2012    12      4       0.12998         36.53202
2012    12      5       0.1533817       41.74539
2012    12      6       0.2171524       55.474
2012    12      7       0.3604307       82.68105
2012    13      0       0.5329994       111.3063
2012    13      1       0.3417367       80.1831
2012    13      2       0.2865181       69.62285
2012    13      3       0.2300877       58.31763
2012    13      4       0.2250024       57.42375
2012    13      5       0.2486533       62.22551
2012    13      6       0.2972568       71.318
2012    13      7       0.2767767       67.58101
2012    14      0       0.2227201       56.94859
2012    14      1       0.1622847       44.14381
2012    14      2       0.1088447       31.91488
2012    14      3       0.06366586      20.85536
2012    14      4       0.05989802      19.7479
2012    14      5       0.08073566      25.06377
2012    14      6       0.1328117       37.63357
2012    14      7       0.1621228       44.4448
2012    15      0       0.1795088       48.21831
2012    15      1       0.17022         46.13437
2012    15      2       0.1596835       43.90632
2012    15      3       0.1465558       40.9986
2012    15      4       0.151654        42.05227
2012    15      5       0.1656709       45.1601
2012    15      6       0.1848078       49.50448
2012    15      7       0.2277992       58.55695
2012    16      0       0.3006015       72.64411
2012    16      1       0.2883009       70.51273
2012    16      2       0.2759915       68.25581
2012    16      3       0.2391451       60.55949
2012    16      4       0.2344437       59.55342
2012    16      5       0.3049693       73.30687
2012    16      6       0.4721325       102.4912
2012    16      7       0.4933412       106.3724
2012    17      0       0.4474703       99.66247
2012    17      1       0.4540727       100.2674
2012    17      2       0.39591         90.37957
2012    17      3       0.4055068       92.41737
2012    17      4       0.4245718       95.44527
2012    17      5       0.4077493       92.78146
2012    17      6       0.4381136       98.09048
2012    17      7       0.481654        105.1583
2012    18      0       0.3976274       91.09693
2012    18      1       0.3320217       79.05015
2012    18      2       0.4141319       93.10842
2012    18      3       0.3744279       86.73738
2012    18      4       0.305277        74.10972
2012    18      5       0.3497813       81.86565
2012    18      6       0.4471299       98.22915
2012    18      7       0.5479953       114.6145
2012    19      0       0.5018003       107.8468
2012    19      1       0.4321259       95.87859
2012    19      2       0.3936068       89.35026
2012    19      3       0.3351867       79.02349
2012    19      4       0.3994202       90.39618
2012    19      5       0.5026262       106.6226
2012    19      6       0.5590921       114.8317
2012    19      7       0.5605601       115.4004
2012    20      0       0.5376792       112.3815
2012    20      1       0.4672723       101.7709
2012    20      2       0.2839174       69.36495
2012    20      3       0.2782829       67.9407
2012    20      4       0.3338244       77.94648
2012    20      5       0.4000869       89.76254
2012    20      6       0.5088496       107.3869
2012    20      7       0.4430951       97.84313
2012    21      0       0.4314159       96.39024
2012    21      1       0.3747196       86.52469
2012    21      2       0.3638091       84.56773
2012    21      3       0.3697832       85.80043
2012    21      4       0.3524846       82.74606
2012    21      5       0.3470903       81.68913
2012    21      6       0.3548766       83.50326
2012    21      7       0.3582851       84.52113
2012    22      0       0.3508313       83.53004
2012    22      1       0.3249066       78.89533
2012    22      2       0.3037452       74.52667
2012    22      3       0.2892153       71.38238
2012    22      4       0.2907925       71.43252
2012    22      5       0.2649928       66.06896
2012    22      6       0.3121939       75.78793
2012    22      7       0.4436238       98.9688
2012    23      0       0.4457425       99.66999
2012    23      1       0.4003109       91.95809
2012    23      2       0.3957613       90.9257
2012    23      3       0.4372189       97.79469
2012    23      4       0.5206772       110.4561
2012    23      5       0.5736895       117.2053
2012    23      6       0.4567259       99.2709
2012    23      7       0.4435634       97.18387
2012    24      0       0.5279021       110.1941
2012    24      1       0.5770298       117.1486
2012    24      2       0.3360407       78.06406
2012    24      3       0.2380734       58.97725
2012    24      4       0.1500121       40.6032
2012    24      5       0.2426766       59.64869
2012    24      6       0.2158238       54.15678
2012    24      7       0.168385        44.52628
2012    25      0       0.1365537       37.81088
2012    25      1       0.1398256       38.50603
2012    25      2       0.1891402       49.11544
2012    25      3       0.5559585       114.5392
2012    25      4       0.5436593       114.481
2012    25      5       0.4658055       102.615
2012    25      6       0.4882545       106.5132
2012    25      7       0.4589861       102.3559
2012    26      0       0.4519441       101.3063
2012    26      1       0.4211109       95.91681
2012    26      2       0.3276857       79.12914
2012    26      3       0.2832927       70.59187
2012    26      4       0.2363956       61.06322
2012    26      5       0.2180509       57.19928
2012    26      6       0.2924202       72.48736
2012    26      7       0.3564897       83.91757
2012    27      0       0.370183        85.70845
2012    27      1       0.4488283       99.31238
2012    27      2       0.1191443       34.22253
2012    27      3       0.1117705       32.46838
2012    27      4       0.1001255       29.69409
2012    27      5       0.1269708       35.82711
2012    27      6       0.2175528       54.73446
2012    27      7       0.2733285       65.56741
2012    28      0       0.2432768       60.0955
2012    28      1       0.2177653       55.09423
2012    28      2       0.1869007       48.93083
2012    28      3       0.1426314       39.41558
2012    28      4       0.1327296       37.20568
2012    28      5       0.1642743       44.24904
2012    28      6       0.2132122       54.75335
2012    28      7       0.2251572       57.19512
2012    29      0       0.2371492       59.61431
2012    29      1       0.2208836       56.42538
2012    29      2       0.2149055       55.27543
2012    29      3       0.2169123       55.76889
2012    29      4       0.2100444       54.40046
2012    29      5       0.2152556       55.58852
2012    29      6       0.2608452       64.92876
2012    29      7       0.2747471       67.75658
2012    30      0       0.2523004       63.24447
2012    30      1       0.2258252       57.48744
2012    30      2       0.2673104       65.48727
2012    30      3       0.2752603       67.75889
2012    30      4       0.2263309       57.78455
2012    30      5       0.258846        64.4258
2012    30      6       0.3689386       85.39678
2012    30      7       0.4580377       100.6995
2012    31      0       0.4319545       96.51547
2012    31      1       0.4889498       106.0037
2012    31      2       0.5415129       114.4353
2012    31      3       0.5544962       116.1682
2012    31      4       0.4690817       103.1215
2012    31      5       0.4557655       100.9217
2012    31      6       0.5502055       115.532
2012    31      7       0.5486307       115.6087
2013    1       0       0.6852834       134.0557
2013    1       1       0.6108571       122.0086
2013    1       2       0.489197        102.737
2013    1       3       0.4689679       98.8023
2013    1       4       0.3165987       73.81178
2013    1       5       0.3588405       81.06699
2013    1       6       0.3537797       79.50007
2013    1       7       0.3015844       69.80941
2013    2       0       0.2829168       66.26215
2013    2       1       0.1897304       47.95503
2013    2       2       0.1665675       43.10863
2013    2       3       0.1334293       36.01368
2013    2       4       0.1021062       29.03705
2013    2       5       0.09285951      26.91249
2013    2       6       0.1115803       31.31071
2013    2       7       0.1135501       31.93309
2013    3       0       0.1213341       33.79615
2013    3       1       0.1165377       32.7997
2013    3       2       0.1203408       33.67835
2013    3       3       0.1315631       36.35222
2013    3       4       0.1575181       42.07522
2013    3       5       0.1767492       46.1875
2013    3       6       0.205338        52.23852
2013    3       7       0.2427609       59.96941
2013    4       0       0.2936525       69.74168
2013    4       1       0.2983199       70.48471
2013    4       2       0.2660596       64.58105
2013    4       3       0.2558116       62.51403
2013    4       4       0.2647354       64.12635
2013    4       5       0.2516453       61.60279
2013    4       6       0.2752654       66.43135
2013    4       7       0.3342285       77.58564
2013    5       0       0.3083676       73.07974
2013    5       1       0.2988982       71.19752
2013    5       2       0.2781968       67.27144
2013    5       3       0.2769101       66.92332
2013    5       4       0.2548096       62.60631
2013    5       5       0.2442011       60.37199
2013    5       6       0.3028895       71.87628
2013    5       7       0.3858709       87.22823
2013    6       0       0.4640063       100.4943
2013    6       1       0.3321274       78.10316
2013    6       2       0.2701902       66.22752
2013    6       3       0.2529701       62.64021
2013    6       4       0.2824472       68.35742
2013    6       5       0.3047408       72.40385
2013    6       6       0.450597        97.77565
2013    6       7       0.5060442       107.0364
2013    7       0       0.4301102       94.9996
2013    7       1       0.3460659       80.4742
2013    7       2       0.3303622       77.90178
2013    7       3       0.3654133       84.2425
2013    7       4       0.3959917       89.38699
2013    7       5       0.4327044       95.07659
2013    7       6       0.4985459       105.774
2013    7       7       0.5068047       107.3597
2013    8       0       0.4819566       103.5748
2013    8       1       0.4297468       95.09548
2013    8       2       0.4115316       91.71931
2013    8       3       0.2809012       68.24284
2013    8       4       0.2318957       58.60776
2013    8       5       0.3300306       77.26783
2013    8       6       0.539452        111.3999
2013    8       7       0.5708352       116.5615
2013    9       0       0.5662177       116.3395
2013    9       1       0.522945        110.4389
2013    9       2       0.3861248       88.14646
2013    9       3       0.2770208       67.68673
2013    9       4       0.2324713       58.51026
2013    9       5       0.3386748       79.16077
2013    9       6       0.4829821       102.7853
2013    9       7       0.5197185       107.9725
2013    10      0       0.5287212       109.5114
2013    10      1       0.350007        80.23416
2013    10      2       0.2406571       59.80683
2013    10      3       0.2582129       63.18462
2013    10      4       0.2438402       60.73845
2013    10      5       0.2308891       58.15401
2013    10      6       0.3103222       73.59844
2013    10      7       0.3325514       77.93563
2013    11      0       0.3845877       86.94745
2013    11      1       0.2862213       69.20568
2013    11      2       0.3110774       73.86078
2013    11      3       0.2743738       67.15187
2013    11      4       0.2642438       65.13107
2013    11      5       0.3357216       78.32192
2013    11      6       0.4604754       99.32375
2013    11      7       0.437114        95.80976
2013    12      0       0.3390125       79.16583
2013    12      1       0.3616771       83.34837
2013    12      2       0.456793        99.64694
2013    12      3       0.4648802       100.732
2013    12      4       0.3690073       85.27573
2013    12      5       0.385587        88.14741
2013    12      6       0.490112        105.8588
2013    12      7       0.5178799       110.4988
2013    13      0       0.4231169       95.66955
2013    13      1       0.3653804       85.44627
2013    13      2       0.4813279       105.3469
2013    13      3       0.5842715       121.1067
2013    13      4       0.5536838       116.7821
2013    13      5       0.5189484       111.8556
2013    13      6       0.5243013       112.5991
2013    13      7       0.5000229       108.9809
2013    14      0       0.4711963       104.5642
2013    14      1       0.3859371       90.3455
2013    14      2       0.3871233       90.66169
2013    14      3       0.4173917       95.91886
2013    14      4       0.481394        106.4073
2013    14      5       0.4140955       94.75871
2013    14      6       0.5312658       113.4696
2013    14      7       0.6503389       130.975
2013    15      0       0.5911724       123.2982
2013    15      1       0.6012043       124.5897
2013    15      2       0.6366499       129.1805
2013    15      3       0.5313172       113.5062
2013    15      4       0.4071016       93.35753
2013    15      5       0.4369948       98.1364
2013    15      6       0.7057925       137.9601
2013    15      7       0.7798795       148.6183
2013    16      0       0.7661845       146.2
2013    16      1       0.7616023       145.8853
2013    16      2       0.5121211       110.5328
2013    16      3       0.4491017       100.1845
2013    16      4       0.3629562       84.80537
2013    16      5       0.3466694       81.55313
2013    16      6       0.4160741       93.95281
2013    16      7       0.4348084       97.35376
2013    17      0       0.489089        106.3433
2013    17      1       0.5002538       108.0486
2013    17      2       0.4700021       103.3058
2013    17      3       0.3640055       85.16508
2013    17      4       0.320087        76.85427
2013    17      5       0.2180478       56.76976
2013    17      6       0.2062873       54.40705
2013    17      7       0.2662021       66.76015
2013    18      0       0.2861199       70.55347
2013    18      1       0.2166637       56.35833
2013    18      2       0.1927501       51.11132
2013    18      3       0.2229372       57.26632
2013    18      4       0.2733396       67.27733
2013    18      5       0.2885494       69.91143
2013    18      6       0.3491137       81.22715
2013    18      7       0.5209057       109.107
2013    19      0       0.5461324       113.2552
2013    19      1       0.3289322       77.46212
2013    19      2       0.4021056       90.60728
2013    19      3       0.3313855       77.70252
2013    19      4       0.320765        75.21796
2013    19      5       0.3761293       85.40898
2013    19      6       0.508059        107.187
2013    19      7       0.5020902       106.4235
2013    20      0       0.5265397       110.1262
2013    20      1       0.4783712       102.7835
2013    20      2       0.4825439       102.9603
2013    20      3       0.5073806       107.237
2013    20      4       0.4731513       101.912
2013    20      5       0.4247104       94.12221
2013    20      6       0.4964864       105.9219
2013    20      7       0.5300721       110.8604
2013    21      0       0.5625436       115.7112
2013    21      1       0.3158811       74.78088
2013    21      2       0.2182487       55.63938
2013    21      3       0.2174906       55.59845
2013    21      4       0.2285612       57.74929
2013    21      5       0.237242        59.34489
2013    21      6       0.3225065       76.21079
2013    21      7       0.3443537       80.80957
2013    22      0       0.3176513       75.99856
2013    22      1       0.2794453       68.65951
2013    22      2       0.3087765       73.97589
2013    22      3       0.4398482       96.9826
2013    22      4       0.3704636       85.30835
2013    22      5       0.2928676       71.25161
2013    22      6       0.3285033       78.10172
2013    22      7       0.4757479       103.5104
2013    23      0       0.5150149       110.4075
2013    23      1       0.3678425       86.1052
2013    23      2       0.3380332       80.74822
2013    23      3       0.3510532       82.75747
2013    23      4       0.2748589       68.35439
2013    23      5       0.1980376       52.64419
2013    23      6       0.2506246       63.88105
2013    23      7       0.359584        84.83973
2013    24      0       0.3835978       89.28665
2013    24      1       0.2861871       71.07772
2013    24      2       0.207479        54.83348
2013    24      3       0.1833767       49.51182
2013    24      4       0.1551061       42.94263
2013    24      5       0.1424017       39.91187
2013    24      6       0.177929        48.00379
2013    24      7       0.2302414       59.16383
2013    25      0       0.2525495       63.80068
2013    25      1       0.2318414       59.49705
2013    25      2       0.1906672       50.76618
2013    25      3       0.1688991       45.8417
2013    25      4       0.168382        45.59575
2013    25      5       0.1654256       44.82892
2013    25      6       0.2099659       54.5588
2013    25      7       0.2434553       61.60702
2013    26      0       0.2429436       61.44953
2013    26      1       0.2108241       54.71106
2013    26      2       0.217461        55.93961
2013    26      3       0.2093528       54.24686
2013    26      4       0.1822397       48.35705
2013    26      5       0.1878129       49.60912
2013    26      6       0.2313317       58.8683
2013    26      7       0.2872197       69.95648
2013    27      0       0.3102725       74.63884
2013    27      1       0.257169        64.40037
2013    27      2       0.2060826       53.79163
2013    27      3       0.1755471       47.0385
2013    27      4       0.2105313       54.6577
2013    27      5       0.2342463       59.40932
2013    27      6       0.3251865       77.21068
2013    27      7       0.4384926       97.30409
2013    28      0       0.3821107       88.02824
2013    28      1       0.3634076       84.45042
2013    28      2       0.3002993       72.74342
2013    28      3       0.3170418       75.81058
2013    28      4       0.3257118       77.55228
2013    28      5       0.3334538       78.68236
2013    28      6       0.485976        104.3556
2013    28      7       0.4974349       106.6475
2013    29      0       0.4563603       100.7104
2013    29      1       0.4662279       101.8355
2013    29      2       0.3661866       85.08294
2013    29      3       0.3501083       82.32257
2013    29      4       0.5580769       115.7776
2013    29      5       0.5661532       117.2497
2013    29      6       0.4922602       105.2224
2013    29      7       0.5144873       108.2572
2013    30      0       0.5110769       107.6954
2013    30      1       0.3543593       81.98004
2013    30      2       0.2557534       63.61354
2013    30      3       0.2721337       66.74218
2013    30      4       0.2836043       68.72114
2013    30      5       0.1995683       51.77714
2013    30      6       0.333281        78.10603
2013    30      7       0.3326767       77.64632
2013    31      0       0.239929        60.1307
2013    31      1       0.2285416       57.69428
2013    31      2       0.210866        54.19154
2013    31      3       0.1815032       48.0487
2013    31      4       0.2049821       52.91564
2013    31      5       0.2803153       67.60854
2013    31      6       0.3509057       80.50144
2013    31      7       0.3103451       73.23532
2014    1       0       0.2522028       61.41782
2014    1       1       0.1898881       48.73761
2014    1       2       0.1638456       43.26719
2014    1       3       0.09699257      28.30704
2014    1       4       0.08274689      24.8491
2014    1       5       0.1050831       30.07166
2014    1       6       0.1509494       40.57862
2014    1       7       0.1737414       45.71739
2014    2       0       0.2051062       52.46962
2014    2       1       0.2249765       56.73002
2014    2       2       0.2599339       64.02941
2014    2       3       0.2840806       69.13392
2014    2       4       0.2904091       70.21543
2014    2       5       0.3157238       75.13524
2014    2       6       0.3721016       85.62269
2014    2       7       0.5049766       107.5807
2014    3       0       0.4152867       93.49183
2014    3       1       0.332749        78.76047
2014    3       2       0.291882        71.22305
2014    3       3       0.2776656       68.30322
2014    3       4       0.2635791       65.57948
2014    3       5       0.2228515       56.97608
2014    3       6       0.2847057       69.76503
2014    3       7       0.3081769       74.79692
2014    4       0       0.3209953       77.07509
2014    4       1       0.4253102       95.04237
2014    4       2       0.3599492       83.91966
2014    4       3       0.3237304       77.08282
2014    4       4       0.2269644       57.86777
2014    4       5       0.1635511       44.40673
2014    4       6       0.1911088       50.92493
2014    4       7       0.2053476       54.02128
2014    5       0       0.2228825       57.53266
2014    5       1       0.2606751       64.70585
2014    5       2       0.2805903       68.53093
2014    5       3       0.2455105       62.10997
2014    5       4       0.1778556       47.45851
2014    5       5       0.163602        44.18035
2014    5       6       0.2025495       52.8909
2014    5       7       0.2317939       59.06958
2014    6       0       0.2425935       61.31756
2014    6       1       0.1831775       48.78134
2014    6       2       0.1369698       38.20389
2014    6       3       0.1511131       41.31077
2014    6       4       0.1960976       51.03581
2014    6       5       0.1854684       48.52804
2014    6       6       0.2316489       58.72926
2014    6       7       0.3681817       84.66986
2014    7       0       0.4099468       91.8339
2014    7       1       0.4407425       96.90701
2014    7       2       0.3203407       75.9532
2014    7       3       0.3826514       86.82936
2014    7       4       0.2675265       65.80809
2014    7       5       0.2112065       54.51876
2014    7       6       0.3362092       78.66904
2014    7       7       0.5064169       107.1023
2014    8       0       0.5344282       111.2987
2014    8       1       0.3450145       79.63946
2014    8       2       0.2773743       66.07994
2014    8       3       0.2337882       57.7169
2014    8       4       0.2238469       56.01795
2014    8       5       0.2413356       59.60704
2014    8       6       0.4451791       95.73062
2014    8       7       0.5065401       105.4019
2014    9       0       0.4779414       101.5031
2014    9       1       0.2284028       57.27117
2014    9       2       0.2006669       51.58297
2014    9       3       0.1974677       51.03986
2014    9       4       0.1880058       48.89318
2014    9       5       0.2641757       64.17224
2014    9       6       0.410371        91.36176
2014    9       7       0.5133647       108.1287
2014    10      0       0.5083667       107.8867
2014    10      1       0.4270668       93.94427
2014    10      2       0.2951706       70.52066
2014    10      3       0.2755288       67.04757
2014    10      4       0.2402582       59.9379
2014    10      5       0.2860376       68.78309
2014    10      6       0.5049076       106.1106
2014    10      7       0.5675734       116.0343
2014    11      0       0.6060606       122.0728
2014    11      1       0.6365689       126.5269
2014    11      2       0.5647205       116.044
2014    11      3       0.5332548       110.4198
2014    11      4       0.600423        120.2578
2014    11      5       0.551892        113.1971
2014    11      6       0.5038262       105.6782
2014    11      7       0.4871044       102.6755
2014    12      0       0.4625991       98.88808
2014    12      1       0.3619104       82.06353
2014    12      2       0.3272735       75.5996
2014    12      3       0.3285035       75.58288
2014    12      4       0.3146609       72.7003
2014    12      5       0.3216344       73.57513
2014    12      6       0.3553603       79.75152
2014    12      7       0.3730214       82.90505
2014    13      0       0.3505089       79.24331
2014    13      1       0.2401874       58.55557
2014    13      2       0.2034045       51.00131
2014    13      3       0.1837302       47.00626
2014    13      4       0.1308464       35.65136
2014    13      5       0.1137645       31.87345
2014    13      6       0.2305987       56.89984
2014    13      7       0.2762441       65.98152
2014    14      0       0.2323656       57.25804
2014    14      1       0.1772773       46.0077
2014    14      2       0.1542085       41.08034
2014    14      3       0.1460722       39.37832
2014    14      4       0.1661854       43.63736
2014    14      5       0.1886513       48.36528
2014    14      6       0.2894266       67.94148
2014    14      7       0.2862763       67.56486
2014    15      0       0.2707715       64.78616
2014    15      1       0.330168        75.83766
2014    15      2       0.3978582       87.83116
2014    15      3       0.41237         90.77638
2014    15      4       0.3162111       74.1289
2014    15      5       0.2900894       69.24534
2014    15      6       0.4447606       96.93843
2014    15      7       0.4750804       101.8323
2014    16      0       0.4980865       105.294
2014    16      1       0.4574148       99.47611
2014    16      2       0.3641255       83.8083
2014    16      3       0.3547269       82.39978
2014    16      4       0.3077779       73.80962
2014    16      5       0.359147        82.94755
2014    16      6       0.6388685       126.3452
2014    16      7       0.6563495       128.129
2014    17      0       0.5367859       112.1077
2014    17      1       0.4406134       96.94087
2014    17      2       0.3418161       79.99027
2014    17      3       0.5953945       120.3502
2014    17      4       0.5544462       115.2289
2014    17      5       0.3226698       76.30236
2014    17      6       0.4922615       105.1876
2014    17      7       0.4996154       106.7082
2014    18      0       0.4775724       103.4292
2014    18      1       0.4033552       91.43982
2014    18      2       0.3666489       85.43514
2014    18      3       0.4919912       106.0024
2014    18      4       0.2944204       71.45994
2014    18      5       0.290323        70.26591
2014    18      6       0.3643438       84.70066
2014    18      7       0.3892572       89.74689
2014    19      0       0.3203697       76.58798
2014    19      1       0.271557        67.1048
2014    19      2       0.2991424       72.47824
2014    19      3       0.3088243       74.28276
2014    19      4       0.285705        70.00858
2014    19      5       0.2135756       55.09619
2014    19      6       0.2552194       63.91988
2014    19      7       0.2537238       63.40119
2014    20      0       0.2601866       64.71571
2014    20      1       0.327371        77.52594
2014    20      2       0.3838744       88.39056
2014    20      3       0.3063509       73.81935
2014    20      4       0.2678205       66.24096
2014    20      5       0.2622057       65.18208
2014    20      6       0.3312051       78.68147
2014    20      7       0.4156449       93.69415
2014    21      0       0.3918924       89.73476
2014    21      1       0.3545993       82.87042
2014    21      2       0.2880109       70.3447
2014    21      3       0.2370835       59.96287
2014    21      4       0.2674176       66.23993
2014    21      5       0.3142916       75.2315
2014    21      6       0.3738105       86.73633
2014    21      7       0.5222586       111.0514
2014    22      0       0.6244015       126.5912
2014    22      1       0.5185993       111.2679
2014    22      2       0.3699925       86.76498
2014    22      3       0.3832724       88.55181
2014    22      4       0.4282765       95.48447
2014    22      5       0.5121314       108.6762
2014    22      6       0.5632835       117.0585
2014    22      7       0.5510035       115.8024
2014    23      0       0.5191844       111.03
2014    23      1       0.4146433       94.36518
2014    23      2       0.4241927       96.27563
2014    23      3       0.3553757       84.06202
2014    23      4       0.4572271       101.3692
2014    23      5       0.5012589       108.468
2014    23      6       0.5494067       116.1695
2014    23      7       0.6854136       135.9296
2014    24      0       0.9227822       164.353
2014    24      1       0.8885043       160.2014
2014    24      2       0.6676571       133.2126
2014    24      3       0.4579824       101.2666
2014    24      4       0.3851274       89.29987
2014    24      5       0.3993283       91.73005
2014    24      6       0.6549119       130.9647
2014    24      7       0.6807655       134.928
2014    25      0       0.8218513       152.969
2014    25      1       0.7062064       137.9109
2014    25      2       0.6014737       123.7132
2014    25      3       0.4666622       103.222
2014    25      4       0.4126016       94.07135
2014    25      5       0.5752014       120.1969
2014    25      6       0.8283961       152.3641
2014    25      7       0.9305196       164.2007
2014    26      0       0.8775464       159.5466
2014    26      1       0.694498        136.9344
2014    26      2       0.46719         103.2387
2014    26      3       0.3524143       83.43562
2014    26      4       0.3366338       80.29886
2014    26      5       0.3928667       90.26052
2014    26      6       0.5921565       122.4025
2014    26      7       0.6925332       136.9268
2014    27      0       0.6396741       130.1897
2014    27      1       0.5003479       109.7516
2014    27      2       0.4587276       103.2124
2014    27      3       0.3974941       93.01649
2014    27      4       0.2476149       63.92001
2014    27      5       0.2919242       72.51964
2014    27      6       0.3962954       92.04043
2014    27      7       0.4642867       103.9889
2014    28      0       0.5446146       116.8582
2014    28      1       0.6071562       125.91
2014    28      2       0.6835639       135.8553
2014    28      3       0.3301009       80.45639
2014    28      4       0.2200698       58.33154
2014    28      5       0.2070743       55.43384
2014    28      6       0.2843799       71.37366
2014    28      7       0.3324052       80.64766
2014    29      0       0.3647907       86.76781
2014    29      1       0.3734939       88.24376
2014    29      2       0.5459295       117.5806
2014    29      3       0.5787081       122.6911
2014    29      4       0.4931383       109.4823
2014    29      5       0.5276265       113.5855
2014    29      6       0.59355         124.2137
2014    29      7       0.8155992       153.1587
2014    30      0       0.6615373       133.6598
2014    30      1       0.6427673       130.0516
2014    30      2       0.7816476       147.938
2014    30      3       0.8032878       150.7055
2014    30      4       0.6805195       134.7062
2014    30      5       0.641645        128.9708
2014    30      6       0.7813311       147.2412
2014    30      7       0.7873618       148.5159
2014    31      0       0.6544394       132.0189
2014    31      1       0.4470729       101.1519
2014    31      2       0.3434405       82.73271
2014    31      3       0.3691516       87.36859
2014    31      4       0.5248904       113.3
2014    31      5       0.3834197       89.86687
2014    31      6       0.5962649       123.8912
2014    31      7       0.6084816       126.0165
2015    1       0       0.7023665       136.6341
2015    1       1       0.5924221       121.8464
2015    1       2       0.5907976       120.7807
2015    1       3       0.4345322       96.16199
2015    1       4       0.3254313       77.33602
2015    1       5       0.3689206       84.81804
2015    1       6       0.461119        100.439
2015    1       7       0.4839317       104.3703
2015    2       0       0.3859898       88.41182
2015    2       1       0.3503959       81.81771
2015    2       2       0.401225        90.37899
2015    2       3       0.2489124       62.2752
2015    2       4       0.2427444       61.24744
2015    2       5       0.3373718       79.31947
2015    2       6       0.4645026       101.6336
2015    2       7       0.4758364       102.9734
2015    3       0       0.3389663       80.01156
2015    3       1       0.321198        76.96551
2015    3       2       0.246213        61.91643
2015    3       3       0.3184405       75.89334
2015    3       4       0.3195135       76.42698
2015    3       5       0.329036        78.25372
2015    3       6       0.47143         102.6119
2015    3       7       0.6334065       127.0127
2015    4       0       0.5838744       120.3675
2015    4       1       0.5446151       114.6502
2015    4       2       0.4504962       99.04176
2015    4       3       0.3914699       88.953
2015    4       4       0.4080807       91.83537
2015    4       5       0.4852225       104.6416
2015    4       6       0.5965474       121.3818
2015    4       7       0.63926         128.1727
2015    5       0       0.7074072       137.6531
2015    5       1       0.4238639       95.18887
2015    5       2       0.3109153       75.0062
2015    5       3       0.3616729       84.05548
2015    5       4       0.3780094       87.16241
2015    5       5       0.3989317       91.34391
2015    5       6       0.7346608       140.7292
2015    5       7       0.8441387       153.4808
2015    6       0       0.6642334       131.8412
2015    6       1       0.6647174       132.2249
2015    6       2       0.7366212       141.4998
2015    6       3       0.7350325       141.135
2015    6       4       0.7724837       145.7213
2015    6       5       0.7159539       138.9677
2015    6       6       0.7221377       138.7232
2015    6       7       0.7891463       147.1631
2015    7       0       0.7980464       148.085
2015    7       1       0.7592333       143.0864
2015    7       2       0.5024912       107.4617
2015    7       3       0.3415464       80.22863
2015    7       4       0.2702271       66.2996
2015    7       5       0.3327409       78.30283
2015    7       6       0.5349123       111.0844
2015    7       7       0.5652067       116.3654
2015    8       0       0.5322305       111.3242
2015    8       1       0.3740084       85.95994
2015    8       2       0.3422144       80.2037
2015    8       3       0.3047544       73.24236
2015    8       4       0.4559982       98.89672
2015    8       5       0.496686        105.6657
2015    8       6       0.541802        113.1942
2015    8       7       0.5440703       113.3029
2015    9       0       0.5623613       116.1153
2015    9       1       0.4803394       104.3722
2015    9       2       0.5367745       112.3737
2015    9       3       0.4255547       93.84068
2015    9       4       0.2353392       58.95772
2015    9       5       0.3566256       81.465
2015    9       6       0.4248262       93.22104
2015    9       7       0.365139        83.51908
2015    10      0       0.4434642       96.70288
2015    10      1       0.4193408       91.9119
2015    10      2       0.3995239       88.40162
2015    10      3       0.3728959       83.37567
2015    10      4       0.3556484       80.23413
2015    10      5       0.3623951       81.34028
2015    10      6       0.3407349       77.90221
2015    10      7       0.3578216       81.02741
2015    11      0       0.3204108       74.27927
2015    11      1       0.2319065       57.2677
2015    11      2       0.1396767       37.81157
2015    11      3       0.1574548       41.69136
2015    11      4       0.1140082       32.32003
2015    11      5       0.09768764      28.56735
2015    11      6       0.1291528       35.79057
2015    11      7       0.1724638       45.44472
2015    12      0       0.1737015       46.09747
2015    12      1       0.1706084       45.42939
2015    12      2       0.1608989       43.22823
2015    12      3       0.1627032       43.78451
2015    12      4       0.2078058       53.56166
2015    12      5       0.2400059       60.7014
2015    12      6       0.3526104       82.28916
2015    12      7       0.4542805       99.82877
2015    13      0       0.4036299       91.5701
2015    13      1       0.3707233       85.75857
2015    13      2       0.3383873       79.37226
2015    13      3       0.3917426       88.78776
2015    13      4       0.425183        94.35108
2015    13      5       0.4791977       102.6444
2015    13      6       0.7229986       136.8961
2015    13      7       0.6739878       131.0865
2015    14      0       0.6202064       123.724
2015    14      1       0.3474721       81.31684
2015    14      2       0.246231        62.01697
2015    14      3       0.2267446       58.09757
2015    14      4       0.2463132       62.01472
2015    14      5       0.290965        70.27942
2015    14      6       0.3847817       87.21816
2015    14      7       0.4864852       104.2594
2015    15      0       0.5784136       118.3295
2015    15      1       0.4732646       101.9073
2015    15      2       0.4885912       104.6227
2015    15      3       0.6033145       122.0425
2015    15      4       0.405514        91.12527
2015    15      5       0.4060719       90.59892
2015    15      6       0.564413        116.5636
2015    15      7       0.5824099       118.421
2015    16      0       0.3997035       89.63067
2015    16      1       0.1771034       46.72572
2015    16      2       0.1041862       30.18213
2015    16      3       0.1397563       38.248
2015    16      4       0.2064188       52.58023
2015    16      5       0.2534255       62.18884
2015    16      6       0.4019996       89.36757
2015    16      7       0.4259681       93.86455
2015    17      0       0.4321159       94.79257
2015    17      1       0.324195        75.86085
2015    17      2       0.270159        65.77199
2015    17      3       0.2939307       70.24556
2015    17      4       0.3009219       71.53761
2015    17      5       0.3862069       87.08884
2015    17      6       0.4749305       101.7423
2015    17      7       0.4973784       105.264
2015    18      0       0.552137        113.8744
2015    18      1       0.5320931       110.946
2015    18      2       0.3852375       87.41695
2015    18      3       0.345485        80.56334
2015    18      4       0.2901139       70.01756
2015    18      5       0.3186426       75.2894
2015    18      6       0.5355745       111.0392
2015    18      7       0.6137709       123.005
2015    19      0       0.5210207       110.102
2015    19      1       0.3626155       84.71769
2015    19      2       0.5071884       107.6944
2015    19      3       0.5259724       110.6961
2015    19      4       0.6236296       124.6107
2015    19      5       0.5967898       120.7698
2015    19      6       0.6315504       125.0508
2015    19      7       0.5695958       116.0367
2015    20      0       0.502115        106.3339
2015    20      1       0.4070403       90.92362
2015    20      2       0.3527656       81.61592
2015    20      3       0.3071683       73.36727
2015    20      4       0.2679004       65.80358
2015    20      5       0.3072919       73.31053
2015    20      6       0.5096087       107.153
2015    20      7       0.5985518       119.7955
2015    21      0       0.5795643       117.6166
2015    21      1       0.3969129       89.28886
2015    21      2       0.3301547       76.96948
2015    21      3       0.3195915       75.37651
2015    21      4       0.273903        67.04962
2015    21      5       0.2352385       59.32184
2015    21      6       0.3619063       82.74124
2015    21      7       0.5522166       113.4448
2015    22      0       0.4908642       105.0672
2015    22      1       0.4361727       96.20661
2015    22      2       0.3407663       79.63405
2015    22      3       0.3843482       87.02307
2015    22      4       0.5578227       114.7643
2015    22      5       0.6406853       126.795
2015    22      6       0.6160299       123.329
2015    22      7       0.6103395       122.6002
2015    23      0       0.5039503       106.7552
2015    23      1       0.3374637       79.04741
2015    23      2       0.3161692       75.10265
2015    23      3       0.464265        100.3082
2015    23      4       0.1996471       52.00951
2015    23      5       0.2123599       54.41915
2015    23      6       0.4578723       99.19738
2015    23      7       0.5191203       109.731
2015    24      0       0.5201031       109.4359
2015    24      1       0.3901138       87.31612
2015    24      2       0.2609648       63.71558
2015    24      3       0.2379204       59.41484
2015    24      4       0.2423349       60.27739
2015    24      5       0.2843629       68.31842
2015    24      6       0.4240211       93.51051
2015    24      7       0.4735922       101.953
2015    25      0       0.5450788       113.0174
2015    25      1       0.5209339       109.195
2015    25      2       0.4061125       90.94514
2015    25      3       0.3318943       77.65209
2015    25      4       0.32365         75.98047
2015    25      5       0.350185        80.97883
2015    25      6       0.5435656       112.1121
2015    25      7       0.5998516       120.4311
2015    26      0       0.5822119       118.8049
2015    26      1       0.4511957       99.00612
2015    26      2       0.3838043       87.53812
2015    26      3       0.3383387       79.36195
2015    26      4       0.2941092       71.05609
2015    26      5       0.3879609       88.28636
2015    26      6       0.5526457       114.7485
2015    26      7       0.5212501       110.2412
2015    27      0       0.6160424       124.1879
2015    27      1       0.5777939       118.9583
2015    27      2       0.6512765       129.3479
2015    27      3       0.4825606       104.8318
2015    27      4       0.451992        99.88892
2015    27      5       0.4810176       104.5485
2015    27      6       0.6081626       124.0425
2015    27      7       0.5215997       111.4523
2015    28      0       0.5939405       121.8323
2015    28      1       0.5636261       117.2771
2015    28      2       0.5423743       114.3397
2015    28      3       0.5950293       121.5908
2015    28      4       0.6756945       132.177
2015    28      5       0.4141461       93.04762
2015    28      6       0.5571493       115.8245
2015    28      7       0.5449447       114.4758
2015    29      0       0.6542072       130.1236
2015    29      1       0.4925914       105.5484
2015    29      2       0.5190231       109.21
2015    29      3       0.3909274       88.43538
2015    29      4       0.3227331       76.07184
2015    29      5       0.4207969       93.35762
2015    29      6       0.6068858       121.7632
2015    29      7       0.5681842       117.0415
2015    30      0       0.5778331       118.5044
2015    30      1       0.4134867       93.17309
2015    30      2       0.2822459       69.37276
2015    30      3       0.2160927       56.01803
2015    30      4       0.1780193       47.83519
2015    30      5       0.1845631       49.14074
2015    30      6       0.2598193       65.05267
2015    30      7       0.3477296       82.25531
2015    31      0       0.4232811       95.78237
2015    31      1       0.4604156       102.0951
2015    31      2       0.4434017       99.98964
2015    31      3       0.69483         137.1517
2015    31      4       0.5801299       120.2261
2015    31      5       0.5131046       110.0597
2015    31      6       0.666667        132.9106
2015    31      7       0.6742309       135.0447
2016    1       0       0.3461929       78.60018
2016    1       1       0.2738667       65.21911
2016    1       2       0.2497437       60.65416
2016    1       3       0.2386457       58.6876
2016    1       4       0.2432644       59.62622
2016    1       5       0.2481035       60.5503
2016    1       6       0.26538         64.01759
2016    1       7       0.2719494       65.39909
2016    2       0       0.2191337       55.02432
2016    2       1       0.1241844       34.71262
2016    2       2       0.07838568      24.11834
2016    2       3       0.06824847      21.61419
2016    2       4       0.05711459      18.75208
2016    2       5       0.05916177      19.16722
2016    2       6       0.08398457      25.29001
2016    2       7       0.1388291       37.70997
2016    3       0       0.2062965       52.4129
2016    3       1       0.2106142       53.66823
2016    3       2       0.2105266       53.85772
2016    3       3       0.2273876       57.51256
2016    3       4       0.2467255       61.53126
2016    3       5       0.1862489       48.68946
2016    3       6       0.2198097       55.866
2016    3       7       0.2712825       66.62444
2016    4       0       0.2905559       70.78596
2016    4       1       0.254071        63.79406
2016    4       2       0.2004819       52.7075
2016    4       3       0.1525105       42.09177
2016    4       4       0.1346572       37.92359
2016    4       5       0.1539847       42.36723
2016    4       6       0.1959753       51.81035
2016    4       7       0.2379528       60.81155
2016    5       0       0.2570123       64.72968
2016    5       1       0.2308002       59.38842
2016    5       2       0.2447105       62.18006
2016    5       3       0.2548402       64.22049
2016    5       4       0.2296239       58.88208
2016    5       5       0.23794         60.54447
2016    5       6       0.3135642       75.84935
2016    5       7       0.4213457       95.34531
2016    6       0       0.4806635       105.1803
2016    6       1       0.4486689       100.2954
2016    6       2       0.4233033       96.06454
2016    6       3       0.4538214       100.9425
2016    6       4       0.4186449       94.73696
2016    6       5       0.3804418       88.10164
2016    6       6       0.5687527       118.6548
2016    6       7       0.5074699       110.3095
2016    7       0       0.4919661       107.788
2016    7       1       0.6638712       132.3558
2016    7       2       0.4040767       93.63296
2016    7       3       0.254596        65.00999
2016    7       4       0.2216368       57.84498
2016    7       5       0.299216        73.0396
2016    7       6       0.4913259       106.4744
2016    7       7       0.6191178       125.9343
2016    8       0       0.5999329       122.2245
2016    8       1       0.3550285       81.22186
2016    8       2       0.2775005       66.97229
2016    8       3       0.3018983       71.39301
2016    8       4       0.3110088       73.06874
2016    8       5       0.3678703       83.21869
2016    8       6       0.4706705       100.6469
2016    8       7       0.4973628       104.836
2016    9       0       0.477258        101.8664
2016    9       1       0.5035838       106.2017
2016    9       2       0.4449683       97.49434
2016    9       3       0.3219027       76.0867
2016    9       4       0.3422042       80.35493
2016    9       5       0.2750687       67.87628
2016    9       6       0.3083556       74.43
2016    9       7       0.619091        124.7388
2016    10      0       0.253634        63.76858
2016    10      1       0.3459934       81.51267
2016    10      2       0.4630146       101.7174
2016    10      3       0.4125494       92.97986
2016    10      4       0.1608471       43.4055
2016    10      5       0.07272208      22.8865
2016    10      6       0.1874125       48.84043
2016    10      7       0.2453342       60.47332
2016    11      0       0.1989925       51.04438
2016    11      1       0.1663451       44.08636
2016    11      2       0.1618898       43.03329
2016    11      3       0.1451487       39.3425
2016    11      4       0.1592658       42.29821
2016    11      5       0.1767842       46.00556
2016    11      6       0.2908893       68.85009
2016    11      7       0.2677887       64.70566
2016    12      0       0.2415691       59.82791
2016    12      1       0.1689231       44.87167
2016    12      2       0.1395966       38.43047
2016    12      3       0.1354253       37.5498
2016    12      4       0.1346941       37.32016
2016    12      5       0.135105        37.28173
2016    12      6       0.1827224       48.21318
2016    12      7       0.1961498       51.42188
2016    13      0       0.2095439       54.09518
2016    13      1       0.186276        49.05728
2016    13      2       0.1860748       49.26303
2016    13      3       0.1703532       45.80945
2016    13      4       0.182214        48.4366
2016    13      5       0.2078915       54.08587
2016    13      6       0.2526288       63.34895
2016    13      7       0.3671011       85.02214
2016    14      0       0.4312562       96.24025
2016    14      1       0.4064117       92.33388
2016    14      2       0.2956886       72.17219
2016    14      3       0.2625663       65.57085
2016    14      4       0.2400314       60.95223
2016    14      5       0.2164395       55.95539
2016    14      6       0.2954424       71.79244
2016    14      7       0.4304557       95.60773
2016    15      0       0.5382323       112.8859
2016    15      1       0.6139156       124.1756
2016    15      2       0.6457204       128.3637
2016    15      3       0.4658961       102.2453
2016    15      4       0.3308742       78.56237
2016    15      5       0.3061934       73.62596
2016    15      6       0.5714651       117.8498
2016    15      7       0.8061892       148.6411
2016    16      0       0.7962218       146.8446
2016    16      1       0.6970032       135.099
2016    16      2       0.4547435       99.5219
2016    16      3       0.4304621       95.41803
2016    16      4       0.4839636       103.3822
2016    16      5       0.5623704       115.6114
2016    16      6       0.6446971       126.8628
2016    16      7       0.6901007       132.9658
2016    17      0       0.611833        122.6795
2016    17      1       0.4683388       101.4507
2016    17      2       0.4160758       92.88173
2016    17      3       0.3685382       84.47132
2016    17      4       0.4052334       90.4509
2016    17      5       0.4152096       91.87225
2016    17      6       0.4506192       98.34633
2016    17      7       0.4916737       104.9805
2016    18      0       0.4889675       104.9952
2016    18      1       0.3789719       86.79382
2016    18      2       0.343169        80.55941
2016    18      3       0.3618536       83.83476
2016    18      4       0.3482561       81.42429
2016    18      5       0.3397719       79.93754
2016    18      6       0.5107135       108.7096
2016    18      7       0.5253366       111.0121
2016    19      0       0.5346909       112.5178
2016    19      1       0.4317963       96.42708
2016    19      2       0.3299292       78.77046
2016    19      3       0.2842896       70.04554
2016    19      4       0.259119        64.94788
2016    19      5       0.2798425       68.95929
2016    19      6       0.4246273       95.39197
2016    19      7       0.5094277       109.3038
2016    20      0       0.4984236       107.9228
2016    20      1       0.4089958       93.37827
2016    20      2       0.3424392       81.46347
2016    20      3       0.3879456       89.68585
2016    20      4       0.4480506       100.1418
2016    20      5       0.4235886       95.79609
2016    20      6       0.5956501       122.4307
2016    20      7       0.5900204       122.3397
2016    21      0       0.5098492       110.7497
2016    21      1       0.4159117       95.48941
2016    21      2       0.3649388       86.34861
2016    21      3       0.3136597       76.75818
2016    21      4       0.2425511       62.38687
2016    21      5       0.2215202       57.95649
2016    21      6       0.2865779       71.38183
2016    21      7       0.4625015       102.9099
2016    22      0       0.5704885       119.5502
2016    22      1       0.4585536       101.9416
2016    22      2       0.3389552       80.79938
2016    22      3       0.3028422       73.7373
2016    22      4       0.2788013       68.7514
2016    22      5       0.2957219       71.72198
2016    22      6       0.3895665       88.95381
2016    22      7       0.5133382       109.3655
2016    23      0       0.4492638       99.19455
2016    23      1       0.22564         57.48674
2016    23      2       0.1584865       43.00149
2016    23      3       0.1612227       43.44957
2016    23      4       0.1681472       44.72078
2016    23      5       0.1821436       47.56227
2016    23      6       0.3030927       71.66444
2016    23      7       0.4212888       92.82895
2016    24      0       0.399025        89.744
2016    24      1       0.3194288       75.77692
2016    24      2       0.2810701       68.50827
2016    24      3       0.2628324       64.96017
2016    24      4       0.2516487       62.41136
2016    24      5       0.2508443       62.26683
2016    24      6       0.2866322       69.75093
2016    24      7       0.3829434       87.47007
2016    25      0       0.3660496       85.05185
2016    25      1       0.3260089       77.55255
2016    25      2       0.2693925       66.49532
2016    25      3       0.2543717       63.41962
2016    25      4       0.2993037       71.79025
2016    25      5       0.3431569       79.09711
2016    25      6       0.431828        94.83192
2016    25      7       0.37928         86.27563
2016    26      0       0.3387571       79.3656
2016    26      1       0.2695982       66.3016
2016    26      2       0.2117993       54.65852
2016    26      3       0.2048916       53.0744
2016    26      4       0.2301342       58.01685
2016    26      5       0.2849636       68.79651
2016    26      6       0.4518897       98.36499
2016    26      7       0.5511396       114.328
2016    27      0       0.46661         100.9367
2016    27      1       0.353261        81.13409
2016    27      2       0.3137327       74.29682
2016    27      3       0.3078508       73.38224
2016    27      4       0.3317644       77.29837
2016    27      5       0.3448146       79.58118
2016    27      6       0.451928        98.43588
2016    27      7       0.4826575       102.6647
2016    28      0       0.52466         109.3358
2016    28      1       0.3639027       83.44643
2016    28      2       0.267184        65.4974
2016    28      3       0.280403        68.26813
2016    28      4       0.2732981       66.9602
2016    28      5       0.2731417       66.91958
2016    28      6       0.5254243       110.3054
2016    28      7       0.5135375       108.8178
2016    29      0       0.5172286       109.8311
2016    29      1       0.359682        83.76543
2016    29      2       0.3876918       88.90384
2016    29      3       0.3772305       87.39472
2016    29      4       0.3135888       75.71082
2016    29      5       0.3075128       74.35239
2016    29      6       0.4496782       98.92732
2016    29      7       0.4916879       106.4185
2016    30      0       0.5693278       117.7305
2016    30      1       0.2358891       59.59302
2016    30      2       0.258005        63.77744
2016    30      3       0.2329572       59.12446
2016    30      4       0.2902567       70.61606
2016    30      5       0.3425707       80.36092
2016    30      6       0.521457        109.8431
2016    30      7       0.4902253       105.3571
2016    31      0       0.3938833       90.11953
2016    31      1       0.2730001       67.68528
2016    31      2       0.3075085       74.26229
2016    31      3       0.2827362       69.44825
2016    31      4       0.2841216       69.48475
2016    31      5       0.3572713       83.04624
2016    31      6       0.555727        114.7627
2016    31      7       0.5932693       120.3405
2017    1       0       0.3193719       74.71688
2017    1       1       0.3120835       73.79695
2017    1       2       0.3504608       80.8438
2017    1       3       0.3315329       77.30125
2017    1       4       0.288689        69.19765
2017    1       5       0.3476085       80.20774
2017    1       6       0.4109323       91.41655
2017    1       7       0.4638057       100.3438
2017    2       0       0.4073428       91.18293
2017    2       1       0.3316752       77.52427
2017    2       2       0.3739535       84.62403
2017    2       3       0.3450423       79.6553
2017    2       4       0.3313689       77.14255
2017    2       5       0.432865        94.66249
2017    2       6       0.5006345       105.4484
2017    2       7       0.4987549       105.2914
2017    3       0       0.5100168       106.8836
2017    3       1       0.3908682       87.63425
2017    3       2       0.3846496       86.44851
2017    3       3       0.263623        64.29226
2017    3       4       0.3122657       73.33014
2017    3       5       0.2919004       69.50363
2017    3       6       0.2450603       60.66389
2017    3       7       0.1769997       46.43903
2017    4       0       0.1857901       48.51911
2017    4       1       0.1837351       48.20534
2017    4       2       0.2576125       63.66642
2017    4       3       0.3102511       74.33285
2017    4       4       0.3291517       78.44801
2017    4       5       0.3036846       73.79346
2017    4       6       0.3448176       81.4189
2017    4       7       0.4087446       92.85024
2017    5       0       0.380824        88.28241
2017    5       1       0.3223231       77.72914
2017    5       2       0.271363        67.7882
2017    5       3       0.2079347       54.63627
2017    5       4       0.171257        46.5183
2017    5       5       0.1591667       43.76762
2017    5       6       0.2085542       54.70547
2017    5       7       0.246027        62.67032
2017    6       0       0.2825239       70.15506
2017    6       1       0.2803816       69.92516
2017    6       2       0.2700546       67.88376
2017    6       3       0.2595393       65.74736
2017    6       4       0.2192497       57.1318
2017    6       5       0.2401863       61.49514
2017    6       6       0.2848105       70.64639
2017    6       7       0.3537178       83.52102
2017    7       0       0.4534403       100.5604
2017    7       1       0.3739754       87.52576
2017    7       2       0.4037202       92.77398
2017    7       3       0.4246437       96.75287
2017    7       4       0.5114723       110.2205
2017    7       5       0.4640762       101.5044
2017    7       6       0.3652503       85.06377
2017    7       7       0.5812109       120.0363
2017    8       0       0.4385937       98.34284
2017    8       1       0.4604962       102.0884
2017    8       2       0.3923748       90.37823
2017    8       3       0.2503098       63.15391
2017    8       4       0.2345859       59.74515
2017    8       5       0.2007461       52.85464
2017    8       6       0.3038174       73.53764
2017    8       7       0.4978477       107.0816
2017    9       0       0.5864242       121.2324
2017    9       1       0.590257        120.6624
2017    9       2       0.6113446       123.6397
2017    9       3       0.3109449       74.24019
2017    9       4       0.1881654       49.51945
2017    9       5       0.2162538       55.76124
2017    9       6       0.3084166       74.55629
2017    9       7       0.4843446       105.2754
2017    10      0       0.5167183       110.3861
2017    10      1       0.5289784       112.2654
2017    10      2       0.4697338       102.8122
2017    10      3       0.4707833       103.2362
2017    10      4       0.3592428       83.41803
2017    10      5       0.4958339       106.2038
2017    10      6       0.5467134       113.6702
2017    10      7       0.5133383       108.5957
2017    11      0       0.5440413       113.7185
2017    11      1       0.427166        95.35191
2017    11      2       0.3887211       88.93163
2017    11      3       0.270022        66.71962
2017    11      4       0.1521682       41.67626
2017    11      5       0.1500723       41.18552
2017    11      6       0.2018907       52.77204
2017    11      7       0.2357061       60.14201
2017    12      0       0.2532444       63.83786
2017    12      1       0.2047201       53.87064
2017    12      2       0.1523799       42.35878
2017    12      3       0.1488717       41.47114
2017    12      4       0.1595724       43.86352
2017    12      5       0.1712643       46.35694
2017    12      6       0.2260067       58.44377
2017    12      7       0.2798425       69.76788
2017    13      0       0.343213        82.16123
2017    13      1       0.361841        85.77753
2017    13      2       0.327057        79.34716
2017    13      3       0.2477976       63.43114
2017    13      4       0.3181407       77.46131
2017    13      5       0.2897367       71.98249
2017    13      6       0.2984573       73.57016
2017    13      7       0.3125981       76.11202
2017    14      0       0.3377834       80.65663
2017    14      1       0.4286503       96.46411
2017    14      2       0.3537883       83.70842
2017    14      3       0.2536823       64.41577
2017    14      4       0.1937786       51.52348
2017    14      5       0.1854427       49.67011
2017    14      6       0.2892433       70.92913
2017    14      7       0.3940541       90.07008
2017    15      0       0.3898452       89.73092
2017    15      1       0.3251425       78.08246
2017    15      2       0.2479567       63.00711
2017    15      3       0.1996538       52.81445
2017    15      4       0.1883646       50.0641
2017    15      5       0.1755674       47.10342
2017    15      6       0.2234181       57.64023
2017    15      7       0.3563835       83.08724
2017    16      0       0.5414603       113.6675
2017    16      1       0.5991445       122.45
2017    16      2       0.4086074       92.88404
2017    16      3       0.3972347       90.11134
2017    16      4       0.2533793       63.6419
2017    16      5       0.2136412       55.36416
2017    16      6       0.3232091       76.45585
2017    16      7       0.4223257       93.89633
2017    17      0       0.3811661       86.75507
2017    17      1       0.3439348       79.83469
2017    17      2       0.336612        78.92444
2017    17      3       0.2947469       71.36172
2017    17      4       0.2490497       62.07749
2017    17      5       0.3297335       77.29797
2017    17      6       0.5004045       105.9507
2017    17      7       0.5012009       106.4141
2017    18      0       0.5244136       109.7452
2017    18      1       0.385588        87.27545
2017    18      2       0.5017413       105.903
2017    18      3       0.5513436       113.4087
2017    18      4       0.5224912       108.6513
2017    18      5       0.5366064       110.7869
2017    18      6       0.5112817       106.5293
2017    18      7       0.4907399       103.0242
2017    19      0       0.4406932       95.28703
2017    19      1       0.413039        90.33009
2017    19      2       0.3855794       85.77367
2017    19      3       0.3517567       80.06088
2017    19      4       0.3440696       78.49976
2017    19      5       0.2510057       61.1728
2017    19      6       0.2615443       63.36595
2017    19      7       0.3149198       73.27135
2017    20      0       0.2813065       67.05351
2017    20      1       0.2136792       53.83409
2017    20      2       0.1616317       42.87641
2017    20      3       0.1504351       40.37127
2017    20      4       0.1626142       43.21026
2017    20      5       0.1694834       44.84113
2017    20      6       0.2129463       54.2269
2017    20      7       0.2565888       63.16747
2017    21      0       0.3035735       72.24505
2017    21      1       0.3224804       75.55808
2017    21      2       0.3214796       75.15292
2017    21      3       0.3055822       72.12535
2017    21      4       0.28636         68.58959
2017    21      5       0.3528517       80.88441
2017    21      6       0.4886537       103.4312
2017    21      7       0.5339445       110.8321
2017    22      0       0.5318302       110.7948
2017    22      1       0.3971625       89.22261
2017    22      2       0.2489833       61.65962
2017    22      3       0.1482349       40.4399
2017    22      4       0.1717755       45.55378
2017    22      5       0.2146789       54.51951
2017    22      6       0.4262859       93.90381
2017    22      7       0.5795132       117.0972
2017    23      0       0.4685264       100.2008
2017    23      1       0.24343         59.77437
2017    23      2       0.1699863       45.0447
2017    23      3       0.1844894       48.11142
2017    23      4       0.167066        44.51168
2017    23      5       0.2365986       59.17069
2017    23      6       0.250267        62.19123
2017    23      7       0.2164377       55.5512
2017    24      0       0.2080203       53.69175
2017    24      1       0.2724123       66.35766
2017    24      2       0.4267268       95.8059
2017    24      3       0.4315691       97.85099
2017    24      4       0.3379604       81.45009
2017    24      5       0.2429877       62.47886
2017    24      6       0.2427864       62.61861
2017    24      7       0.3652654       86.77049
2017    25      0       0.4602005       103.106
2017    25      1       0.427202        97.41445
2017    25      2       0.4013586       92.70652
2017    25      3       0.80102         150.4392
2017    25      4       0.5167253       111.9233
2017    25      5       0.65742         132.7308
2017    25      6       0.5727886       119.0717
2017    25      7       0.6814781       133.136
2017    26      0       0.672325        132.3979
2017    26      1       0.3927272       89.92269
2017    26      2       0.2571093       64.06415
2017    26      3       0.2733713       66.72687
2017    26      4       0.2649817       65.5074
2017    26      5       0.4032971       91.63675
2017    26      6       0.4777323       103.6875
2017    26      7       0.4623382       101.6763
2017    27      0       0.427135        95.508
2017    27      1       0.4684134       102.1776
2017    27      2       0.5522932       113.7252
2017    27      3       0.3227369       75.22182
2017    27      4       0.2590529       63.38469
2017    27      5       0.3167112       75.07215
2017    27      6       0.5234078       109.2088
2017    27      7       0.4515489       97.97849
2017    28      0       0.3561272       82.44087
2017    28      1       0.2367205       59.66973
2017    28      2       0.2116058       54.40281
2017    28      3       0.2526824       62.82566
2017    28      4       0.2857956       69.54664
2017    28      5       0.3265418       77.31599
2017    28      6       0.4467772       98.27133
2017    28      7       0.4169992       93.32332
2017    29      0       0.4178773       93.76435
2017    29      1       0.3665763       84.94632
2017    29      2       0.3366477       79.43511
2017    29      3       0.362695        83.92431
2017    29      4       0.42469         94.70366
2017    29      5       0.4847686       104.1141
2017    29      6       0.5198252       109.6604
2017    29      7       0.5285387       110.8937
2017    30      0       0.4351087       96.6608
2017    30      1       0.3287189       78.4212
2017    30      2       0.2698737       66.96117
2017    30      3       0.2253272       57.594
2017    30      4       0.2098687       54.30956
2017    30      5       0.2438856       61.68192
2017    30      6       0.2940479       71.85112
2017    30      7       0.3864307       88.91026
2017    31      0       0.4427946       98.64977
2017    31      1       0.3719491       86.84567
2017    31      2       0.3418917       81.57217
2017    31      3       0.358743        84.4201
2017    31      4       0.2963068       72.93262
2017    31      5       0.2730875       68.24824
2017    31      6       0.3900444       89.73778
2017    31      7       0.600897        123.5129
2018    1       0       0.4136625       91.49906
2018    1       1       0.2453843       60.9264
2018    1       2       0.2371111       58.77217
2018    1       3       0.3209379       74.83941
2018    1       4       0.475269        101.1969
2018    1       5       0.4114018       90.88361
2018    1       6       0.4931004       103.6611
2018    1       7       0.4324423       94.19336
2018    2       0       0.3916916       87.44054
2018    2       1       0.3159318       74.0664
2018    2       2       0.3458168       79.40404
2018    2       3       0.4692777       100.4271
2018    2       4       0.5456133       112.8257
2018    2       5       0.4527305       97.8558
2018    2       6       0.5635072       115.335
2018    2       7       0.5450949       112.4902
2018    3       0       0.525434        109.5278
2018    3       1       0.4480829       97.1654
2018    3       2       0.3834068       86.50193
2018    3       3       0.4492066       97.59571
2018    3       4       0.3947461       88.68037
2018    3       5       0.430712        94.84211
2018    3       6       0.5191579       108.6821
2018    3       7       0.4920447       104.6424
2018    4       0       0.471801        100.9888
2018    4       1       0.4239939       93.20329
2018    4       2       0.2758262       67.13434
2018    4       3       0.1745444       46.55057
2018    4       4       0.1192863       34.02048
2018    4       5       0.1144515       32.7927
2018    4       6       0.1821165       47.94001
2018    4       7       0.2462773       61.54112
2018    5       0       0.2866986       69.65863
2018    5       1       0.2568963       63.49574
2018    5       2       0.2930293       70.68081
2018    5       3       0.3110726       74.38613
2018    5       4       0.2874414       69.69772
2018    5       5       0.2921684       70.57403
2018    5       6       0.4494954       97.9372
2018    5       7       0.5254701       109.9306
2018    6       0       0.4166578       93.19092
2018    6       1       0.3390281       79.7272
2018    6       2       0.3073267       73.70104
2018    6       3       0.2902566       70.33755
2018    6       4       0.3773029       85.77233
2018    6       5       0.3986303       89.56891
2018    6       6       0.4175599       93.44228
2018    6       7       0.4813636       104.1995
2018    7       0       0.4438567       98.52638
2018    7       1       0.356512        83.64899
2018    7       2       0.285104        70.24653
2018    7       3       0.2797564       68.65761
2018    7       4       0.2243358       57.48073
2018    7       5       0.2305691       58.74319
2018    7       6       0.3068619       73.60685
2018    7       7       0.3506958       81.94984
2018    8       0       0.3778974       87.27161
2018    8       1       0.5461201       114.4564
2018    8       2       0.4351042       97.37424
2018    8       3       0.3200162       76.84248
2018    8       4       0.2130971       55.59697
2018    8       5       0.1725265       46.69557
2018    8       6       0.2195          56.9556
2018    8       7       0.2410727       61.60732
2018    9       0       0.2617794       65.85919
2018    9       1       0.2358624       60.59158
2018    9       2       0.2179952       56.5023
2018    9       3       0.1835598       49.185
2018    9       4       0.1798425       48.4301
2018    9       5       0.1800537       47.99003
2018    9       6       0.3052948       73.51845
2018    9       7       0.4909429       105.532
2018    10      0       0.4332764       97.49405
2018    10      1       0.480185        105.0361
2018    10      2       0.5948759       122.6104
2018    10      3       0.4115553       94.37826
2018    10      4       0.3392012       80.58915
2018    10      5       0.340969        80.92066
2018    10      6       0.4048214       92.98675
2018    10      7       0.5079773       109.6695
2018    11      0       0.4857977       105.689
2018    11      1       0.6138207       125.5922
2018    11      2       0.6617412       133.1111
2018    11      3       0.486975        106.5054
2018    11      4       0.4020524       92.33936
2018    11      5       0.3885065       89.59616
2018    11      6       0.4948787       107.0603
2018    11      7       0.5039762       108.5793
2018    12      0       0.7149123       138.3918
2018    12      1       0.6430344       129.4984
2018    12      2       0.5970167       123.3515
2018    12      3       0.4977635       108.0831
2018    12      4       0.3846926       88.7254
2018    12      5       0.3103692       74.95877
2018    12      6       0.4331414       96.90846
2018    12      7       0.6705235       133.1233
2018    13      0       0.8205954       152.46
2018    13      1       0.6798117       134.9601
2018    13      2       0.4917218       107.6072
2018    13      3       0.3576641       84.11709
2018    13      4       0.3388407       80.52897
2018    13      5       0.333887        79.70792
2018    13      6       0.5182716       110.4552
2018    13      7       0.6567155       130.0607
2018    14      0       0.7295787       139.7493
2018    14      1       0.5421638       114.2998
2018    14      2       0.4353527       97.17637
2018    14      3       0.3646072       85.06085
2018    14      4       0.3236636       77.30371
2018    14      5       0.3557734       82.8967
2018    14      6       0.5414165       113.1983
2018    14      7       0.5306751       112.1748
2018    15      0       0.5064403       108.7781
2018    15      1       0.4474387       99.05951
2018    15      2       0.4279206       95.67707
2018    15      3       0.3671862       85.38836
2018    15      4       0.2963037       72.17976
2018    15      5       0.2308902       59.06031
2018    15      6       0.2603246       65.149
2018    15      7       0.3393272       80.17952
2018    16      0       0.3627957       84.54934
2018    16      1       0.3372708       79.98039
2018    16      2       0.3057825       74.1897
2018    16      3       0.2453373       62.30752
2018    16      4       0.2053968       53.91285
2018    16      5       0.1883794       50.18876
2018    16      6       0.2084438       54.66843
2018    16      7       0.2477358       62.93255
2018    17      0       0.2720061       67.89625
2018    17      1       0.237843        61.02557
2018    17      2       0.2576512       64.85986
2018    17      3       0.2248467       58.05185
2018    17      4       0.183165        48.95114
2018    17      5       0.1839203       49.03155
2018    17      6       0.2358098       60.21153
2018    17      7       0.3333365       79.03522
2018    18      0       0.2853667       70.42173
2018    18      1       0.2505983       63.07563
2018    18      2       0.2492813       62.44575
2018    18      3       0.2221998       56.86354
2018    18      4       0.2063338       53.38611
2018    18      5       0.2099843       54.18859
2018    18      6       0.2722696       67.32162
2018    18      7       0.5493505       114.6493
2018    19      0       0.7069632       137.1281
2018    19      1       0.5377353       113.4534
2018    19      2       0.4287849       95.32444
2018    19      3       0.3880102       88.37819
2018    19      4       0.3019769       72.55649
2018    19      5       0.3716154       85.56076
2018    19      6       0.4518282       99.17529
2018    19      7       0.5950068       120.5157
2018    20      0       0.514863        109.0948
2018    20      1       0.3635737       84.14102
2018    20      2       0.3389487       79.87045
2018    20      3       0.3666422       85.12981
2018    20      4       0.3860623       88.484
2018    20      5       0.3720517       86.14764
2018    20      6       0.4651539       102.4363
2018    20      7       0.5911378       120.968
2018    21      0       0.5846748       119.8918
2018    21      1       0.3918406       90.04349
2018    21      2       0.3010052       73.00514
2018    21      3       0.2656731       66.06504
2018    21      4       0.2280104       58.29933
2018    21      5       0.2494848       62.6095
2018    21      6       0.3032335       73.65565
2018    21      7       0.4125881       93.27264
2018    22      0       0.4121195       93.68012
2018    22      1       0.4024877       92.42589
2018    22      2       0.4101174       93.91944
2018    22      3       0.4201692       95.5267
2018    22      4       0.3906176       89.54923
2018    22      5       0.3711963       86.29961
2018    22      6       0.436754        98.48457
2018    22      7       0.6789141       134.1983
2018    23      0       0.9069177       161.7279
2018    23      1       0.5726801       120.2273
2018    23      2       0.6512929       130.2499
2018    23      3       0.2707765       67.75479
2018    23      4       0.2695289       67.0174
2018    23      5       0.2977265       72.42895
2018    23      6       0.4330681       96.23142
2018    23      7       0.4524467       99.93059
2018    24      0       0.3796969       87.9903
2018    24      1       0.3591409       84.29989
2018    24      2       0.3323196       79.49172
2018    24      3       0.3059796       74.45916
2018    24      4       0.3212265       77.01601
2018    24      5       0.3393146       80.2739
2018    24      6       0.4567497       100.6254
2018    24      7       0.4854618       105.9668
2018    25      0       0.4495787       100.7629
2018    25      1       0.374491        87.9853
2018    25      2       0.343713        82.247
2018    25      3       0.3012422       73.99485
2018    25      4       0.2644483       66.58437
2018    25      5       0.2424636       62.20353
2018    25      6       0.2613281       66.15119
2018    25      7       0.2799087       69.85081
2018    26      0       0.2998479       73.69326
2018    26      1       0.2676328       67.51005
2018    26      2       0.2155972       56.67724
2018    26      3       0.1680842       46.09272
2018    26      4       0.1328964       38.06085
2018    26      5       0.1095316       32.55835
2018    26      6       0.1509698       42.43704
2018    26      7       0.2140299       56.31368
2018    27      0       0.4086851       92.50565
2018    27      1       0.3682939       85.48883
2018    27      2       0.3853103       88.1817
2018    27      3       0.5769811       119.6053
2018    27      4       0.3072673       75.66933
2018    27      5       0.2683468       67.99108
2018    27      6       0.4950304       108.5277
2018    27      7       0.773302        147.2156
2018    28      0       0.5517061       117.8601
2018    28      1       0.6009564       124.6196
2018    28      2       0.5549664       117.7307
2018    28      3       0.3720561       87.94406
2018    28      4       0.2743604       69.01346
2018    28      5       0.2702202       67.61442
2018    28      6       0.4482551       99.91042
2018    28      7       0.6735101       133.4153
2018    29      0       0.4493462       99.18482
2018    29      1       0.3200415       76.79807
2018    29      2       0.3110834       75.12712
2018    29      3       0.3232569       77.34739
2018    29      4       0.330402        78.50743
2018    29      5       0.4338218       96.28613
2018    29      6       0.6625777       130.6953
2018    29      7       0.7213778       139.1539
2018    30      0       0.6200033       127.0338
2018    30      1       0.5370582       115.0007
2018    30      2       0.457516        102.3657
2018    30      3       0.4744313       105.3662
2018    30      4       0.4529129       101.8917
2018    30      5       0.4386595       99.38939
2018    30      6       0.5688532       119.7214
2018    30      7       0.5665035       119.2423
2018    31      0       0.5107325       110.9083
2018    31      1       0.4089694       94.38483
2018    31      2       0.3938108       91.73236
2018    31      3       0.3857418       90.1735
2018    31      4       0.3893969       90.40433
2018    31      5       0.3656921       86.76026
2018    31      6       0.4238778       97.29289
2018    31      7       0.4063704       94.61556
