####################################################################################################
# Month: 11Nov                                                                                     #
# Station: SPX                                                                                     #
# Frequency: 230 GHz                                                                               #
# Columns are: year    day     tau     Tb (K)                                                      #
####################################################################################################
2009    1       0.1516584       39.895865
2009    2       0.32280966      72.4081975
2009    3       0.1441209       37.7640325
2009    4       0.14662141      38.79427125
2009    5       0.12951377      34.5974075
2009    6       0.08025041      23.8092025
2009    7       0.15285203      39.681425
2009    8       0.19331162      48.2807975
2009    9       0.20207656      50.2050375
2009    10      0.08418116      24.77111
2009    11      0.08783001      25.93172625
2009    12      0.129974        34.79606875
2009    13      0.15294514      40.51528625
2009    14      0.23004632      56.64530375
2009    15      0.27312128      63.84167625
2009    16      0.32738955      74.87496125
2009    17      0.147825        39.243035
2009    18      0.09952483      27.73352125
2009    19      0.12477811      33.50399
2009    20      0.16386857      42.95689375
2009    21      0.17004098      44.38454875
2009    22      0.21017137      51.24704625
2009    23      0.13539577      35.86141625
2009    24      0.15635356      40.69264125
2009    25      0.05865015      18.76162375
2009    26      0.08028857      23.67557375
2009    27      0.09353997      26.61337875
2009    28      0.11787184      32.140975
2009    29      0.16206457      41.643285
2009    30      0.29271534      67.98691875
2010    1       0.26104965      62.9097375
2010    2       0.1746696       45.13605125
2010    3       0.14457122      39.08945875
2010    4       0.13509716      36.99605375
2010    5       0.08276251      25.08692375
2010    6       0.08138768      24.57971
2010    7       0.19483209      48.350345
2010    8       0.17952272      45.423575
2010    9       0.18323435      46.37119625
2010    10      0.1789105       45.3141175
2010    11      0.17583528      42.4594475
2010    12      0.25149623      60.3770275
2010    13      0.21404618      54.04533125
2010    14      0.17647335      45.80054125
2010    15      0.30383596      70.84063625
2010    16      0.28318855      66.18827625
2010    17      0.09381158      27.52670875
2010    18      0.13998822      36.90981
2010    19      0.08625152      25.045175
2010    20      0.17567216      44.557375
2010    21      0.16636809      42.675335
2010    22      0.15500504      40.04093625
2010    23      0.09938072      27.96707625
2010    24      0.05291589      17.22280875
2010    25      0.08855373      25.15433125
2010    26      0.07301949      21.52016
2010    27      0.08266134      23.772645
2010    28      0.12821531      34.192005
2010    29      0.04837366      15.93397025
2010    30      0.11270436      30.04507
2011    1       0.16816184      43.75292375
2011    2       0.15792759      41.47205375
2011    3       0.32588783      75.4915175
2011    4       0.38735012      86.4117125
2011    5       0.37172076      83.7580525
2011    6       0.22686898      56.4656825
2011    7       0.29236335      68.90488125
2011    8       0.21978626      54.2686575
2011    9       0.16244556      42.802815
2011    10      0.07711459      23.5368475
2011    11      0.05930438      19.291705
2011    12      0.02890875      11.7082575
2011    13      0.04225976      15.14337375
2011    14      0.04129696      14.875035
2011    15      0.05011188      17.01060875
2011    16      0.07872382      23.90207875
2011    17      0.0751586       23.18069625
2011    18      0.05879286      19.2220375
2011    19      0.09283386      26.9760225
2011    20      0.16056311      42.08129
2011    21      0.12658004      34.91004625
2011    22      0.09739606      28.24207625
2011    23      0.10245324      29.209335
2011    24      0.07260728      22.17285375
2011    25      0.12066336      33.6686275
2011    26      0.14414908      39.00727875
2011    27      0.12437173      34.5662725
2011    28      0.10525276      29.57964875
2011    29      0.18546106      47.22811
2011    30      0.09415482      26.92871375
2012    1       0.21026845      51.6217525
2012    2       0.15763075      41.05708875
2012    3       0.14696996      39.0583725
2012    4       0.2945642       67.47242625
2012    5       0.17381463      43.8885825
2012    6       0.11435038      31.1058
2012    7       0.14797958      39.53230125
2012    8       0.20135904      50.6750025
2012    9       0.13178827      34.99347125
2012    10      0.33328356      76.40541375
2012    11      0.31414585      72.18864375
2012    12      0.06594949      20.8926075
2012    13      0.06239664      20.0565325
2012    14      0.08751611      26.24010625
2012    15      0.07527688      23.34445125
2012    16      0.07034361      22.13642875
2012    17      0.05791157      18.95354375
2012    18      0.11064385      30.8178025
2012    19      0.09903483      28.51427625
2012    20      0.07804404      23.77939
2012    21      0.1009421       28.24073
2012    22      0.09849774      27.73864875
2012    23      0.12900324      33.71066337
2012    24      0.26295132      63.33426
2012    25      0.12702036      34.59177625
2012    26      0.34272542      78.37351125
2012    27      0.28114152      66.44715875
2012    28      0.27183578      64.60737875
2012    29      0.2157555       51.67885375
2012    30      0.05368137      17.51871
2013    1       0.19574709      48.34911625
2013    2       0.22022735      51.86603625
2013    3       0.19004655      46.8283625
2013    4       0.2436096       58.91969
2013    5       0.14694067      38.6808425
2013    6       0.28557875      67.01446125
2013    7       0.12361398      34.50027
2013    8       0.23903074      57.48172125
2013    9       0.1358          35.127845
2013    10      0.148017        38.57426
2013    11      0.03882663      14.07316625
2013    12      0.07673537      23.51859125
2013    13      0.17977185      46.0150075
2013    14      0.11751622      32.04914375
2013    15      0.11023786      30.13397875
2013    16      0.06713908      21.20073125
2013    17      0.08258721      24.63076625
2013    18      0.16617383      43.2443975
2013    19      0.24477391      58.76153625
2013    20      0.18064028      45.8187825
2013    21      0.17183626      43.561385
2013    22      0.10876448      29.61005
2013    23      0.11970266      32.4134375
2013    24      0.11644592      32.03574
2013    25      0.05104038      16.84802375
2013    26      0.05989604      19.08482125
2013    27      0.04162704      14.66287875
2013    28      0.1435536       38.0832575
2013    29      0.14157632      37.4209275
2013    30      0.10402711      28.31886625
2014    1       0.09918786      28.8794625
2014    2       0.07320341      22.598995
2014    3       0.14554664      38.71439125
2014    4       0.22390849      55.4890325
2014    5       0.35552908      80.28853125
2014    6       0.20249354      50.38452125
2014    7       0.119878        32.7201925
2014    8       0.05382502      17.770765
2014    9       0.16753552      42.66883875
2014    10      0.2872542       67.5541975
2014    11      0.27318844      65.0159275
2014    12      0.32177471      74.22784875
2014    13      0.1680876       43.14343
2014    14      0.18238331      45.71028625
2014    15      0.3100105       71.71466375
2014    16      0.17366168      44.00568375
2014    17      0.20511568      50.593405
2014    18      0.11038185      30.37205
2014    19      0.07025149      21.73407125
2014    20      0.16140511      41.9653775
2014    21      0.14584893      39.47414625
2014    22      0.14431898      38.9579875
2014    23      0.22473514      55.97616875
2014    24      0.26510731      63.59908125
2014    25      0.23715785      58.26472375
2014    26      0.19456599      49.52946125
2014    27      0.17328733      44.56177875
2014    28      0.18981489      48.35946875
2014    29      0.10850896      30.7061625
2014    30      0.22136688      54.55671875
2015    1       0.02616946      11.00516388
2015    2       0.05314761      17.84714138
2015    3       0.20137174      50.37960375
2015    4       0.1495508       40.02271
2015    5       0.11746541      32.920445
2015    6       0.120632        32.7824175
2015    7       0.21661249      54.78479625
2015    8       0.12737995      35.48151125
2015    9       0.15750825      41.76975875
2015    10      0.14481189      39.548115
2015    11      0.07799132      24.087985
2015    12      0.08726096      26.03821625
2015    13      0.14675527      39.29233125
2015    14      0.16701495      43.21911125
2015    15      0.1927529       49.27592875
2015    16      0.08215833      24.86338
2015    17      0.12910911      35.350405
2015    18      0.05004849      16.86541125
2015    19      0.10408299      29.4165075
2015    20      0.35671582      79.45459375
2015    21      0.11354979      30.1040275
2015    22      0.06235034      19.36895625
2015    23      0.04034953      14.1225875
2015    24      0.13532864      35.47623625
2015    25      0.17208102      43.372265
2015    26      0.05228973      17.2162825
2015    27      0.03423243      12.9969275
2015    28      0.09709147      27.42531625
2015    29      0.14041195      37.30244125
2015    30      0.09464716      27.03827875
2016    1       0.15026195      40.60448875
2016    2       0.1165583       32.44451375
2016    3       0.11042412      31.0380425
2016    4       0.15587271      40.86000625
2016    5       0.32039413      73.70198625
2016    6       0.21536436      51.700585
2016    7       0.08474975      24.62841
2016    8       0.05683281      18.1779775
2016    9       0.17041593      42.8671
2016    10      0.14836504      38.61091625
2016    11      0.14388378      37.5025625
2016    12      0.09254855      26.42576625
2016    13      0.21753819      53.513555
2016    14      0.08471098      25.0463975
2016    15      0.1884269       48.2702825
2016    16      0.25059758      61.17309
2016    17      0.09675822      28.249825
2016    18      0.18052872      46.19322875
2016    19      0.17562686      44.436355
2016    20      0.13967871      37.24931875
2016    21      0.34244275      77.567335
2016    22      0.29700421      69.274895
2016    23      0.27075222      64.11155875
2016    24      0.19791785      50.0618175
2016    25      0.31941318      73.81816
2016    26      0.17682831      44.79565625
2016    27      0.1316621       35.4559725
2016    28      0.04660774      15.95156
2016    29      0.04632399      15.90363125
2016    30      0.05347946      17.67278125
2017    1       0.17376494      45.170365
2017    2       0.16381169      42.64226125
2017    3       0.12271335      34.18967125
2017    4       0.27036836      64.31202
2017    5       0.30059664      69.4154825
2017    6       0.15081691      39.32167875
2017    7       0.16316818      42.62791375
2017    8       0.25154052      60.20272
2017    9       0.08525208      24.91374
2017    10      0.12372835      33.0027825
2017    11      0.26131535      62.33496625
2017    12      0.21088582      51.6110725
2017    13      0.04795155      16.0315125
2017    14      0.09584925      27.645665
2017    15      0.05229246      17.35674
2017    16      0.07573433      22.86937375
2017    17      0.09122951      26.51437625
2017    18      0.04737487      15.9855625
2017    19      0.10150502      28.0958
2017    20      0.11307048      31.2304575
2017    21      0.11206337      31.39757375
2017    22      0.05979007      19.378125
2017    23      0.07997154      24.162965
2017    24      0.14188277      37.4769575
2017    25      0.16110515      41.10264625
2017    26      0.03610863      13.21623625
2017    27      0.11672454      31.70352625
2017    28      0.14666107      38.44634375
2017    29      0.0933288       26.46574
2017    30      0.07877578      23.02861875
2018    1       0.15158765      39.460735
2018    2       0.16038129      41.77241375
2018    3       0.14172708      38.25704375
2018    4       0.24609891      60.14850625
2018    5       0.24360987      58.94686
2018    6       0.22492654      55.91525625
2018    7       0.19106         47.6798475
2018    8       0.18656346      47.29686
2018    9       0.13511228      36.58347875
2018    10      0.19767738      49.44311875
2018    11      0.13814866      37.36542375
2018    12      0.15599236      41.6346825
2018    13      0.09954919      28.44453375
2018    14      0.04707059      16.17750875
2018    15      0.06028594      19.3892275
2018    16      0.08866168      25.822455
2018    17      0.0360459       13.35216412
2018    18      0.05599549      18.14301625
2018    19      0.10050454      28.13119625
2018    20      0.08808343      25.58203
2018    21      0.18279676      46.24360625
2018    22      0.05975791      19.18705875
2018    23      0.20118609      48.69871125
2018    24      0.15978922      40.53228
2018    25      0.12588463      34.3044175
2018    26      0.13380346      35.98319375
2018    27      0.13614595      36.0967725
2018    28      0.15928623      41.48785625
2018    29      0.20061085      50.65820625
2018    30      0.21385126      52.3559925
