####################################################################################################
# Month: 04Apr                                                                                     #
# Station: SMT                                                                                     #
# Frequency: 345 GHz                                                                               #
# Columns are: year    day     tau     Tb (K)                                                      #
####################################################################################################
2009    1       0.515686        105.33045875
2009    2       0.49064864      106.45815625
2009    3       0.29423105      72.01725625
2009    4       0.24045091      60.9232425
2009    5       0.08407466      26.7684375
2009    6       0.21375655      54.80897125
2009    7       0.31292659      75.90035
2009    8       0.49703014      105.76361625
2009    9       0.18941766      49.9689425
2009    10      0.51884321      106.48746875
2009    11      0.65798665      126.45929875
2009    12      0.48722548      102.93662
2009    13      0.23914899      60.70782125
2009    14      0.58931452      119.6139875
2009    15      0.67927184      127.74020375
2009    16      0.22014978      55.4266575
2009    17      0.31410579      73.76951375
2009    18      0.27572859      68.10630375
2009    19      0.33661145      81.28862375
2009    20      0.37963758      87.1511525
2009    21      0.28321471      71.0638
2009    22      0.69363579      132.01045625
2009    23      0.68151419      133.33795
2009    24      0.71904275      135.343
2009    25      1.02440215      170.4756625
2009    26      0.34505531      79.08038375
2009    27      0.30762588      74.7410475
2009    28      0.56996749      116.557475
2009    29      0.57770561      117.46395625
2009    30      0.23667633      60.71598
2010    1       0.5497431       113.5108925
2010    2       0.31414741      72.01968
2010    3       0.45773864      99.14581125
2010    4       0.4202443       95.35039875
2010    5       0.33883355      80.56758
2010    6       0.35991805      81.8069525
2010    7       0.16296086      45.1247425
2010    8       0.19287518      51.377385
2010    9       0.28450661      69.67806
2010    10      0.20411598      53.53666875
2010    11      0.33326631      79.00803625
2010    12      0.29005229      70.12917125
2010    13      0.16745465      45.95063875
2010    14      0.19264965      51.58870875
2010    15      0.28241975      69.24846
2010    16      0.71688322      136.377825
2010    17      0.69089049      124.62163625
2010    18      0.61129851      125.5897875
2010    19      0.94196351      163.8939125
2010    20      0.83293046      152.9811125
2010    21      0.67576486      131.3794875
2010    22      0.66548661      120.57223
2010    23      0.65875929      125.24283625
2010    24      0.44242652      94.745725
2010    25      0.15544119      43.73947125
2010    26      0.31869236      77.67271375
2010    27      0.5390842       114.613125
2010    28      0.83326959      147.825625
2010    29      0.59499143      121.70651375
2010    30      0.32018534      75.36029
2011    1       0.31924415      76.87401125
2011    2       0.47064949      102.5089775
2011    3       0.60013598      121.5334725
2011    4       0.27157716      67.67436125
2011    5       0.4918968       103.32788375
2011    6       1.01129061      168.1843
2011    7       0.85635475      146.49664125
2011    8       0.22138732      55.4296525
2011    9       0.56513356      112.00254875
2011    10      0.2833049       67.35185375
2011    11      0.18689628      50.07410375
2011    12      0.30557336      73.60167625
2011    13      0.28261961      69.82214
2011    14      0.34590741      81.50064375
2011    15      0.46791701      103.64936125
2011    16      0.54540198      116.11676625
2011    17      0.41595405      94.51291875
2011    18      0.34295385      81.96573875
2011    19      0.39187637      84.873155
2011    20      0.40254976      89.7285575
2011    21      0.49288696      105.71723375
2011    22      0.59751354      122.1906375
2011    23      0.9853749       168.8102
2011    24      0.65988389      128.202125
2011    25      0.48779865      104.32931125
2011    26      0.31919686      76.6826275
2011    27      0.44777852      99.94935875
2011    28      0.4889762       107.441275
2011    29      0.33909869      80.6581675
2011    30      0.534371        113.622755
2012    1       0.2261708       58.6661
2012    2       0.2318364       59.19726625
2012    3       0.35952172      83.59452
2012    4       0.39450715      87.56462
2012    5       0.58927188      119.98102
2012    6       0.35553196      82.17532875
2012    7       0.49309621      98.5966
2012    8       0.71161669      136.782575
2012    9       0.61009085      123.1945
2012    10      0.48928175      105.50658375
2012    11      0.59339792      119.10065625
2012    12      0.36721631      83.44203
2012    13      0.43526815      90.57506125
2012    14      0.42993941      94.96192625
2012    15      0.29818482      71.32805625
2012    16      0.23152748      59.36582
2012    17      0.24395335      62.0715025
2012    18      0.23136159      59.73362375
2012    19      0.52553166      107.25507625
2012    20      0.55463718      117.60111125
2012    21      0.49862051      109.3500375
2012    22      0.49451958      107.47965
2012    23      0.81860749      150.8280375
2012    24      0.61945869      120.9534225
2012    25      0.93988041      158.6092625
2012    26      1.34131385      194.4366875
2012    27      0.30732668      75.73201875
2012    28      0.53419798      114.5475625
2012    29      0.54280414      114.88648875
2012    30      0.54859835      115.790025
2013    1       0.19766811      52.38845375
2013    2       0.22118555      56.72340625
2013    3       0.21404246      55.726965
2013    4       0.16281942      44.42961875
2013    5       0.65129509      124.9276425
2013    6       0.46936141      101.33173
2013    7       0.546449        115.5168875
2013    8       0.5214785       109.6895475
2013    9       0.59618521      117.59465875
2013    10      0.54154028      110.4122275
2013    11      0.35990038      82.62262125
2013    12      0.72811179      136.8772375
2013    13      0.73597954      136.59871
2013    14      0.41241566      94.4756625
2013    15      0.34210408      81.2856
2013    16      0.29478044      72.6789425
2013    17      0.20131         52.9947125
2013    18      0.12473142      36.09173
2013    19      0.11884151      34.87435875
2013    20      0.25054402      62.87983625
2013    21      0.31499791      76.12283625
2013    22      0.34688275      83.01341375
2013    23      0.38392338      89.17742375
2013    24      0.27677708      66.07840125
2013    25      0.91972416      149.49007625
2013    26      0.20317354      53.89958
2013    27      0.31387859      76.26598875
2013    28      0.46823455      103.34704625
2013    29      0.42430081      96.87643625
2013    30      0.53365579      114.57996875
2014    1       0.24064369      60.97014375
2014    2       0.38166259      87.56596625
2014    3       0.21499629      54.6144875
2014    4       0.29987756      70.4471575
2014    5       0.51243328      106.96182125
2014    6       0.42105551      92.92878125
2014    7       0.24085114      60.5653675
2014    8       0.23358615      60.2596175
2014    9       0.21291017      55.71117125
2014    10      0.20889144      53.53812
2014    11      0.52449882      107.60189625
2014    12      0.90822061      158.3771125
2014    13      0.42314377      94.0620375
2014    14      0.20189567      53.02213375
2014    15      0.19123531      51.42539125
2014    16      0.34179192      80.26126375
2014    17      0.56756868      118.331545
2014    18      0.89302625      150.6364375
2014    19      1.30265624      190.737225
2014    20      0.97111375      165.2091875
2014    21      0.78911838      148.8706
2014    22      0.65846444      132.6073625
2014    23      0.3886112       89.083605
2014    24      0.22615119      57.50533625
2014    25      0.6154466       125.28309875
2014    26      0.74532225      140.4529375
2014    27      0.4650923       100.1361175
2014    28      0.52041932      111.65319375
2014    29      0.37315796      85.20033875
2014    30      0.1702902       46.644355
2015    1       0.42989133      96.81593375
2015    2       0.22984764      57.9550875
2015    3       0.36298122      83.6709225
2015    4       0.55255748      112.2174275
2015    5       0.62860287      121.5048
2015    6       0.2175481       56.1541225
2015    7       0.20412596      53.281865
2015    8       0.27131611      66.32047375
2015    9       0.23425953      59.33907125
2015    10      0.36583171      84.4985075
2015    11      0.45208175      99.16633875
2015    12      0.98424476      163.3942875
2015    13      0.60669182      117.11331
2015    14      0.86453171      154.526275
2015    15      0.477573        102.2309325
2015    16      0.29550108      70.8089975
2015    17      0.23421268      59.091195
2015    18      0.36624574      82.75298875
2015    19      0.4060498       91.8971675
2015    20      0.53286429      112.251975
2015    21      0.712351        135.063715
2015    22      0.41926319      93.63498
2015    23      0.5290796       111.93673375
2015    24      0.73868059      135.1339025
2015    25      0.62984242      126.0597
2015    26      0.94558834      160.788225
2015    27      0.65171276      127.5189625
2015    28      0.66737696      131.9856
2015    29      0.5424856       105.97105375
2015    30      0.41699521      95.2873275
2016    1       0.54007266      110.58408625
2016    2       0.38706685      86.39044625
2016    3       0.19447995      52.08046
2016    4       0.20170946      53.0631625
2016    5       0.4177464       92.91312375
2016    6       0.23460035      58.843825
2016    7       0.82463262      135.02652875
2016    8       1.09944695      173.74915
2016    9       0.56631155      108.3591175
2016    10      0.49368524      102.66379875
2016    11      0.49047226      101.841675
2016    12      0.89971171      154.509425
2016    13      0.4227519       93.4861775
2016    14      0.38890881      88.81482125
2016    15      0.60858288      122.63925
2016    16      0.35031194      81.5096575
2016    17      0.50385642      106.73600625
2016    18      0.31783699      76.2714675
2016    19      0.29485952      72.7837875
2016    20      0.43345865      97.99154125
2016    21      0.32976101      79.253675
2016    22      0.80326808      149.4409375
2016    23      0.56434736      119.1336275
2016    24      0.402363        91.40561625
2016    25      0.45217958      99.18543
2016    26      0.30256071      72.44123125
2016    27      0.49177118      101.2931125
2016    28      0.56570954      110.3029025
2016    29      0.46909549      100.03485125
2016    30      0.637895        125.55171125
2017    1       0.54854631      111.35711875
2017    2       0.39055382      86.867335
2017    3       0.41925929      94.3958225
2017    4       0.37046929      83.3871825
2017    5       0.54723919      115.2634625
2017    6       0.58075218      120.68065
2017    7       0.55678716      114.98042
2017    8       0.48311351      104.49793125
2017    9       0.34219339      77.39703375
2017    10      0.47722669      102.98675125
2017    11      0.35802991      83.577645
2017    12      0.39218534      90.26901125
2017    13      0.22263295      57.0311175
2017    14      0.3489011       80.77095625
2017    15      0.18329855      49.15151375
2017    16      0.21514365      56.079905
2017    17      0.44880025      97.59967
2017    18      0.54427609      113.30607375
2017    19      0.22046835      58.182875
2017    20      0.22024834      57.846115
2017    21      0.18476246      49.934495
2017    22      0.32963767      79.18302125
2017    23      0.27554254      69.20864875
2017    24      0.41418754      92.692575
2017    25      1.35290665      196.04575
2017    26      0.64934651      127.1814525
2017    27      0.93451525      164.8569
2017    28      1.06518549      176.4426875
2017    29      0.46199855      94.091485
2017    30      0.32009801      74.99154875
2018    1       0.48129304      100.81467375
2018    2       0.60734644      122.7332125
2018    3       0.64774995      128.5235375
2018    4       0.48250851      105.29300625
2018    5       0.72692161      139.863025
2018    6       1.22487929      182.39115
2018    7       1.66039088      221.4476375
2018    8       0.82489588      142.03944125
2018    9       0.26762148      67.4656575
2018    10      0.245742        63.834345
2018    11      0.34023571      80.80281125
2018    12      0.48171772      104.8371825
2018    13      0.11925475      34.853875
2018    14      0.13657126      38.49209875
2018    15      0.29974872      72.62639875
2018    16      0.40121955      89.96968875
2018    17      0.50991475      101.99940375
2018    18      0.18803869      51.12195875
2018    19      0.52743646      107.0238925
2018    20      0.32402519      75.77442
2018    21      0.26397909      66.41949875
2018    22      0.51066305      104.708805
2018    23      0.7805333       144.408675
2018    24      0.38268125      88.70574125
2018    25      0.65866014      130.821125
2018    26      0.76744519      144.392
2018    27      1.42046138      202.1911
2018    28      1.09912411      176.917325
2018    29      0.49310989      97.41566625
2018    30      0.33941758      80.1688625
