####################################################################################################
# Month: 01Jan                                                                                     #
# Station: SAL                                                                                     #
# Frequency: 230 GHz                                                                               #
# Columns are: year    day     segment         tau     Tb (K)                                      #
####################################################################################################
2009    1       0       0.6923447       141.9747
2009    1       1       0.5993397       128.46
2009    1       2       0.6478631       135.0324
2009    1       3       0.7479551       148.255
2009    1       4       0.5888559       126.7235
2009    1       5       0.4930447       111.6193
2009    1       6       0.4407761       102.6859
2009    1       7       0.3775449       91.18144
2009    2       0       0.3713219       89.88277
2009    2       1       0.3442289       84.71034
2009    2       2       0.3199766       79.73115
2009    2       3       0.2861022       72.98703
2009    2       4       0.2732231       70.31979
2009    2       5       0.3222945       80.26521
2009    2       6       0.4191078       98.44547
2009    2       7       0.3950987       93.85422
2009    3       0       0.3937547       93.52774
2009    3       1       0.3376128       82.83927
2009    3       2       0.4024227       94.72615
2009    3       3       0.3191197       79.18991
2009    3       4       0.3452681       84.54994
2009    3       5       0.4350693       101.05
2009    3       6       0.477236        108.363
2009    3       7       0.589079        126.4236
2009    4       0       0.5841343       125.4437
2009    4       1       0.4925245       110.7632
2009    4       2       0.5023246       112.2694
2009    4       3       0.4628783       105.545
2009    4       4       0.4555328       104.3807
2009    4       5       0.4383471       101.696
2009    4       6       0.4371119       101.6549
2009    4       7       0.5532521       121.3231
2009    5       0       0.4902577       111.4068
2009    5       1       0.432679        101.6081
2009    5       2       0.4927145       111.8115
2009    5       3       0.4263133       100.2911
2009    5       4       0.3976613       95.13991
2009    5       5       0.3698142       90.19231
2009    5       6       0.3324694       83.00772
2009    5       7       0.2994346       76.13031
2009    6       0       0.3048181       77.26244
2009    6       1       0.2712566       70.22052
2009    6       2       0.3198747       79.96944
2009    6       3       0.2892408       73.86674
2009    6       4       0.2646466       68.78023
2009    6       5       0.2679341       69.55519
2009    6       6       0.2932774       75.03665
2009    6       7       0.3599974       88.61564
2009    7       0       0.341327        85.09659
2009    7       1       0.2632583       68.91023
2009    7       2       0.4065604       96.00877
2009    7       3       0.6989          140.0225
2009    7       4       0.7860607       150.7285
2009    7       5       0.762443        150.0853
2009    7       6       0.7935839       154.2802
2009    7       7       0.7292087       145.6096
2009    8       0       0.6449138       133.4322
2009    8       1       0.6200743       128.9454
2009    8       2       0.6306513       129.7686
2009    8       3       0.6978577       139.9763
2009    8       4       0.5378869       117.5888
2009    8       5       0.5231282       115.3735
2009    8       6       0.6051596       128.2153
2009    8       7       0.6127508       129.3515
2009    9       0       0.580647        123.9393
2009    9       1       0.5084188       111.6696
2009    9       2       0.5388392       116.3297
2009    9       3       0.63732         131.7626
2009    9       4       0.667542        137.142
2009    9       5       0.707827        143.0961
2009    9       6       0.6275051       131.8854
2009    9       7       0.5147429       114.3786
2009    10      0       0.5244237       116.1939
2009    10      1       0.5664517       123.2591
2009    10      2       0.5811604       125.4062
2009    10      3       0.5760814       124.8228
2009    10      4       0.5229381       116.2947
2009    10      5       0.5564537       121.499
2009    10      6       0.6396215       133.9588
2009    10      7       0.6826551       140.0154
2009    11      0       0.7428835       147.7813
2009    11      1       0.8027913       154.0236
2009    11      2       0.851176        159.4084
2009    11      3       1.127024        187.6044
2009    11      4       1.065996        183.3134
2009    11      5       1.143771        189.7412
2009    11      6       0.8554549       162.0857
2009    11      7       0.698911        143.4142
2009    12      0       0.7331874       147.8953
2009    12      1       0.7837822       154.1371
2009    12      2       0.7164413       145.6361
2009    12      3       0.7694609       152.3266
2009    12      4       0.6876193       142.0246
2009    12      5       0.6852796       141.9454
2009    12      6       0.7235261       146.8482
2009    12      7       0.7113239       145.6942
2009    13      0       0.6407557       136.0164
2009    13      1       0.6278634       134.2105
2009    13      2       0.683435        142.2079
2009    13      3       0.6791571       141.8316
2009    13      4       0.6733408       141.3118
2009    13      5       0.6870515       143.4052
2009    13      6       0.6476184       137.3516
2009    13      7       0.4315582       102.2102
2009    14      0       0.2110248       57.65891
2009    14      1       0.1310527       38.75478
2009    14      2       0.1252102       37.24642
2009    14      3       0.3546905       87.51059
2009    14      4       0.3189726       80.65817
2009    14      5       0.3330651       83.53286
2009    14      6       0.3585185       88.51204
2009    14      7       0.2692973       70.59071
2009    15      0       0.2365782       63.53658
2009    15      1       0.2011807       55.45737
2009    15      2       0.1890218       52.63339
2009    15      3       0.2881353       74.44287
2009    15      4       0.3045781       77.68203
2009    15      5       0.2917396       75.14375
2009    15      6       0.2513323       66.58778
2009    15      7       0.2099048       57.44292
2009    16      0       0.1808889       50.71884
2009    16      1       0.1644713       46.87178
2009    16      2       0.160671        45.89908
2009    16      3       0.2009742       55.18348
2009    16      4       0.2145283       58.21281
2009    16      5       0.279433        72.49738
2009    16      6       0.4504761       105.4264
2009    16      7       0.5207894       117.4598
2009    17      0       0.4655797       107.9385
2009    17      1       0.4246176       100.3228
2009    17      2       0.2978951       75.57302
2009    17      3       0.3467857       85.92626
2009    17      4       0.3561873       87.54706
2009    17      5       0.4024063       96.30842
2009    17      6       0.5024028       114.0377
2009    17      7       0.4432812       104.0413
2009    18      0       0.3868805       93.4151
2009    18      1       0.3552211       87.28245
2009    18      2       0.3230172       80.93986
2009    18      3       0.3336289       83.01029
2009    18      4       0.309971        78.23016
2009    18      5       0.2504022       65.83648
2009    18      6       0.3109301       78.90096
2009    18      7       0.2879538       74.43676
2009    19      0       0.2648024       69.23252
2009    19      1       0.2028294       55.50425
2009    19      2       0.155832        44.50123
2009    19      3       0.2560225       67.23441
2009    19      4       0.2708715       70.50235
2009    19      5       0.2775502       71.87978
2009    19      6       0.3035222       77.51072
2009    19      7       0.2775559       72.20292
2009    20      0       0.2501984       66.05863
2009    20      1       0.2656092       69.05734
2009    20      2       0.2872779       73.44559
2009    20      3       0.4384163       102.3146
2009    20      4       0.6162344       130.7468
2009    20      5       0.7083779       144.0526
2009    20      6       0.7538643       149.4241
2009    20      7       1.033752        180.4235
2009    21      0       0.9477523       173.3162
2009    21      1       0.7357091       147.4104
2009    21      2       0.6197264       130.1576
2009    21      3       0.6373486       132.9227
2009    21      4       0.7632783       150.5982
2009    21      5       0.7871325       154.8745
2009    21      6       0.5747349       123.8832
2009    21      7       0.208791        55.35403
2009    22      0       0.141056        40.85228
2009    22      1       0.2185886       58.48839
2009    22      2       0.4404006       101.9487
2009    22      3       0.6459347       134.8537
2009    22      4       0.583036        126.0251
2009    22      5       0.6428741       134.7126
2009    22      6       1.173524        193.9349
2009    22      7       0.7806411       153.6888
2009    23      0       0.599958        128.8332
2009    23      1       0.5583547       122.3878
2009    23      2       0.5356674       118.3835
2009    23      3       0.4414343       102.4716
2009    23      4       0.4636827       105.0241
2009    23      5       0.3518122       85.57872
2009    23      6       0.3233693       80.23211
2009    23      7       0.3895415       93.32228
2009    24      0       0.3662922       89.0729
2009    24      1       0.3330774       82.64927
2009    24      2       0.3329358       82.56137
2009    24      3       0.2995309       76.10402
2009    24      4       0.3309868       82.22945
2009    24      5       0.3865042       93.02118
2009    24      6       0.4521603       105.0546
2009    24      7       0.5048661       114.0878
2009    25      0       0.4809378       110.0651
2009    25      1       0.4756405       109.2494
2009    25      2       0.4665512       107.5816
2009    25      3       0.4524214       105.0068
2009    25      4       0.5079183       113.9569
2009    25      5       0.5281098       117.2357
2009    25      6       0.5782989       125.0348
2009    25      7       0.5873354       126.6662
2009    26      0       0.5151212       115.3604
2009    26      1       0.5028165       113.0006
2009    26      2       0.6608621       137.2095
2009    26      3       0.9968533       178.6496
2009    26      4       1.411624        212.6656
2009    26      5       1.212523        198.4772
2009    26      6       0.816425        158.0475
2009    26      7       0.7259883       146.0112
2009    27      0       0.5491464       120.4005
2009    27      1       0.2219574       59.73013
2009    27      2       0.1658686       46.94772
2009    27      3       0.1940869       53.30945
2009    27      4       0.1932545       52.94412
2009    27      5       0.218899        58.75519
2009    27      6       0.4020155       96.11663
2009    27      7       0.3461479       85.60146
2009    28      0       0.27755         71.64584
2009    28      1       0.2980475       75.88045
2009    28      2       0.4333828       101.8776
2009    28      3       0.4526103       105.2868
2009    28      4       0.4078583       97.31563
2009    28      5       0.3891953       93.8929
2009    28      6       0.3974168       95.38568
2009    28      7       0.4185113       99.46358
2009    29      0       0.3906518       94.49279
2009    29      1       0.3468905       86.01211
2009    29      2       0.3129643       79.16208
2009    29      3       0.4211451       99.96432
2009    29      4       0.3989628       95.44771
2009    29      5       0.3367494       83.46906
2009    29      6       0.2987907       75.88653
2009    29      7       0.2810954       72.45722
2009    30      0       0.2607492       68.08772
2009    30      1       0.2553149       66.97992
2009    30      2       0.2671921       69.61838
2009    30      3       0.3856942       93.62852
2009    30      4       0.3972749       95.70809
2009    30      5       0.4384139       103.452
2009    30      6       0.5311667       119.2375
2009    30      7       0.4962256       113.801
2009    31      0       0.4318742       102.5297
2009    31      1       0.4012828       96.83421
2009    31      2       0.3287719       82.70863
2009    31      3       0.3351799       84.02808
2009    31      4       0.3178736       80.37725
2009    31      5       0.2874501       74.16762
2009    31      6       0.2940392       75.5243
2009    31      7       0.3568934       88.27981
2010    1       0       0.6997132       143.0835
2010    1       1       0.7556248       149.5624
2010    1       2       0.8216282       158.5696
2010    1       3       0.8644183       164.3593
2010    1       4       0.9660952       175.0519
2010    1       5       1.185897        195.0646
2010    1       6       1.27284         202.8086
2010    1       7       1.309089        207.0201
2010    2       0       1.46753         217.8633
2010    2       1       1.461359        216.8794
2010    2       2       1.315736        206.6779
2010    2       3       1.507381        219.9745
2010    2       4       1.756566        233.6668
2010    2       5       2.006379        244.7117
2010    2       6       1.793699        236.2224
2010    2       7       1.308367        207.5455
2010    3       0       1.131818        193.4495
2010    3       1       1.077929        188.3281
2010    3       2       1.052834        185.1439
2010    3       3       1.108727        190.3562
2010    3       4       0.6480463       137.3727
2010    3       5       0.5215285       117.7014
2010    3       6       0.6042343       130.3405
2010    3       7       0.5952305       128.6704
2010    4       0       0.4320342       102.0077
2010    4       1       0.262995        68.9202
2010    4       2       0.2302158       61.84831
2010    4       3       0.4082976       97.68268
2010    4       4       0.3696126       90.50501
2010    4       5       0.3716179       91.13609
2010    4       6       0.3943829       95.45312
2010    4       7       0.3932026       95.28256
2010    5       0       0.3302777       83.15524
2010    5       1       0.2872072       74.15819
2010    5       2       0.313221        79.48172
2010    5       3       0.3325834       83.39654
2010    5       4       0.3802923       92.61556
2010    5       5       0.4261199       101.2293
2010    5       6       0.5097642       115.7514
2010    5       7       0.6162054       132.8027
2010    6       0       0.7112734       146.4379
2010    6       1       1.289842        208.0769
2010    6       2       0.8439955       163.4242
2010    6       3       0.6775785       142.2026
2010    6       4       0.6000653       130.7746
2010    6       5       0.5094715       116.1664
2010    6       6       0.394393        95.04662
2010    6       7       0.3918605       94.25101
2010    7       0       0.3942121       94.43537
2010    7       1       0.3007813       76.51657
2010    7       2       0.3079634       77.59601
2010    7       3       0.4530586       104.5126
2010    7       4       0.4801079       109.5433
2010    7       5       0.4882157       111.4364
2010    7       6       0.574169        125.905
2010    7       7       0.5597611       124.2367
2010    8       0       0.5293874       119.2767
2010    8       1       0.497398        113.8985
2010    8       2       0.4242369       100.8673
2010    8       3       0.3728266       91.12877
2010    8       4       0.3668158       89.84015
2010    8       5       0.4061682       97.16758
2010    8       6       0.5419649       120.8874
2010    8       7       0.5235254       117.9189
2010    9       0       0.5981873       129.8277
2010    9       1       0.5874444       128.3774
2010    9       2       0.5767643       127.1148
2010    9       3       0.5940331       130.154
2010    9       4       0.6754147       141.5862
2010    9       5       0.6992629       144.1035
2010    9       6       0.7495947       149.7064
2010    9       7       0.7267817       146.3249
2010    10      0       0.7245014       145.8232
2010    10      1       0.6984967       142.5598
2010    10      2       0.832752        159.1791
2010    10      3       1.721256        229.104
2010    10      4       1.777301        231.1512
2010    10      5       1.795249        231.3978
2010    10      6       1.487865        215.2354
2010    10      7       1.107153        187.707
2010    11      0       0.9359503       172.0175
2010    11      1       0.7833625       154.5478
2010    11      2       0.7688796       152.5997
2010    11      3       0.6875811       142.0794
2010    11      4       0.7703167       152.4742
2010    11      5       0.7981562       155.6965
2010    11      6       0.8723295       164.3718
2010    11      7       0.9854529       177.468
2010    12      0       0.9353627       172.297
2010    12      1       0.7869619       154.5705
2010    12      2       0.7143513       144.8293
2010    12      3       0.8191985       158.4302
2010    12      4       0.8194338       158.3264
2010    12      5       1.003925        179.3896
2010    12      6       0.9561875       174.2044
2010    12      7       1.072444        186.6438
2010    13      0       0.8741414       165.7354
2010    13      1       0.9069839       168.9839
2010    13      2       0.7745011       153.9223
2010    13      3       0.7556522       152.3585
2010    13      4       0.9344151       174.0744
2010    13      5       1.1815          197.8746
2010    13      6       1.511749        221.0666
2010    13      7       1.443756        216.9442
2010    14      0       1.142776        194.1645
2010    14      1       1.315156        207.3879
2010    14      2       1.355227        210.4992
2010    14      3       1.364641        211.3766
2010    14      4       0.9169672       171.679
2010    14      5       0.5133221       116.091
2010    14      6       0.3413632       84.37928
2010    14      7       0.2379344       62.8676
2010    15      0       0.2667833       68.98135
2010    15      1       0.5601396       122.8089
2010    15      2       0.6808482       140.1702
2010    15      3       0.6459899       135.2846
2010    15      4       0.5775391       124.9756
2010    15      5       0.5571307       121.8886
2010    15      6       0.542927        119.5779
2010    15      7       0.5061411       113.9714
2010    16      0       0.4742269       108.5986
2010    16      1       0.4315127       101.1328
2010    16      2       0.4082798       96.76389
2010    16      3       0.4431597       103.2765
2010    16      4       0.4128568       97.83947
2010    16      5       0.4053453       96.61507
2010    16      6       0.4145651       98.3892
2010    16      7       0.3718847       90.59063
2010    17      0       0.3554945       87.4672
2010    17      1       0.3398665       84.28909
2010    17      2       0.3405982       84.30392
2010    17      3       0.3632312       88.70389
2010    17      4       0.4046189       96.35538
2010    17      5       0.4722776       108.3276
2010    17      6       0.4771438       109.2523
2010    17      7       0.4560699       105.8544
2010    18      0       0.4389305       103.0499
2010    18      1       0.4599769       107.1483
2010    18      2       0.4203858       99.89178
2010    18      3       0.4523774       105.1665
2010    18      4       0.7618694       149.0786
2010    18      5       0.9019691       166.6964
2010    18      6       1.026003        179.6039
2010    18      7       1.02383         178.1514
2010    19      0       0.9920331       175.3154
2010    19      1       0.736891        144.8336
2010    19      2       0.5438462       119.3056
2010    19      3       0.5850148       126.2176
2010    19      4       0.609578        130.7505
2010    19      5       0.5448438       120.938
2010    19      6       0.6281743       133.4893
2010    19      7       0.6592337       138.3677
2010    20      0       0.5786305       126.327
2010    20      1       0.5942459       128.5934
2010    20      2       0.6179465       132.0642
2010    20      3       0.5364247       119.6293
2010    20      4       0.5359656       119.3098
2010    20      5       0.5568232       122.5138
2010    20      6       0.6048865       129.73
2010    20      7       0.7693129       153.4151
2010    21      0       0.6504875       137.3753
2010    21      1       0.4799745       110.3548
2010    21      2       0.3857696       93.45954
2010    21      3       0.4307255       101.7016
2010    21      4       0.4443576       104.0456
2010    21      5       0.476282        109.4055
2010    21      6       0.5511131       121.527
2010    21      7       0.7793119       153.7404
2010    22      0       0.8424712       160.9967
2010    22      1       0.6333739       132.7403
2010    22      2       0.6512596       136.0961
2010    22      3       0.7281903       147.4599
2010    22      4       0.8074469       157.8317
2010    22      5       0.8142656       159.0884
2010    22      6       0.7657715       153.1348
2010    22      7       0.8500831       163.3172
2010    23      0       0.9087552       169.6991
2010    23      1       0.766538        152.9006
2010    23      2       0.6817379       141.5349
2010    23      3       0.8056844       158.4838
2010    23      4       0.7696115       154.4217
2010    23      5       0.7052431       145.7939
2010    23      6       0.5654392       124.8064
2010    23      7       0.502632        114.4982
2010    24      0       0.5721572       125.2693
2010    24      1       0.5773519       126.0274
2010    24      2       0.5599221       123.7041
2010    24      3       0.6303407       134.9355
2010    24      4       0.6151564       132.8639
2010    24      5       0.5826593       127.6565
2010    24      6       0.657835        137.8581
2010    24      7       0.8988843       167.4649
2010    25      0       0.8894817       167.0483
2010    25      1       0.9122209       169.6605
2010    25      2       1.316888        204.8551
2010    25      3       1.559363        220.6883
2010    25      4       1.603879        223.0961
2010    25      5       1.47567         215.988
2010    25      6       1.28524         203.1384
2010    25      7       1.058287        184.9275
2010    26      0       0.9542771       175.1588
2010    26      1       0.9401347       173.4954
2010    26      2       0.9997932       179.5277
2010    26      3       0.9191596       171.4815
2010    26      4       1.041093        184.0768
2010    26      5       1.101563        189.7263
2010    26      6       1.19374         197.4852
2010    26      7       0.9057253       170.0801
2010    27      0       0.7448445       150.7145
2010    27      1       0.5367907       119.994
2010    27      2       0.2948998       75.21706
2010    27      3       0.3292017       82.23838
2010    27      4       0.4361375       102.5651
2010    27      5       0.5092614       115.3923
2010    27      6       0.6283759       134.0671
2010    27      7       0.8026513       157.6867
2010    28      0       0.8430098       162.2662
2010    28      1       0.8313901       160.8093
2010    28      2       0.7947701       155.8517
2010    28      3       0.768247        152.5762
2010    28      4       0.7577125       151.1808
2010    28      5       0.7780117       153.9673
2010    28      6       0.7316498       147.2664
2010    28      7       0.655864        136.742
2010    29      0       0.6024332       129.1105
2010    29      1       0.4849616       110.3145
2010    29      2       0.4241694       99.62667
2010    29      3       0.4296804       100.4997
2010    29      4       0.3905709       93.41578
2010    29      5       0.3853049       92.42358
2010    29      6       0.3847446       92.12027
2010    29      7       0.3650782       88.59319
2010    30      0       0.3454848       84.99243
2010    30      1       0.3758425       90.96224
2010    30      2       0.4242089       99.6605
2010    30      3       0.4393187       102.426
2010    30      4       0.386472        92.76671
2010    30      5       0.3920798       93.93873
2010    30      6       0.3565694       87.25203
2010    30      7       0.3763483       91.16941
2010    31      0       0.3278767       81.6639
2010    31      1       0.348756        85.38083
2010    31      2       0.4044869       95.76555
2010    31      3       0.4429105       102.9231
2010    31      4       0.4099364       97.19348
2010    31      5       0.4037194       96.01639
2010    31      6       0.39638         94.30821
2010    31      7       0.3236919       80.23896
2011    1       0       1.61693         222.1676
2011    1       1       1.610083        221.504
2011    1       2       1.364446        207.7269
2011    1       3       1.394443        210.8145
2011    1       4       1.472429        215.8556
2011    1       5       1.062507        184.1748
2011    1       6       0.6479297       136.6505
2011    1       7       0.5312828       118.794
2011    2       0       0.304931        77.3775
2011    2       1       0.2576289       67.37419
2011    2       2       0.3137622       79.07005
2011    2       3       0.3869133       93.67537
2011    2       4       0.3699231       90.26981
2011    2       5       0.5581333       121.6664
2011    2       6       0.5484102       120.6515
2011    2       7       0.7209094       146.7728
2011    3       0       0.7923531       156.0512
2011    3       1       0.7078509       145.4165
2011    3       2       0.7554706       151.8542
2011    3       3       0.8417334       162.6367
2011    3       4       1.333453        208.1857
2011    3       5       1.718795        230.9652
2011    3       6       1.476119        218.1757
2011    3       7       1.257824        203.5919
2011    4       0       1.213387        200.2959
2011    4       1       1.103424        190.7463
2011    4       2       1.133774        192.4926
2011    4       3       1.215635        199.2439
2011    4       4       1.137303        193.2397
2011    4       5       1.143257        193.946
2011    4       6       1.328802        208.2773
2011    4       7       1.307074        206.7202
2011    5       0       1.082882        188.4586
2011    5       1       1.019181        182.4206
2011    5       2       1.04288         184.66
2011    5       3       1.044477        184.9424
2011    5       4       0.9266478       173.0526
2011    5       5       0.741923        151.0706
2011    5       6       0.6134355       132.7737
2011    5       7       0.518055        117.9387
2011    6       0       0.4484882       105.9392
2011    6       1       0.4301861       102.5386
2011    6       2       0.5045734       115.7534
2011    6       3       0.4984772       114.9479
2011    6       4       0.5566102       124.352
2011    6       5       0.5038988       115.8029
2011    6       6       0.3935712       96.21887
2011    6       7       0.3143965       80.72335
2011    7       0       0.2691124       71.05446
2011    7       1       0.2368616       63.9666
2011    7       2       0.2707817       71.45773
2011    7       3       0.328047        83.63543
2011    7       4       0.3955217       96.43046
2011    7       5       0.4553839       107.1547
2011    7       6       0.4983004       114.1317
2011    7       7       0.5557296       123.9291
2011    8       0       0.5130214       116.696
2011    8       1       0.4636822       108.0505
2011    8       2       0.4748051       110.071
2011    8       3       0.5230746       118.4719
2011    8       4       0.6009462       130.7225
2011    8       5       0.7304379       148.74
2011    8       6       0.8990702       169.1475
2011    8       7       0.8804326       166.7728
2011    9       0       0.8522312       162.7695
2011    9       1       0.7849238       154.6736
2011    9       2       0.7461713       150.2393
2011    9       3       0.7678324       153.477
2011    9       4       0.8237124       160.4835
2011    9       5       0.9379122       173.0688
2011    9       6       1.058358        184.9593
2011    9       7       1.166232        194.5472
2011    10      0       1.252635        201.1851
2011    10      1       1.001863        179.0383
2011    10      2       0.7691118       152.7028
2011    10      3       0.487464        111.3835
2011    10      4       0.5076435       114.0507
2011    10      5       0.6063516       129.628
2011    10      6       0.7184776       145.4481
2011    10      7       0.7179608       145.8835
2011    11      0       0.7533885       150.9942
2011    11      1       0.6308267       133.9005
2011    11      2       0.606702        130.1542
2011    11      3       0.5642318       123.915
2011    11      4       0.5812585       126.2622
2011    11      5       0.6016609       129.3898
2011    11      6       0.6860055       141.4683
2011    11      7       0.7334561       148.38
2011    12      0       0.7854117       154.835
2011    12      1       1.010735        179.6206
2011    12      2       0.79874         156.6398
2011    12      3       0.5501256       121.9922
2011    12      4       0.4955871       112.6632
2011    12      5       0.5141489       115.903
2011    12      6       0.4721007       109.1113
2011    12      7       0.5641331       124.2468
2011    13      0       0.5813435       126.8634
2011    13      1       0.6511565       136.9116
2011    13      2       0.840831        161.4732
2011    13      3       0.8865592       167.1086
2011    13      4       1.077832        185.9491
2011    13      5       1.015971        179.8268
2011    13      6       0.9999712       177.814
2011    13      7       0.8606635       163.4027
2011    14      0       0.7321187       148.1338
2011    14      1       0.6376142       135.224
2011    14      2       0.6493467       136.7996
2011    14      3       0.6153055       131.9449
2011    14      4       0.6602614       138.4419
2011    14      5       0.8141846       159.0466
2011    14      6       0.9945638       179.2476
2011    14      7       0.8632916       165.3211
2011    15      0       0.7529506       151.89
2011    15      1       0.6830315       142.4483
2011    15      2       0.6644783       140.0155
2011    15      3       0.5714473       126.4011
2011    15      4       0.5474128       122.3342
2011    15      5       0.5712432       126.2388
2011    15      6       0.5526616       123.3795
2011    15      7       0.4798803       111.3543
2011    16      0       0.3108387       79.50747
2011    16      1       0.17925         50.55502
2011    16      2       0.1253111       37.37494
2011    16      3       0.1729871       48.74676
2011    16      4       0.2208027       59.58381
2011    16      5       0.2548175       66.72623
2011    16      6       0.3417671       84.31448
2011    16      7       0.4439772       103.2059
2011    17      0       0.4458456       103.1629
2011    17      1       0.4146783       97.31054
2011    17      2       0.4039668       95.58546
2011    17      3       0.4526855       104.5063
2011    17      4       0.4573321       105.1571
2011    17      5       0.4966217       111.9644
2011    17      6       0.4988616       112.5383
2011    17      7       0.4552665       105.3171
2011    18      0       0.3752803       90.67028
2011    18      1       0.3565447       86.50481
2011    18      2       0.3102904       77.52437
2011    18      3       0.3135901       78.97724
2011    18      4       0.2865872       73.7194
2011    18      5       0.27193         70.82354
2011    18      6       0.3139974       79.53911
2011    18      7       0.366939        89.94009
2011    19      0       0.3210117       80.74202
2011    19      1       0.3299243       82.42205
2011    19      2       0.3994734       95.77121
2011    19      3       0.5115188       115.8478
2011    19      4       0.515027        116.7192
2011    19      5       0.5429575       121.2071
2011    19      6       0.5723447       125.2089
2011    19      7       0.5118061       114.7877
2011    20      0       0.4243746       99.75976
2011    20      1       0.3368862       83.60921
2011    20      2       0.3082084       77.97983
2011    20      3       0.5245571       118.0543
2011    20      4       0.5045711       114.8404
2011    20      5       0.5075156       115.4015
2011    20      6       0.6076682       131.1935
2011    20      7       0.8055227       158.3786
2011    21      0       0.9583359       176.0573
2011    21      1       0.838805        162.7647
2011    21      2       0.8415005       162.4987
2011    21      3       1.201002        198.0335
2011    21      4       1.754802        233.6308
2011    21      5       2.078102        246.4382
2011    21      6       1.785138        233.4706
2011    21      7       1.655237        226.9989
2011    22      0       1.631407        225.7626
2011    22      1       1.478426        217.1029
2011    22      2       2.245015        250.374
2011    22      3       2.052081        242.9945
2011    22      4       1.726345        228.6496
2011    22      5       1.305551        203.7563
2011    22      6       1.111201        189.0517
2011    22      7       0.7082485       145.3972
2011    23      0       0.4781596       110.5049
2011    23      1       0.3464056       86.09509
2011    23      2       0.2859795       73.72637
2011    23      3       0.4507035       105.1802
2011    23      4       0.4019608       96.54735
2011    23      5       0.4457451       104.2553
2011    23      6       0.4425232       103.5229
2011    23      7       0.4163374       98.97774
2011    24      0       0.4144729       98.8791
2011    24      1       0.4774936       109.9992
2011    24      2       0.5360192       119.6189
2011    24      3       0.6536618       137.332
2011    24      4       0.7281541       147.8366
2011    24      5       0.8979636       168.4666
2011    24      6       1.361252        210.9389
2011    24      7       0.8500959       162.7728
2011    25      0       0.7140915       146.1572
2011    25      1       0.7428333       150.033
2011    25      2       0.7061374       144.9002
2011    25      3       0.7911424       156.1831
2011    25      4       0.9032          169.4686
2011    25      5       1.036303        182.9677
2011    25      6       1.266154        202.5195
2011    25      7       0.997965        179.4637
2011    26      0       0.8114575       159.2806
2011    26      1       0.8400021       162.3425
2011    26      2       0.8517079       163.4906
2011    26      3       0.900217        168.9757
2011    26      4       0.8095858       158.4217
2011    26      5       0.5801731       126.8758
2011    26      6       0.5230292       117.9279
2011    26      7       0.5978837       130.471
2011    27      0       0.4532337       106.7453
2011    27      1       0.2772881       72.5124
2011    27      2       0.2111296       57.84709
2011    27      3       0.3752296       92.0839
2011    27      4       0.343492        86.07076
2011    27      5       0.3927157       95.37115
2011    27      6       0.4385842       103.6152
2011    27      7       0.3978346       96.35887
2011    28      0       0.341601        85.54819
2011    28      1       0.326632        82.39407
2011    28      2       0.3521726       87.20891
2011    28      3       0.437014        103.2734
2011    28      4       0.5642281       124.5322
2011    28      5       0.7291269       147.6512
2011    28      6       0.8905277       166.8822
2011    28      7       0.8479709       162.9112
2011    29      0       0.8095237       158.2159
2011    29      1       0.8574756       163.3305
2011    29      2       0.8978019       167.9946
2011    29      3       0.9667413       176.0328
2011    29      4       1.072653        187.381
2011    29      5       1.003963        180.2573
2011    29      6       0.5914547       128.2645
2011    29      7       0.4367554       102.7571
2011    30      0       0.365752        89.7612
2011    30      1       0.3065883       78.2685
2011    30      2       0.3526854       87.38845
2011    30      3       0.4202649       99.97672
2011    30      4       0.4238339       100.5616
2011    30      5       0.4059674       97.04278
2011    30      6       0.4812232       110.4893
2011    30      7       0.5290849       118.8775
2011    31      0       0.5330499       119.4178
2011    31      1       0.5408526       120.7192
2011    31      2       0.5547781       123.0223
2011    31      3       0.5645692       124.471
2011    31      4       0.5492272       121.5332
2011    31      5       0.5657859       123.8461
2011    31      6       0.6885875       141.8861
2011    31      7       1.015014        181.4143
2012    1       0       0.3301864       81.49017
2012    1       1       0.3032307       75.97928
2012    1       2       0.3311617       81.52512
2012    1       3       0.3978208       94.7278
2012    1       4       0.3856732       92.89656
2012    1       5       0.3533027       87.2802
2012    1       6       0.3941244       94.95306
2012    1       7       0.2557579       66.94313
2012    2       0       0.1887585       51.75333
2012    2       1       0.1549364       43.69079
2012    2       2       0.1650834       46.04405
2012    2       3       0.2145262       57.81894
2012    2       4       0.1959939       53.80371
2012    2       5       0.2833718       73.20672
2012    2       6       0.3757942       91.53079
2012    2       7       0.2046437       55.51813
2012    3       0       0.1911931       52.13834
2012    3       1       0.2059534       55.43839
2012    3       2       0.2630187       67.85413
2012    3       3       0.3381289       83.10382
2012    3       4       0.3510064       86.04135
2012    3       5       0.3873648       93.20208
2012    3       6       0.4197962       99.12776
2012    3       7       0.3235836       80.42679
2012    4       0       0.2776133       70.75789
2012    4       1       0.2203047       58.17168
2012    4       2       0.2576584       66.123
2012    4       3       0.3315565       81.48205
2012    4       4       0.3126497       77.85814
2012    4       5       0.3023679       75.89232
2012    4       6       0.3099258       77.35026
2012    4       7       0.3138786       78.48159
2012    5       0       0.2902503       73.32534
2012    5       1       0.2743449       69.66494
2012    5       2       0.249181        63.78844
2012    5       3       0.346126        83.99523
2012    5       4       0.4049522       94.28515
2012    5       5       0.3764525       89.86381
2012    5       6       0.4272117       99.37458
2012    5       7       0.5317616       117.7904
2012    6       0       0.5046952       113.5878
2012    6       1       0.4791016       109.1451
2012    6       2       0.474183        108.6052
2012    6       3       0.5048555       114.419
2012    6       4       0.5476609       121.1831
2012    6       5       0.624502        132.8015
2012    6       6       0.660305        137.8821
2012    6       7       0.6462468       136.0898
2012    7       0       0.6440054       135.6608
2012    7       1       0.6356092       134.2605
2012    7       2       0.6106321       130.7237
2012    7       3       0.679873        140.8885
2012    7       4       0.7073237       144.7994
2012    7       5       0.7292509       147.8137
2012    7       6       0.7021417       144.1231
2012    7       7       0.6794996       141.6786
2012    8       0       0.6308023       134.8605
2012    8       1       0.5819554       127.5937
2012    8       2       0.576363        126.8035
2012    8       3       0.6280698       134.6337
2012    8       4       0.6090866       131.7009
2012    8       5       0.5910226       128.7135
2012    8       6       0.5360697       119.8389
2012    8       7       0.5052858       115.472
2012    9       0       0.4929918       113.599
2012    9       1       0.5356821       120.6201
2012    9       2       0.5461852       122.3016
2012    9       3       0.6251974       134.5765
2012    9       4       0.6358502       135.814
2012    9       5       0.6905087       143.3075
2012    9       6       0.9127601       171.4698
2012    9       7       0.8571532       165.6728
2012    10      0       0.7526378       152.6316
2012    10      1       0.6629498       140.0852
2012    10      2       0.6896478       143.6884
2012    10      3       0.7894179       156.7251
2012    10      4       0.7848418       156.1436
2012    10      5       0.7818822       155.5455
2012    10      6       0.7205116       147.7489
2012    10      7       0.6165536       133.3591
2012    11      0       0.5293563       119.7679
2012    11      1       0.3844304       93.88029
2012    11      2       0.3458575       86.26622
2012    11      3       0.3462824       86.38688
2012    11      4       0.3761061       92.27832
2012    11      5       0.3850098       93.91114
2012    11      6       0.3689516       90.75538
2012    11      7       0.2882035       74.24997
2012    12      0       0.3390144       83.93547
2012    12      1       0.4525091       104.4442
2012    12      2       0.53262         117.1687
2012    12      3       0.6821882       139.6516
2012    12      4       0.8017214       154.9554
2012    12      5       1.033179        179.5515
2012    12      6       0.9786234       174.551
2012    12      7       0.8486824       160.9269
2012    13      0       1.011699        177.0355
2012    13      1       0.6352019       132.7655
2012    13      2       0.3060832       76.87296
2012    13      3       0.280771        72.02468
2012    13      4       0.3519895       86.39759
2012    13      5       0.4625742       106.3613
2012    13      6       0.4600772       106.0249
2012    13      7       0.4264098       99.99162
2012    14      0       0.440342        102.5568
2012    14      1       0.3369828       83.26279
2012    14      2       0.2747504       70.49775
2012    14      3       0.4253392       100.4933
2012    14      4       0.4157288       98.73123
2012    14      5       0.4440649       104.064
2012    14      6       0.5368324       120.1569
2012    14      7       0.4861562       112.0138
2012    15      0       0.4186531       100.0218
2012    15      1       0.4437982       104.3327
2012    15      2       0.4402317       103.6575
2012    15      3       0.5161607       117.0024
2012    15      4       0.5316409       119.4516
2012    15      5       0.5819081       127.326
2012    15      6       0.6143188       132.435
2012    15      7       0.5933583       129.7518
2012    16      0       0.5352709       120.1974
2012    16      1       0.5940463       128.9485
2012    16      2       0.8117929       159.4123
2012    16      3       0.9267716       173.2633
2012    16      4       1.161139        195.4568
2012    16      5       1.563494        223.9997
2012    16      6       1.59109         224.1372
2012    16      7       1.389913        211.2158
2012    17      0       1.191848        196.8936
2012    17      1       1.194379        196.6213
2012    17      2       1.162728        193.0201
2012    17      3       1.149133        191.951
2012    17      4       1.192717        196.056
2012    17      5       1.284388        203.2913
2012    17      6       1.133269        191.2346
2012    17      7       1.083822        186.6735
2012    18      0       1.139129        191.0789
2012    18      1       1.251644        199.6169
2012    18      2       1.388481        208.9391
2012    18      3       1.504653        216.2945
2012    18      4       1.606275        222.525
2012    18      5       1.666166        226.1002
2012    18      6       1.593386        222.6925
2012    18      7       1.40626         211.1709
2012    19      0       1.38105         209.9935
2012    19      1       1.263357        201.8841
2012    19      2       1.252967        200.9567
2012    19      3       1.512113        218.637
2012    19      4       1.516071        218.5051
2012    19      5       1.43349         214.3266
2012    19      6       1.475737        217.7575
2012    19      7       1.260747        203.2882
2012    20      0       1.185209        196.9407
2012    20      1       1.179149        196.1324
2012    20      2       1.224483        199.2504
2012    20      3       1.373178        209.878
2012    20      4       1.44478         214.8147
2012    20      5       1.561956        221.787
2012    20      6       1.695811        229.334
2012    20      7       1.3248          207.4392
2012    21      0       1.155799        194.2085
2012    21      1       1.017416        181.2775
2012    21      2       0.9359369       172.154
2012    21      3       0.731871        147.7285
2012    21      4       0.6567421       137.6619
2012    21      5       0.6394773       135.0893
2012    21      6       0.730981        147.5761
2012    21      7       0.8990364       168.6246
2012    22      0       0.8097932       157.9247
2012    22      1       0.4946375       111.9355
2012    22      2       0.4911792       111.3609
2012    22      3       0.6400571       134.5189
2012    22      4       0.7114921       144.6418
2012    22      5       0.720017        145.6425
2012    22      6       0.6496421       135.6697
2012    22      7       0.6120434       129.9499
2012    23      0       0.5625669       122.1926
2012    23      1       0.5317311       117.2457
2012    23      2       0.6285926       131.8707
2012    23      3       0.6797628       138.8358
2012    23      4       0.5416241       118.8971
2012    23      5       0.3779773       90.77132
2012    23      6       0.3567461       86.64354
2012    23      7       0.5102581       114.4181
2012    24      0       0.2406276       63.62695
2012    24      1       0.1762937       49.2951
2012    24      2       0.2771941       71.48112
2012    24      3       0.3799457       91.84744
2012    24      4       0.3715573       90.82286
2012    24      5       0.4753837       109.5354
2012    24      6       0.5550219       122.4952
2012    24      7       0.425056        100.5755
2012    25      0       0.2754335       71.27208
2012    25      1       0.1887458       52.09999
2012    25      2       0.1531398       43.68943
2012    25      3       0.2635243       68.59952
2012    25      4       0.3048376       76.9469
2012    25      5       0.3593055       87.65629
2012    25      6       0.3871056       92.85636
2012    25      7       0.3627283       88.3557
2012    26      0       0.3095718       78.08424
2012    26      1       0.2441662       64.4377
2012    26      2       0.2093017       56.67438
2012    26      3       0.2678424       69.13507
2012    26      4       0.3023388       76.06564
2012    26      5       0.3097006       77.4819
2012    26      6       0.3324261       82.10437
2012    26      7       0.455224        105.4231
2012    27      0       0.4477174       104.065
2012    27      1       0.3827482       92.39473
2012    27      2       0.320916        80.65405
2012    27      3       0.426889        100.7293
2012    27      4       0.4489872       104.3576
2012    27      5       0.4547127       105.3464
2012    27      6       0.4850246       110.4603
2012    27      7       0.480364        109.8457
2012    28      0       0.4543294       105.3191
2012    28      1       0.4261451       100.1674
2012    28      2       0.4053443       96.32822
2012    28      3       0.4650121       106.9065
2012    28      4       0.4770079       108.9419
2012    28      5       0.4833721       110.0559
2012    28      6       0.5093441       114.6527
2012    28      7       0.4693524       108.1791
2012    29      0       0.3600588       88.55176
2012    29      1       0.2360297       63.18357
2012    29      2       0.1929923       53.57737
2012    29      3       0.2397413       63.9086
2012    29      4       0.3084122       78.04792
2012    29      5       0.3290937       82.0844
2012    29      6       0.3053378       77.45305
2012    29      7       0.343845        84.94624
2012    30      0       0.4117958       97.67561
2012    30      1       0.4878523       110.626
2012    30      2       0.5809028       124.5362
2012    30      3       0.6364617       132.5611
2012    30      4       0.7378538       147.2393
2012    30      5       0.7628302       150.5287
2012    30      6       0.7392393       147.4432
2012    30      7       0.7654001       150.4402
2012    31      0       0.8885425       164.5787
2012    31      1       0.886397        163.9957
2012    31      2       0.8495201       159.8525
2012    31      3       0.9683161       173.7298
2012    31      4       1.013886        178.9425
2012    31      5       1.297312        203.6356
2012    31      6       1.213136        197.5588
2012    31      7       1.310726        204.5383
2013    1       0       0.8860355       167.4287
2013    1       1       0.8114842       158.5052
2013    1       2       0.7565789       151.1177
2013    1       3       0.8130063       157.6221
2013    1       4       0.7149721       145.5855
2013    1       5       0.7054471       144.5128
2013    1       6       0.7353431       148.3711
2013    1       7       0.6832655       141.7251
2013    2       0       0.6267466       133.9555
2013    2       1       0.5690737       125.042
2013    2       2       0.5817074       127.0628
2013    2       3       0.6063223       131.4156
2013    2       4       0.5565401       123.7082
2013    2       5       0.4237552       100.7223
2013    2       6       0.3745855       91.36781
2013    2       7       0.3051856       77.56816
2013    3       0       0.1943695       53.34728
2013    3       1       0.2125196       57.28677
2013    3       2       0.3561641       87.24958
2013    3       3       0.692994        143.0338
2013    3       4       0.7763753       152.2804
2013    3       5       0.7556951       149.9357
2013    3       6       0.7026205       142.5966
2013    3       7       0.6060414       129.8225
2013    4       0       0.5064754       114.6196
2013    4       1       0.3327406       82.55362
2013    4       2       0.2469356       64.64311
2013    4       3       0.3870115       93.4652
2013    4       4       0.3710356       90.08688
2013    4       5       0.3960228       94.80767
2013    4       6       0.4181311       98.99652
2013    4       7       0.4082017       97.25076
2013    5       0       0.3941729       94.524
2013    5       1       0.3775706       91.31668
2013    5       2       0.3613265       88.16796
2013    5       3       0.3948678       94.78294
2013    5       4       0.4040414       96.53099
2013    5       5       0.4017459       96.32885
2013    5       6       0.3982088       95.53493
2013    5       7       0.3911042       94.24382
2013    6       0       0.3600649       88.50905
2013    6       1       0.3197757       80.78878
2013    6       2       0.3040219       77.32444
2013    6       3       0.3754716       91.04048
2013    6       4       0.3721819       90.40784
2013    6       5       0.3705921       90.43666
2013    6       6       0.4570306       106.6116
2013    6       7       0.4330158       102.7802
2013    7       0       0.3553823       88.07241
2013    7       1       0.3481579       86.42316
2013    7       2       0.3454888       85.75584
2013    7       3       0.3672541       90.0257
2013    7       4       0.4065385       97.35528
2013    7       5       0.4108763       98.39659
2013    7       6       0.3419059       85.38809
2013    7       7       0.2934422       75.4994
2013    8       0       0.2914537       75.12944
2013    8       1       0.2286487       61.41731
2013    8       2       0.1659362       46.86244
2013    8       3       0.2412837       64.17718
2013    8       4       0.2767458       71.8349
2013    8       5       0.3386204       84.46964
2013    8       6       0.3453291       85.53253
2013    8       7       0.2919116       74.56085
2013    9       0       0.2634058       68.4044
2013    9       1       0.1836114       50.60986
2013    9       2       0.1663945       46.52681
2013    9       3       0.2100729       56.63946
2013    9       4       0.2613404       68.11162
2013    9       5       0.3275959       81.93007
2013    9       6       0.3924526       93.98262
2013    9       7       0.382046        91.88829
2013    10      0       0.7068122       146.0005
2013    10      1       0.6360637       132.8232
2013    10      2       0.3348201       83.50569
2013    10      3       0.2944931       75.00355
2013    10      4       0.2561122       66.32934
2013    10      5       0.2693184       68.95697
2013    10      6       0.304648        76.11413
2013    10      7       0.4157938       98.23788
2013    11      0       0.513791        113.2349
2013    11      1       0.4829455       107.4452
2013    11      2       0.4854457       107.1174
2013    11      3       0.6057696       126.2163
2013    11      4       0.5232258       113.2619
2013    11      5       0.4042915       94.31734
2013    11      6       0.3251564       80.44703
2013    11      7       0.2702755       69.76496
2013    12      0       0.1842624       51.09265
2013    12      1       0.1610098       45.61856
2013    12      2       0.1564969       44.34488
2013    12      3       0.2191373       58.6035
2013    12      4       0.2191253       58.49798
2013    12      5       0.2453797       64.0449
2013    12      6       0.2649279       68.24648
2013    12      7       0.2688472       69.24665
2013    13      0       0.2509852       65.4112
2013    13      1       0.2729832       70.13553
2013    13      2       0.3539908       86.75118
2013    13      3       0.3958772       94.90417
2013    13      4       0.4456086       104.1316
2013    13      5       0.4888468       111.5518
2013    13      6       0.5614491       123.2613
2013    13      7       0.6376227       134.1776
2013    14      0       0.6978669       142.2935
2013    14      1       0.7853717       153.0994
2013    14      2       0.7928158       153.8266
2013    14      3       0.7935114       154.4716
2013    14      4       0.5519931       121.8629
2013    14      5       0.4250861       100.5306
2013    14      6       0.5835009       127.3744
2013    14      7       0.5535809       123.2262
2013    15      0       0.4264276       101.5446
2013    15      1       0.3872323       94.27551
2013    15      2       0.3560937       88.25659
2013    15      3       0.4797518       111.029
2013    15      4       0.5313038       119.3261
2013    15      5       0.581781        127.1228
2013    15      6       0.5157361       116.5396
2013    15      7       0.4730298       109.7159
2013    16      0       0.458086        106.6609
2013    16      1       0.5156736       115.8836
2013    16      2       0.6179459       131.8404
2013    16      3       0.8131456       159.2182
2013    16      4       1.00643         180.382
2013    16      5       1.262194        203.1435
2013    16      6       1.273837        202.3239
2013    16      7       1.338316        206.79
2013    17      0       1.554332        220.545
2013    17      1       1.352632        208.299
2013    17      2       1.312844        205.9234
2013    17      3       1.382889        211.4483
2013    17      4       1.908981        239.1432
2013    17      5       1.661509        228.3213
2013    17      6       1.343689        209.4676
2013    17      7       1.076193        187.6568
2013    18      0       0.9476613       175.0368
2013    18      1       0.8343714       162.4122
2013    18      2       0.8508035       163.9995
2013    18      3       0.9276568       172.6196
2013    18      4       1.014553        181.5472
2013    18      5       1.283752        204.6787
2013    18      6       1.345446        209.3743
2013    18      7       1.209571        198.8187
2013    19      0       1.192887        197.1967
2013    19      1       1.002453        179.714
2013    19      2       0.9218444       170.8328
2013    19      3       1.070402        185.3518
2013    19      4       1.121873        190.1151
2013    19      5       1.259023        201.5388
2013    19      6       1.333027        207.2715
2013    19      7       1.141211        192.4121
2013    20      0       0.9155375       170.6756
2013    20      1       0.8273513       160.2849
2013    20      2       0.8373969       160.9829
2013    20      3       0.8576682       163.4721
2013    20      4       0.9221194       171.0081
2013    20      5       1.006809        180.0326
2013    20      6       1.092676        188.2268
2013    20      7       1.035574        183.2168
2013    21      0       0.9182672       170.7943
2013    21      1       0.7093339       144.8919
2013    21      2       0.511582        114.4593
2013    21      3       0.5445678       120.0592
2013    21      4       0.5629086       123.2909
2013    21      5       0.5991445       129.667
2013    21      6       0.5980129       129.8805
2013    21      7       0.5148994       117.1573
2013    22      0       0.4847062       112.2687
2013    22      1       0.4755618       111.2347
2013    22      2       0.4958818       114.8135
2013    22      3       0.4394809       104.9708
2013    22      4       0.4271993       102.48
2013    22      5       0.4859846       112.6612
2013    22      6       0.5444182       122.2427
2013    22      7       0.5014909       115.4635
2013    23      0       0.4838675       112.1805
2013    23      1       0.4770672       110.8386
2013    23      2       0.5169473       117.64
2013    23      3       0.5578876       124.3716
2013    23      4       0.5767789       127.394
2013    23      5       0.5014007       115.1697
2013    23      6       0.4029905       97.55481
2013    23      7       0.3871293       94.28751
2013    24      0       0.3439811       85.95105
2013    24      1       0.3173565       80.58181
2013    24      2       0.3172196       80.67223
2013    24      3       0.3245971       82.11642
2013    24      4       0.3203577       81.24649
2013    24      5       0.2950989       75.92818
2013    24      6       0.2644784       69.29069
2013    24      7       0.171414        48.30706
2013    25      0       0.1466745       42.33027
2013    25      1       0.1785374       49.81864
2013    25      2       0.3771703       91.77786
2013    25      3       0.5082435       115.1524
2013    25      4       0.5184964       116.7263
2013    25      5       0.5370267       119.535
2013    25      6       0.5223023       117.1382
2013    25      7       0.4484308       105.0519
2013    26      0       0.4105586       98.15177
2013    26      1       0.3773624       91.83506
2013    26      2       0.3300398       82.37711
2013    26      3       0.3684752       89.95956
2013    26      4       0.3609391       88.27896
2013    26      5       0.3636887       88.91286
2013    26      6       0.4126014       98.2914
2013    26      7       0.3761422       91.75851
2013    27      0       0.361064        88.70509
2013    27      1       0.3601869       88.2833
2013    27      2       0.4170545       98.17557
2013    27      3       0.533379        118.1867
2013    27      4       0.6128584       130.6694
2013    27      5       0.6791823       140.3407
2013    27      6       0.5429898       119.7129
2013    27      7       0.4732271       108.3637
2013    28      0       0.4705228       108.0957
2013    28      1       1.269367        204.6471
2013    28      2       0.4710635       107.7569
2013    28      3       0.5226192       116.5536
2013    28      4       0.529604        118.2539
2013    28      5       0.5876105       127.1647
2013    28      6       0.5972383       128.7388
2013    28      7       0.5272468       118.4351
2013    29      0       0.5174326       116.7002
2013    29      1       0.5595708       122.991
2013    29      2       0.5653347       123.8454
2013    29      3       0.571147        124.956
2013    29      4       0.4896528       110.955
2013    29      5       0.4901528       111.025
2013    29      6       0.5140567       115.2482
2013    29      7       0.4941042       112.5502
2013    30      0       0.4776681       109.9799
2013    30      1       0.5144341       115.7508
2013    30      2       0.6248139       133.1306
2013    30      3       0.6293451       133.7965
2013    30      4       0.7476701       150.2099
2013    30      5       0.9222247       171.294
2013    30      6       1.187846        197.0514
2013    30      7       1.059091        185.907
2013    31      0       0.8659891       165.3517
2013    31      1       0.6359258       135.3512
2013    31      2       0.543773        121.0611
2013    31      3       0.6062796       131.0764
2013    31      4       0.5548749       123.2057
2013    31      5       0.6094571       131.4428
2013    31      6       0.6222324       133.2085
2013    31      7       0.5506231       122.2428
2014    1       0       0.9286207       173.4718
2014    1       1       0.767331        154.2572
2014    1       2       0.7018864       145.254
2014    1       3       0.5947031       129.1226
2014    1       4       0.5333478       119.2997
2014    1       5       0.5191281       117.2351
2014    1       6       0.5080151       115.2424
2014    1       7       0.5964251       129.4385
2014    2       0       0.5651351       124.3077
2014    2       1       0.5088969       114.9882
2014    2       2       0.4936369       112.5694
2014    2       3       0.484147        111.4191
2014    2       4       0.5037384       114.8467
2014    2       5       0.5227987       118.0678
2014    2       6       0.5043659       115.2435
2014    2       7       0.4623067       108.0731
2014    3       0       0.3828396       93.58877
2014    3       1       0.3204035       81.40716
2014    3       2       0.3749205       92.10978
2014    3       3       0.4371757       103.5326
2014    3       4       0.5017202       114.4694
2014    3       5       0.6559911       138.8005
2014    3       6       0.6363886       135.1414
2014    3       7       0.7856809       154.5646
2014    4       0       0.866702        163.569
2014    4       1       0.873558        163.662
2014    4       2       0.8814424       165.044
2014    4       3       0.9561363       173.4243
2014    4       4       0.8842658       165.5052
2014    4       5       1.632043        226.3473
2014    4       6       1.380243        210.506
2014    4       7       1.545069        220.4418
2014    5       0       1.583088        221.5196
2014    5       1       1.599256        222.1764
2014    5       2       1.180379        194.1779
2014    5       3       1.371898        207.5775
2014    5       4       1.6952          226.6733
2014    5       5       1.322945        204.1738
2014    5       6       1.194918        194.0017
2014    5       7       1.140708        190.2297
2014    6       0       1.016462        178.9504
2014    6       1       1.017351        179.0585
2014    6       2       1.288747        202.2769
2014    6       3       1.4183          211.2542
2014    6       4       1.296076        202.6418
2014    6       5       1.500846        216.2767
2014    6       6       1.910329        237.8444
2014    6       7       2.113291        245.4989
2014    7       0       2.033101        242.6987
2014    7       1       1.573896        222.603
2014    7       2       1.52158         218.7469
2014    7       3       1.263319        199.98
2014    7       4       1.397962        209.6778
2014    7       5       1.87503         236.1244
2014    7       6       1.834855        234.9967
2014    7       7       1.485333        217.5518
2014    8       0       1.392999        210.9956
2014    8       1       1.020255        178.1511
2014    8       2       0.7731621       150.8611
2014    8       3       0.7811963       152.3885
2014    8       4       0.7974353       154.092
2014    8       5       0.9503562       170.9382
2014    8       6       1.044696        180.1378
2014    8       7       0.94827         170.2089
2014    9       0       0.9400798       168.4205
2014    9       1       1.117918        184.1412
2014    9       2       0.8394078       157.5424
2014    9       3       0.7578439       148.2468
2014    9       4       0.6219912       130.6996
2014    9       5       0.6950674       141.2779
2014    9       6       0.8705083       163.4973
2014    9       7       1.033544        180.5306
2014    10      0       1.123389        188.7657
2014    10      1       0.8883527       165.0749
2014    10      2       0.9995835       177.025
2014    10      3       0.7307522       147.0473
2014    10      4       0.6098934       130.2043
2014    10      5       0.6385109       134.3996
2014    10      6       0.6515792       136.2022
2014    10      7       0.6593099       137.6477
2014    11      0       0.5625469       123.0057
2014    11      1       0.4661385       106.5933
2014    11      2       0.386488        92.00709
2014    11      3       0.4245752       99.21097
2014    11      4       0.403017        95.40154
2014    11      5       0.3773098       91.01421
2014    11      6       0.3455862       85.26831
2014    11      7       0.2564981       67.14311
2014    12      0       0.1954797       53.52869
2014    12      1       0.1738807       48.38299
2014    12      2       0.1587214       44.73408
2014    12      3       0.2497104       65.42026
2014    12      4       0.2855975       72.97605
2014    12      5       0.3140324       78.80228
2014    12      6       0.3765884       91.17075
2014    12      7       0.3368209       83.62116
2014    13      0       0.2859903       73.20547
2014    13      1       0.23998         63.00887
2014    13      2       0.164224        46.3033
2014    13      3       0.3056433       77.61424
2014    13      4       0.2814482       72.76747
2014    13      5       0.3298072       82.61888
2014    13      6       0.4115572       98.38392
2014    13      7       0.2962604       76.25761
2014    14      0       0.240516        64.44549
2014    14      1       0.221276        60.16103
2014    14      2       0.2428856       64.84076
2014    14      3       0.286518        74.48291
2014    14      4       0.3000489       77.19674
2014    14      5       0.3840097       93.44441
2014    14      6       0.4626156       107.1684
2014    14      7       0.4912676       111.3904
2014    15      0       0.5807802       124.7897
2014    15      1       0.7196968       143.0593
2014    15      2       1.060945        184.1801
2014    15      3       0.8880612       167.3568
2014    15      4       0.7295984       147.4583
2014    15      5       0.6652399       137.956
2014    15      6       0.7775675       151.514
2014    15      7       0.4426295       102.9261
2014    16      0       0.2133901       57.97064
2014    16      1       0.2451614       65.17113
2014    16      2       0.1513136       43.26902
2014    16      3       0.2652597       69.05967
2014    16      4       0.3881973       94.34513
2014    16      5       0.2422666       64.45999
2014    16      6       0.2233623       60.30728
2014    16      7       0.1846413       51.51575
2014    17      0       0.150622        43.42716
2014    17      1       0.1601124       45.47174
2014    17      2       0.1674634       47.16511
2014    17      3       0.2125833       57.80194
2014    17      4       0.2413718       63.99602
2014    17      5       0.3247592       79.50801
2014    17      6       0.4391979       101.628
2014    17      7       0.4711205       107.4935
2014    18      0       0.4801161       108.4816
2014    18      1       0.8281463       155.6483
2014    18      2       0.6332037       131.2207
2014    18      3       0.5522029       120.4478
2014    18      4       0.4183051       98.57626
2014    18      5       0.4278752       99.91964
2014    18      6       0.5869845       125.5036
2014    18      7       0.5768895       124.3734
2014    19      0       0.49212         111.7909
2014    19      1       0.4728002       108.4768
2014    19      2       0.4746023       108.6028
2014    19      3       0.5082617       114.2392
2014    19      4       0.5790436       125.624
2014    19      5       0.6277084       133.41
2014    19      6       0.6460419       136.3679
2014    19      7       0.5966064       129.3706
2014    20      0       0.5684315       125.1816
2014    20      1       0.5493157       122.0712
2014    20      2       0.567725        124.788
2014    20      3       0.6178451       132.5964
2014    20      4       0.6755919       141.0978
2014    20      5       0.807692        158.344
2014    20      6       0.8873901       167.9431
2014    20      7       0.7732457       154.2794
2014    21      0       0.7127269       146.0644
2014    21      1       0.6595218       138.4828
2014    21      2       0.6760051       141.0917
2014    21      3       0.7047319       145.5226
2014    21      4       0.7028994       144.9199
2014    21      5       0.7526667       151.1145
2014    21      6       0.7071065       144.9431
2014    21      7       0.6068693       130.5166
2014    22      0       0.5953018       128.6508
2014    22      1       0.6002325       129.2204
2014    22      2       0.6605368       138.7194
2014    22      3       0.6696048       140.1095
2014    22      4       0.617741        131.8584
2014    22      5       0.6303724       133.9872
2014    22      6       0.7809971       153.0163
2014    22      7       0.7015924       142.7495
2014    23      0       0.7044736       142.944
2014    23      1       0.6522624       135.9005
2014    23      2       0.5500498       121.3568
2014    23      3       0.4599683       107.1333
2014    23      4       0.3720689       90.77898
2014    23      5       0.3277838       81.8451
2014    23      6       0.3590398       88.11126
2014    23      7       0.2522458       66.18757
2014    24      0       0.2510624       65.65488
2014    24      1       0.2555693       66.25683
2014    24      2       0.2826699       71.81676
2014    24      3       0.3274982       81.17715
2014    24      4       0.3795407       91.41064
2014    24      5       0.5007327       113.0777
2014    24      6       0.6203349       131.8842
2014    24      7       0.5403291       119.3339
2014    25      0       0.5125214       114.9541
2014    25      1       0.420614        99.21424
2014    25      2       0.363051        88.54446
2014    25      3       0.42085         99.68694
2014    25      4       0.3863392       93.39627
2014    25      5       0.4071226       97.26986
2014    25      6       0.4838893       110.7839
2014    25      7       0.5001803       113.6675
2014    26      0       0.4928886       112.3941
2014    26      1       0.4583098       106.3988
2014    26      2       0.4318658       101.7571
2014    26      3       0.4766609       109.4929
2014    26      4       0.5263944       117.6951
2014    26      5       0.5650599       123.8566
2014    26      6       0.6370249       134.8965
2014    26      7       0.6118164       131.5561
2014    27      0       0.5436336       121.3542
2014    27      1       0.4560065       106.885
2014    27      2       0.3025728       77.46225
2014    27      3       0.3543005       87.7297
2014    27      4       0.4756014       109.8202
2014    27      5       0.5848028       127.4041
2014    27      6       0.6554965       137.5897
2014    27      7       0.6411053       135.0417
2014    28      0       0.7150516       145.1285
2014    28      1       0.9260319       171.1867
2014    28      2       1.12906         190.7217
2014    28      3       1.159159        192.5312
2014    28      4       1.641101        226.2951
2014    28      5       1.884117        236.3262
2014    28      6       2.237389        249.8517
2014    28      7       2.393307        254.6935
2014    29      0       2.433281        256.0134
2014    29      1       1.634009        227.2442
2014    29      2       0.9935518       178.4049
2014    29      3       0.7848004       154.7687
2014    29      4       0.7401926       149.2891
2014    29      5       0.7402281       149.3203
2014    29      6       0.808853        157.7833
2014    29      7       0.8082779       158.1525
2014    30      0       0.7853198       155.2429
2014    30      1       0.7453097       149.9628
2014    30      2       0.7222959       146.978
2014    30      3       0.7187162       146.5234
2014    30      4       0.7999692       156.7303
2014    30      5       0.9585331       174.8229
2014    30      6       0.9868397       177.9744
2014    30      7       0.9097756       170.0215
2014    31      0       0.7140283       146.4724
2014    31      1       0.6568728       138.416
2014    31      2       0.6918081       143.3246
2014    31      3       0.730732        149.1174
2014    31      4       0.8300176       161.5865
2014    31      5       0.9169765       171.7798
2014    31      6       1.02425         182.5632
2014    31      7       1.019869        182.2849
2015    1       0       0.6901239       142.3953
2015    1       1       0.5958961       128.7333
2015    1       2       0.5451476       120.6219
2015    1       3       0.4134079       98.26336
2015    1       4       0.4127044       98.18522
2015    1       5       0.4639472       107.3197
2015    1       6       0.5340301       119.3209
2015    1       7       0.76916         153.4279
2015    2       0       0.6506407       137.2116
2015    2       1       0.5637505       124.2168
2015    2       2       0.6414904       135.8604
2015    2       3       0.5352974       119.6093
2015    2       4       0.5005777       113.8531
2015    2       5       0.4942399       112.6241
2015    2       6       0.4453343       103.7351
2015    2       7       0.5572296       122.1503
2015    3       0       0.5342311       117.995
2015    3       1       0.4840003       109.7643
2015    3       2       0.4176508       98.65332
2015    3       3       0.4098132       97.49214
2015    3       4       0.366722        89.74238
2015    3       5       0.3616716       88.79616
2015    3       6       0.421514        100.1475
2015    3       7       0.3790048       91.25257
2015    4       0       0.2770612       70.64906
2015    4       1       0.1833408       50.09315
2015    4       2       0.2787566       70.49297
2015    4       3       0.4247067       99.13158
2015    4       4       0.4519946       103.9073
2015    4       5       0.5853098       125.8928
2015    4       6       0.732995        147.076
2015    4       7       0.6750575       138.8736
2015    5       0       0.675411        139.1774
2015    5       1       0.7400032       148.6287
2015    5       2       0.8323375       160.8991
2015    5       3       0.8390951       162.2236
2015    5       4       0.8398042       162.3301
2015    5       5       0.8894081       168.1432
2015    5       6       0.9731224       177.2865
2015    5       7       0.900455        169.3581
2015    6       0       0.902715        169.423
2015    6       1       0.8684019       165.3251
2015    6       2       0.7867136       155.258
2015    6       3       0.8493453       163.2375
2015    6       4       0.8571516       163.9534
2015    6       5       0.8463931       162.7716
2015    6       6       0.7952588       155.9219
2015    6       7       0.8238751       159.2864
2015    7       0       0.8984289       167.7422
2015    7       1       0.9637526       173.9703
2015    7       2       1.037421        180.7526
2015    7       3       1.024541        180.5086
2015    7       4       1.130877        191.7532
2015    7       5       1.271463        203.6197
2015    7       6       1.022437        181.876
2015    7       7       0.7210378       147.4702
2015    8       0       0.688163        142.3218
2015    8       1       0.6835679       141.0535
2015    8       2       0.6439831       135.1644
2015    8       3       0.6576005       136.4916
2015    8       4       0.7328935       146.3112
2015    8       5       0.773301        151.5537
2015    8       6       0.7935078       153.8364
2015    8       7       0.8958655       165.2535
2015    9       0       0.7351199       147.1938
2015    9       1       0.6657793       138.2596
2015    9       2       0.5422056       120.1657
2015    9       3       0.6016501       129.387
2015    9       4       0.599885        129.179
2015    9       5       0.5575541       122.8149
2015    9       6       0.4915758       112.1221
2015    9       7       0.4691696       108.4505
2015    10      0       0.4877933       111.8801
2015    10      1       0.5408418       120.5157
2015    10      2       0.5319711       118.9445
2015    10      3       0.479566        110.3839
2015    10      4       0.4386687       103.1967
2015    10      5       0.373801        90.90359
2015    10      6       0.3406675       84.5702
2015    10      7       0.4593121       107.1101
2015    11      0       0.4290693       101.3164
2015    11      1       0.3460695       85.39611
2015    11      2       0.3762421       91.32101
2015    11      3       0.4075082       97.31966
2015    11      4       0.3919254       94.32238
2015    11      5       0.4042872       96.86017
2015    11      6       0.4287562       101.4801
2015    11      7       0.4348452       102.7121
2015    12      0       0.4241967       100.8386
2015    12      1       0.3208821       80.76733
2015    12      2       0.3422753       84.99039
2015    12      3       0.5098557       115.023
2015    12      4       0.5487737       121.4247
2015    12      5       0.6073744       130.7556
2015    12      6       0.7089794       144.3882
2015    12      7       0.9268984       170.2322
2015    13      0       1.032197        180.8329
2015    13      1       0.8229135       158.5192
2015    13      2       0.9777074       175.7907
2015    13      3       0.8512468       162.6806
2015    13      4       0.9808326       178.8812
2015    13      5       0.6389257       135.1372
2015    13      6       0.7663059       152.5608
2015    13      7       0.9711829       176.3442
2015    14      0       0.836847        161.0249
2015    14      1       0.750126        150.0508
2015    14      2       0.8139044       158.7114
2015    14      3       0.7379396       149.4234
2015    14      4       0.7422924       150.1409
2015    14      5       0.7604021       152.0617
2015    14      6       0.8418048       161.84
2015    14      7       0.8969362       168.7357
2015    15      0       0.8417192       162.4554
2015    15      1       0.6169413       132.2312
2015    15      2       0.4800748       110.7232
2015    15      3       0.4287444       101.7228
2015    15      4       0.4007401       96.56465
2015    15      5       0.4183478       100.0354
2015    15      6       0.397148        95.51712
2015    15      7       0.1583622       44.18863
2015    16      0       0.2606197       66.82694
2015    16      1       0.7657355       151.5184
2015    16      2       1.085057        186.7654
2015    16      3       0.8933586       166.5312
2015    16      4       0.4722612       107.65
2015    16      5       0.3310512       81.73621
2015    16      6       0.35706         86.37799
2015    16      7       0.4352365       101.5736
2015    17      0       0.408015        96.31549
2015    17      1       0.3102671       76.85133
2015    17      2       0.2167204       57.79092
2015    17      3       0.3267475       80.97841
2015    17      4       0.3195317       79.60329
2015    17      5       0.3543813       86.81967
2015    17      6       0.2761372       71.10546
2015    17      7       0.2933229       74.62422
2015    18      0       0.3023603       76.29452
2015    18      1       0.3237191       80.36011
2015    18      2       0.360175        87.05137
2015    18      3       0.434073        100.1215
2015    18      4       0.4531972       103.8038
2015    18      5       0.3706023       89.77831
2015    18      6       0.3377862       83.88946
2015    18      7       0.2696429       70.36247
2015    19      0       0.2278572       61.22384
2015    19      1       0.1965016       54.11873
2015    19      2       0.1729853       48.59614
2015    19      3       0.3286882       82.11118
2015    19      4       0.2757681       71.6732
2015    19      5       0.2804088       72.51415
2015    19      6       0.3007536       76.84005
2015    19      7       0.2939187       75.77154
2015    20      0       0.262251        69.12022
2015    20      1       0.2241298       60.74569
2015    20      2       0.1955491       54.2855
2015    20      3       0.2423604       64.64284
2015    20      4       0.2542931       67.22843
2015    20      5       0.2774141       71.97458
2015    20      6       0.3142903       79.60231
2015    20      7       0.3158738       79.72177
2015    21      0       0.3220402       80.43635
2015    21      1       0.3319829       82.13302
2015    21      2       0.333719        82.57286
2015    21      3       0.3653087       89.00194
2015    21      4       0.4044733       96.37257
2015    21      5       0.3943591       94.70896
2015    21      6       0.4114887       98.09252
2015    21      7       0.4332181       102.1803
2015    22      0       0.3401483       84.92427
2015    22      1       0.2717141       70.95521
2015    22      2       0.2826436       73.21664
2015    22      3       0.3071806       78.35639
2015    22      4       0.2785022       72.22243
2015    22      5       0.2461543       65.39242
2015    22      6       0.2306238       62.10583
2015    22      7       0.2453908       65.39475
2015    23      0       0.2440969       64.99737
2015    23      1       0.2883138       74.00097
2015    23      2       0.3089476       77.95213
2015    23      3       0.3650957       89.46272
2015    23      4       0.3596797       88.45064
2015    23      5       0.3746763       91.16005
2015    23      6       0.4069738       96.79843
2015    23      7       0.5272001       117.704
2015    24      0       0.5121976       114.4034
2015    24      1       0.6292699       132.6219
2015    24      2       0.7037777       142.4037
2015    24      3       0.7862614       153.388
2015    24      4       0.9172          168.2157
2015    24      5       1.109282        187.1374
2015    24      6       1.173587        193.2846
2015    24      7       1.049628        182.4245
2015    25      0       0.9649452       174.9157
2015    25      1       0.8071985       157.1517
2015    25      2       0.4893026       110.1134
2015    25      3       0.5413754       118.6914
2015    25      4       0.5949565       127.3758
2015    25      5       0.7018056       142.9663
2015    25      6       0.8147533       157.0588
2015    25      7       0.8873765       164.7861
2015    26      0       0.8789925       163.948
2015    26      1       0.9280194       169.4556
2015    26      2       1.077952        184.7094
2015    26      3       1.086693        185.5677
2015    26      4       1.041439        181.589
2015    26      5       1.272686        201.3571
2015    26      6       1.294906        203.113
2015    26      7       1.416995        211.8833
2015    27      0       1.551751        220.0096
2015    27      1       1.450315        213.9846
2015    27      2       1.215333        196.8768
2015    27      3       1.409113        210.7119
2015    27      4       1.326981        204.5842
2015    27      5       1.315281        203.6554
2015    27      6       1.144221        190.9269
2015    27      7       0.9862458       176.938
2015    28      0       0.824384        159.003
2015    28      1       0.6711457       139.0173
2015    28      2       0.6566916       136.8221
2015    28      3       0.6117032       130.1401
2015    28      4       0.6956023       141.9406
2015    28      5       0.831383        158.8157
2015    28      6       0.8298339       158.8928
2015    28      7       0.7080592       144.2293
2015    29      0       0.6657379       138.5482
2015    29      1       0.6055964       129.7988
2015    29      2       0.6084702       130.4008
2015    29      3       0.6744114       140.2018
2015    29      4       0.7352607       148.4988
2015    29      5       0.8309323       160.2227
2015    29      6       0.8512639       162.2627
2015    29      7       0.7964593       156.008
2015    30      0       0.8613054       163.3005
2015    30      1       0.9742416       176.0179
2015    30      2       0.7968018       156.9109
2015    30      3       0.8482806       163.3399
2015    30      4       0.893072        168.8753
2015    30      5       0.7509752       152.0095
2015    30      6       0.7602552       152.4739
2015    30      7       0.5118148       115.2094
2015    31      0       0.3668586       88.01763
2015    31      1       0.2701094       68.72194
2015    31      2       0.1801397       49.5918
2015    31      3       0.3561556       86.33386
2015    31      4       0.5498769       120.6269
2015    31      5       0.6325002       132.8659
2015    31      6       0.6307064       132.446
2015    31      7       0.8524075       161.469
2016    1       0       1.145006        193.7249
2016    1       1       0.9277931       172.513
2016    1       2       0.7354813       149.4612
2016    1       3       0.5775621       126.7418
2016    1       4       0.4762687       109.9095
2016    1       5       0.3561717       87.78907
2016    1       6       0.3932194       95.19199
2016    1       7       0.4824578       111.4508
2016    5       0       0.2557802       67.8213
2016    5       1       0.3019153       77.31942
2016    5       2       0.3410422       85.01694
2016    5       3       0.4178702       100.0907
2016    5       4       0.4858632       112.1018
2016    5       5       0.554387        123.6
2016    5       6       0.5359835       120.1118
2016    5       7       0.5524724       122.0719
2016    6       0       0.5959717       128.3003
2016    6       1       0.6704183       139.3436
2016    6       2       0.6338037       134.3213
2016    6       3       0.5708036       121.857
2016    6       4       0.8733582       160.5253
2016    6       5       0.9366861       170.7395
2016    6       6       0.9716739       175.4706
2016    6       7       1.032922        181.2073
2016    7       0       0.8960383       167.1369
2016    7       1       1.028818        180.9141
2016    7       2       1.006918        179.0994
2016    7       3       0.7892663       155.0483
2016    7       4       0.6387197       135.3374
2016    7       5       0.6936638       143.6071
2016    7       6       0.7228742       147.0867
2016    7       7       0.5441536       121.11
2016    8       0       0.4876682       111.582
2016    8       1       0.2847805       73.19999
2016    8       2       0.1578367       44.55668
2016    8       3       0.3661469       89.02513
2016    8       4       0.3257908       81.22585
2016    8       5       0.3070733       77.78831
2016    8       6       0.321334        80.79454
2016    8       7       0.2607185       68.49621
2016    9       0       0.2468115       65.46523
2016    9       1       0.2253972       60.48522
2016    9       2       0.204574        55.36581
2016    9       3       0.3106395       77.92523
2016    9       4       0.3315382       82.09075
2016    9       5       0.3491991       85.89737
2016    9       6       0.3891904       94.09826
2016    9       7       0.3570907       88.34276
2016    10      0       0.3295797       83.01121
2016    10      1       0.2878289       74.43392
2016    10      2       0.2795967       72.51796
2016    10      3       0.3615655       89.03307
2016    10      4       0.3897704       93.96113
2016    10      5       0.4315164       101.2739
2016    10      6       0.520328        116.4128
2016    10      7       0.5958979       128.8766
2016    11      0       0.531602        118.6865
2016    11      1       0.5215494       116.7825
2016    11      2       0.5319916       118.1685
2016    11      3       0.5708966       124.9063
2016    11      4       0.6461222       136.1792
2016    11      5       0.7486954       150.0173
2016    11      6       0.833238        161.4649
2016    11      7       0.855638        164.6277
2016    12      0       0.7403932       150.1067
2016    12      1       0.6833621       142.1899
2016    12      2       0.8287556       160.9955
2016    12      3       0.7660428       152.8351
2016    12      4       0.8967826       168.2904
2016    12      5       1.038556        183.3141
2016    12      6       1.236195        200.8028
2016    12      7       1.226915        200.1571
2016    13      0       1.095188        188.8498
2016    13      1       1.158326        193.5388
2016    13      2       1.259402        201.5714
2016    13      3       1.274904        203.5419
2016    13      4       1.153157        193.7572
2016    13      5       0.9997744       179.7266
2016    13      6       1.06881         186.3491
2016    13      7       1.078484        188.0568
2016    14      0       1.013889        181.5466
2016    14      1       0.9863618       178.5138
2016    14      2       1.080198        187.4371
2016    14      3       1.181714        196.2144
2016    14      4       1.172095        195.1714
2016    14      5       1.278781        203.4311
2016    14      6       1.431831        214.3356
2016    14      7       1.286159        204.1958
2016    15      0       1.13423         192.0133
2016    15      1       1.057264        184.8613
2016    15      2       1.004588        179.3528
2016    15      3       1.036781        182.3863
2016    15      4       1.072202        186.1115
2016    15      5       0.9548867       174.921
2016    15      6       0.8568278       164.2097
2016    15      7       0.7348178       149.2607
2016    16      0       0.6975018       144.362
2016    16      1       0.7909253       156.1463
2016    16      2       0.9347211       172.1668
2016    16      3       1.123228        190.4683
2016    16      4       1.269349        202.1444
2016    16      5       1.346763        208.1135
2016    16      6       1.479882        216.972
2016    16      7       1.539195        220.2891
2016    17      0       1.447425        214.9487
2016    17      1       1.493057        217.6483
2016    17      2       1.502451        217.5804
2016    17      3       1.675589        226.8951
2016    17      4       1.946359        239.0396
2016    17      5       1.894044        236.9782
2016    17      6       1.658937        226.6019
2016    17      7       1.502107        217.8863
2016    18      0       1.424515        213.1376
2016    18      1       1.374398        209.5873
2016    18      2       1.441912        214.117
2016    18      3       1.793297        233.276
2016    18      4       1.941554        239.9277
2016    18      5       1.933443        239.9465
2016    18      6       1.557152        222.4023
2016    18      7       1.371614        210.901
2016    19      0       1.30081         205.7341
2016    19      1       1.162922        194.9081
2016    19      2       1.11618         190.5428
2016    19      3       1.427495        214.3056
2016    19      4       1.525897        220.5762
2016    19      5       1.344008        209.1549
2016    19      6       1.287158        205.0242
2016    19      7       1.196829        197.8864
2016    20      0       1.007298        180.836
2016    20      1       1.01022         180.6913
2016    20      2       0.9758651       177.1968
2016    20      3       1.131722        191.9386
2016    20      4       1.344453        208.748
2016    20      5       1.717224        231.3262
2016    20      6       2.034682        244.9973
2016    20      7       2.050212        245.6378
2016    21      0       2.083266        246.3705
2016    21      1       1.858523        237.3031
2016    21      2       1.666796        228.0642
2016    21      3       1.965262        241.1833
2016    21      4       2.161614        247.6468
2016    21      5       2.252492        250.8836
2016    21      6       2.169513        248.381
2016    21      7       2.218996        249.6873
2016    22      0       2.05263         244.2105
2016    22      1       1.691503        227.5418
2016    22      2       1.58668         221.9061
2016    22      3       1.715664        229.9803
2016    22      4       2.126272        247.1249
2016    22      5       2.226022        250.5823
2016    22      6       2.224706        250.5982
2016    22      7       1.738282        231.5066
2016    23      0       1.468091        216.5859
2016    23      1       1.391718        211.3981
2016    23      2       1.510602        218.8039
2016    23      3       1.727169        231.1351
2016    23      4       1.959188        241.7631
2016    23      5       1.939513        241.4891
2016    23      6       2.158649        248.7254
2016    23      7       1.77608         233.8326
2016    24      0       1.390935        211.6088
2016    24      1       1.039982        182.2746
2016    24      2       0.9998422       178.3005
2016    24      3       0.9045468       169.3167
2016    24      4       0.758117        151.9719
2016    24      5       0.5671765       124.367
2016    24      6       0.4881367       110.6548
2016    24      7       0.2743591       68.7667
2016    25      0       0.2298537       59.29864
2016    25      1       0.298725        73.53255
2016    25      2       0.5287736       114.5934
2016    25      3       0.7776136       149.9117
2016    25      4       1.055962        179.753
2016    25      5       1.182682        191.8194
2016    25      6       1.159192        190.1367
2016    25      7       0.9494215       170.9597
2016    26      0       0.746128        148.1086
2016    26      1       0.5381574       118.7974
2016    26      2       0.4888139       110.8398
2016    26      3       0.4484153       104.1132
2016    26      4       0.4554485       105.0623
2016    26      5       0.5873787       125.6937
2016    26      6       0.5529946       119.8835
2016    26      7       0.397086        93.10957
2016    27      0       0.2459876       64.28032
2016    27      1       0.2160807       57.39403
2016    27      2       0.2021957       54.24998
2016    27      3       0.3342762       82.12485
2016    27      4       0.33997         83.60248
2016    27      5       0.370965        89.83047
2016    27      6       0.4211178       99.10974
2016    27      7       0.3708093       89.72229
2016    28      0       0.3558702       87.00386
2016    28      1       0.3070174       77.52773
2016    28      2       0.2401112       63.45858
2016    28      3       0.3893618       93.70389
2016    28      4       0.3957492       94.88936
2016    28      5       0.4267647       100.6577
2016    28      6       0.4709253       108.6702
2016    28      7       0.4269677       101.4141
2016    29      0       0.4225372       100.6104
2016    29      1       0.4230521       100.612
2016    29      2       0.4158901       99.2979
2016    29      3       0.4502642       105.5188
2016    29      4       0.4794241       110.3918
2016    29      5       0.4971671       113.4903
2016    29      6       0.49223         112.6519
2016    29      7       0.4789819       110.4388
2016    30      0       0.4563983       106.4761
2016    30      1       0.4188493       99.63255
2016    30      2       0.364158        89.41439
2016    30      3       0.3474256       86.22255
2016    30      4       0.3468786       86.18801
2016    30      5       0.3556607       87.97641
2016    30      6       0.3271569       82.4162
2016    30      7       0.3576456       88.36512
2016    31      0       0.4316918       101.7185
2016    31      1       0.5229741       116.7077
2016    31      2       0.4201974       99.07264
2016    31      3       0.5786252       126.2719
2016    31      4       0.6117748       130.9819
2016    31      5       0.6605372       137.8114
2016    31      6       0.6602034       137.483
2016    31      7       0.6775508       140.4659
2017    1       0       0.616742        132.1632
2017    1       1       0.5162479       115.5534
2017    1       2       0.5234371       116.5607
2017    1       3       0.631001        133.9824
2017    1       4       0.6668509       139.4262
2017    1       5       0.7652742       152.4977
2017    1       6       0.7860213       154.6706
2017    1       7       0.8620841       162.9105
2017    2       0       0.9255851       170.337
2017    2       1       1.192005        194.0543
2017    2       2       1.440819        213.3294
2017    2       3       1.206072        198.0606
2017    2       4       1.747968        232.6126
2017    2       5       2.180813        248.779
2017    2       6       1.836775        234.9585
2017    2       7       1.523991        219.5819
2017    3       0       1.209317        198.4089
2017    3       1       0.9573492       175.0859
2017    3       2       0.7539303       151.3212
2017    3       3       0.7082627       144.9058
2017    3       4       0.5997225       129.926
2017    3       5       0.5656503       124.9477
2017    3       6       0.5388718       120.4872
2017    3       7       0.5051348       114.9638
2017    4       0       0.4054035       97.33205
2017    4       1       0.3539401       87.41293
2017    4       2       0.271296        70.59293
2017    4       3       0.3506228       87.08448
2017    4       4       0.3444245       85.8734
2017    4       5       0.4115177       98.5883
2017    4       6       1.398144        216.1305
2017    4       7       0.8701223       165.92
2017    5       0       1.092221        188.3817
2017    5       1       0.919126        170.907
2017    5       2       0.9822736       177.2348
2017    5       3       0.8271989       160.2171
2017    5       4       0.8505074       162.8824
2017    5       5       0.8781062       166.3222
2017    5       6       1.10767         189.1556
2017    5       7       1.077244        186.997
2017    6       0       0.954263        174.8555
2017    6       1       0.9676548       175.9984
2017    6       2       0.9218668       170.9759
2017    6       3       0.914185        169.4535
2017    6       4       0.7981139       156.3072
2017    6       5       0.7636649       152.1439
2017    6       6       0.8309266       160.1934
2017    6       7       0.9092461       169.6001
2017    7       0       0.7883111       155.7244
2017    7       1       0.7542045       151.2013
2017    7       2       0.7808255       154.455
2017    7       3       0.6788116       140.8118
2017    7       4       0.7831383       154.5684
2017    7       5       1.033326        182.2583
2017    7       6       0.9095087       169.7488
2017    7       7       0.7135          146.0314
2017    8       0       0.5441319       120.549
2017    8       1       0.3182063       79.1527
2017    8       2       0.2797895       71.08337
2017    8       3       0.3992864       95.19404
2017    8       4       0.4444523       103.6693
2017    8       5       0.5213208       117.2712
2017    8       6       0.5425392       120.5229
2017    8       7       0.5548106       122.5182
2017    9       0       0.6575132       137.5087
2017    9       1       0.7794039       153.3137
2017    9       2       0.9845308       176.3806
2017    9       3       1.126903        190.6736
2017    9       4       1.042989        183.1671
2017    9       5       1.022659        181.5883
2017    9       6       0.9767802       176.4691
2017    9       7       0.8788363       166.3586
2017    10      0       0.7842315       155.0038
2017    10      1       0.8506091       163.2549
2017    10      2       0.9820807       178.0145
2017    10      3       0.9792238       176.8465
2017    10      4       1.205576        197.0202
2017    10      5       1.403712        212.2194
2017    10      6       1.408325        212.6089
2017    10      7       1.22462         198.7766
2017    11      0       1.063404        184.9095
2017    11      1       1.04915         183.5432
2017    11      2       1.093363        188.5245
2017    11      3       0.9086098       170.151
2017    11      4       0.8857645       168.0611
2017    11      5       0.8694086       166.3828
2017    11      6       0.7898601       156.6174
2017    11      7       0.5642073       124.1962
2017    12      0       0.3886381       93.87225
2017    12      1       0.2814822       72.63884
2017    12      2       0.3221637       80.8765
2017    12      3       0.3316906       83.1232
2017    12      4       0.3516383       87.08098
2017    12      5       0.4038678       96.83654
2017    12      6       0.493853        112.4421
2017    12      7       0.5538086       122.3232
2017    13      0       0.5349776       119.3693
2017    13      1       0.4478485       104.696
2017    13      2       0.3298727       82.41699
2017    13      3       0.3325115       82.76829
2017    13      4       0.3260316       81.6766
2017    13      5       0.3375625       84.00436
2017    13      6       0.3870315       93.77677
2017    13      7       0.4556604       106.6147
2017    14      0       0.3976543       95.67713
2017    14      1       0.3687794       89.50678
2017    14      2       0.3859669       92.48981
2017    14      3       0.4714798       107.99
2017    14      4       0.5246955       117.1903
2017    14      5       0.6017094       129.7959
2017    14      6       0.6239309       133.3625
2017    14      7       0.6191972       133.0776
2017    15      0       0.6205716       132.8994
2017    15      1       0.6190915       132.3775
2017    15      2       0.6853391       141.3974
2017    15      3       0.7016997       143.5973
2017    15      4       0.7494417       150.2337
2017    15      5       0.7440582       149.3177
2017    15      6       0.7623          151.9352
2017    15      7       0.4123425       98.49786
2017    16      0       0.1408063       40.95277
2017    16      1       0.1083393       32.7435
2017    16      2       0.1054306       31.73498
2017    16      3       0.3468597       85.25985
2017    16      4       0.3334677       82.99035
2017    16      5       0.3280004       82.32191
2017    16      6       0.3683277       90.42629
2017    16      7       0.4486794       104.9082
2017    17      0       0.3986005       95.86667
2017    17      1       0.3309366       82.76666
2017    17      2       0.2712389       70.39408
2017    17      3       0.3255487       81.73039
2017    17      4       0.271965        71.08363
2017    17      5       0.2699903       70.63704
2017    17      6       0.2587478       68.3729
2017    17      7       0.239149        64.31366
2017    18      0       0.2326617       62.98198
2017    18      1       0.2502298       66.74423
2017    18      2       0.2934061       75.90085
2017    18      3       0.3455562       86.59048
2017    18      4       0.5186762       117.9794
2017    18      5       0.6362104       135.9484
2017    18      6       0.5458561       120.7978
2017    18      7       0.49987         112.2907
2017    19      0       0.3585028       86.86525
2017    19      1       0.2589345       66.99758
2017    19      2       0.2309945       61.27952
2017    19      3       0.3331877       82.89532
2017    19      4       0.3422184       85.02433
2017    19      5       0.2907275       74.93382
2017    19      6       0.2456202       65.13532
2017    19      7       0.3435103       85.37054
2017    20      0       0.3744165       90.46022
2017    20      1       0.3701095       88.59884
2017    20      2       0.3636466       86.08496
2017    20      3       0.4614884       104.86
2017    20      4       0.4912972       110.1722
2017    20      5       0.5424243       118.9601
2017    20      6       0.567462        123.2021
2017    20      7       0.5770939       125.1054
2017    21      0       0.5736633       124.2512
2017    21      1       0.5689261       123.7655
2017    21      2       0.5193257       116.0369
2017    21      3       0.5531461       121.743
2017    21      4       0.5283063       117.6488
2017    21      5       0.520933        116.4906
2017    21      6       0.5227219       116.5123
2017    21      7       0.477328        108.876
2017    22      0       0.4092108       96.92501
2017    22      1       0.441079        102.1137
2017    22      2       0.4816388       108.9819
2017    22      3       0.5418963       119.2149
2017    22      4       0.6400385       134.6685
2017    22      5       0.7350952       148.0417
2017    22      6       0.7599542       151.3911
2017    22      7       0.8132978       157.5613
2017    23      0       0.9941386       176.3023
2017    23      1       1.192789        193.7662
2017    23      2       1.711919        230.0333
2017    23      3       1.598912        223.9599
2017    23      4       1.766701        232.7899
2017    23      5       1.718517        231.0314
2017    23      6       1.585777        224.7686
2017    23      7       1.239074        201.5356
2017    24      0       1.246393        201.6892
2017    24      1       1.695392        229.2086
2017    24      2       1.375873        209.4762
2017    24      3       0.9369705       171.6544
2017    24      4       0.5320745       118.8974
2017    24      5       0.4144827       98.92017
2017    24      6       0.405625        97.14057
2017    24      7       0.2009141       54.94744
2017    25      0       0.1770344       49.21396
2017    25      1       0.4593956       105.9969
2017    25      2       0.5415055       121.9641
2017    25      3       0.5994721       129.3602
2017    25      4       0.4092154       98.25208
2017    25      5       0.3909892       94.58471
2017    25      6       0.4303247       101.6338
2017    25      7       0.3782093       92.23909
2017    26      0       0.3377009       84.43803
2017    26      1       0.3237712       81.5874
2017    26      2       0.3376128       84.27473
2017    26      3       0.3656269       89.65756
2017    26      4       0.4087095       97.42373
2017    26      5       0.4921483       111.6982
2017    26      6       0.5940998       127.8521
2017    26      7       0.6336817       133.1621
2017    27      0       0.4906505       111.0407
2017    27      1       0.4007926       95.38055
2017    27      2       0.7676569       150.4023
2017    27      3       0.7123985       142.5322
2017    27      4       0.8217099       154.6201
2017    27      5       0.4374341       99.94382
2017    27      6       0.5880814       123.6149
2017    27      7       0.643784        132.3011
2017    28      0       0.6255724       130.4659
2017    28      1       0.6267566       131.2285
2017    28      2       0.4622101       105.7367
2017    28      3       0.3774883       90.78823
2017    28      4       0.2901933       73.89808
2017    28      5       0.2669804       69.3866
2017    28      6       0.2764681       71.47635
2017    28      7       0.2824224       72.878
2017    29      0       0.2583294       67.68258
2017    29      1       0.2540163       66.77582
2017    29      2       0.2481591       65.54624
2017    29      3       0.2293046       61.55233
2017    29      4       0.2359299       62.82091
2017    29      5       0.2847278       73.25667
2017    29      6       0.279003        71.96969
2017    29      7       0.1773086       49.52585
2017    30      0       0.1728013       47.97074
2017    30      1       0.1765903       48.72
2017    30      2       0.1910279       52.49627
2017    30      3       0.236387        63.03652
2017    30      4       0.2264231       60.95447
2017    30      5       0.2404043       64.06551
2017    30      6       0.2797162       72.29678
2017    30      7       0.2985753       76.00473
2017    31      0       0.2727604       70.48964
2017    31      1       0.2408795       63.59683
2017    31      2       0.2322332       61.34026
2017    31      3       0.3078391       77.45468
2017    31      4       0.3026775       76.58879
2017    31      5       0.3044253       76.98339
2017    31      6       0.2930617       74.55468
2017    31      7       0.3078136       77.51523
2018    1       0       0.7149592       144.0098
2018    1       1       0.5994672       129.0573
2018    1       2       0.4854985       108.6498
2018    1       3       0.4813546       108.3883
2018    1       4       0.4319846       99.49824
2018    1       5       0.4024188       94.25484
2018    1       6       0.3843137       90.7246
2018    1       7       0.3870964       91.55979
2018    2       0       0.3121023       77.26487
2018    2       1       0.2935057       73.2624
2018    2       2       0.3417153       82.9226
2018    2       3       0.4610865       105.2413
2018    2       4       0.4537631       104.4024
2018    2       5       0.4608447       106.1041
2018    2       6       0.4860356       110.527
2018    2       7       0.4598677       106.3661
2018    3       0       0.4214502       99.51298
2018    3       1       0.3965783       94.84611
2018    3       2       0.3847157       92.45634
2018    3       3       0.436941        101.9872
2018    3       4       0.459585        105.9171
2018    3       5       0.477171        109.0441
2018    3       6       0.4676085       107.4175
2018    3       7       0.4288546       100.835
2018    4       0       0.3910968       93.94199
2018    4       1       0.3612024       88.16901
2018    4       2       0.3506399       86.06009
2018    4       3       0.3391487       83.93941
2018    4       4       0.3642703       88.67852
2018    4       5       0.3826524       92.06109
2018    4       6       0.4177994       98.73206
2018    4       7       0.4106185       97.19157
2018    5       0       0.3421095       84.39416
2018    5       1       0.2527371       66.37379
2018    5       2       0.2537692       66.45975
2018    5       3       0.2469826       65.08721
2018    5       4       0.2742285       70.75854
2018    5       5       0.2678218       69.68948
2018    5       6       0.287834        73.86679
2018    5       7       0.3613135       88.72999
2018    6       0       0.3282294       82.0541
2018    6       1       0.2774867       71.3998
2018    6       2       0.3093347       77.70254
2018    6       3       0.3963862       95.32129
2018    6       4       0.396947        96.10282
2018    6       5       0.4178718       100.1156
2018    6       6       0.4799309       111.3296
2018    6       7       0.3510929       87.40187
2018    7       0       0.2327215       62.5535
2018    7       1       0.2534206       66.97049
2018    7       2       0.280169        72.57498
2018    7       3       0.4082825       97.53771
2018    7       4       0.4473539       104.4979
2018    7       5       0.5275785       117.666
2018    7       6       0.6819887       140.212
2018    7       7       0.7189768       145.8683
2018    8       0       0.8148954       158.3001
2018    8       1       0.2768097       71.06904
2018    8       2       0.2286273       61.27298
2018    8       3       0.2858535       72.86002
2018    8       4       0.2818289       71.97682
2018    8       5       0.2679967       69.26037
2018    8       6       0.2751581       70.74033
2018    8       7       0.3046808       76.88878
2018    9       0       0.2372335       62.25599
2018    9       1       0.2011084       53.79191
2018    9       2       0.3470877       83.2988
2018    9       3       0.487627        109.0532
2018    9       4       0.4937428       110.6551
2018    9       5       0.5136836       114.3671
2018    9       6       0.4981704       112.3681
2018    9       7       0.449691        104.3248
2018    10      0       0.4610959       106.526
2018    10      1       0.4606511       106.4512
2018    10      2       0.4548383       105.4498
2018    10      3       0.4413253       103.3722
2018    10      4       0.4331327       101.8768
2018    10      5       0.4562672       106.0618
2018    10      6       0.5998614       130.1252
2018    10      7       0.4368214       102.4582
2018    11      0       0.4265824       100.6685
2018    11      1       0.4488915       104.5289
2018    11      2       0.4443839       103.7933
2018    11      3       0.4326027       101.6332
2018    11      4       0.4301421       101.058
2018    11      5       0.3896117       93.57025
2018    11      6       0.3874867       93.36897
2018    11      7       0.3253813       81.25066
2018    12      0       0.3170481       80.02468
2018    12      1       0.2919777       74.93039
2018    12      2       0.3243455       81.93407
2018    12      3       0.4299145       101.7357
2018    12      4       0.4926099       112.6639
2018    12      5       0.5536973       122.6861
2018    12      6       0.584191        127.4971
2018    12      7       0.5636242       124.4063
2018    13      0       0.5845245       127.4262
2018    13      1       0.7050507       144.4247
2018    13      2       0.7021516       144.6153
2018    13      3       0.6968187       143.9888
2018    13      4       0.6929906       143.115
2018    13      5       0.6609068       138.4388
2018    13      6       0.6191194       131.9276
2018    13      7       0.6181244       131.9452
2018    14      0       0.5944831       128.2946
2018    14      1       0.5104602       114.7139
2018    14      2       0.4224454       99.38881
2018    14      3       0.4717209       108.4727
2018    14      4       0.4452323       104.1
2018    14      5       0.4287514       101.2098
2018    14      6       0.4171944       98.78388
2018    14      7       0.1810443       50.12833
2018    15      0       0.09664948      29.80117
2018    15      1       0.100768        30.7392
2018    15      2       0.1199339       35.66735
2018    15      3       0.2723997       70.48384
2018    15      4       0.2679267       69.74193
2018    15      5       0.289201        74.23308
2018    15      6       0.3121018       78.9947
2018    15      7       0.2778025       72.14188
2018    16      0       0.2557057       67.46051
2018    16      1       0.2551247       67.22524
2018    16      2       0.2776012       72.02848
2018    16      3       0.3255658       81.96587
2018    16      4       0.3389984       84.27888
2018    16      5       0.3568703       87.45544
2018    16      6       0.3759687       91.08386
2018    16      7       0.3570379       87.38518
2018    17      0       0.3457628       85.10338
2018    17      1       0.3143632       78.55337
2018    17      2       0.3361636       82.44168
2018    17      3       0.4226736       99.10449
2018    17      4       0.4074656       96.64996
2018    17      5       0.3420982       84.62172
2018    17      6       0.2949996       75.60072
2018    17      7       0.4490051       105.1685
2018    18      0       0.4396606       103.3144
2018    18      1       0.4780535       110.1406
2018    18      2       0.4505297       104.9874
2018    18      3       0.6467301       136.126
2018    18      4       0.9847208       177.2672
2018    18      5       1.476343        217.3415
2018    18      6       1.246397        199.9936
2018    18      7       0.8798807       166.6783
2018    19      0       0.7484294       150.9619
2018    19      1       0.6394418       136.2846
2018    19      2       0.6434889       136.9857
2018    19      3       0.608966        131.3017
2018    19      4       0.5876216       127.7281
2018    19      5       0.7198326       146.5012
2018    19      6       1.132644        192.5407
2018    19      7       1.083604        188.645
2018    20      0       0.9715683       177.6776
2018    20      1       0.859587        165.2623
2018    20      2       0.7931468       157.0813
2018    20      3       0.7119732       146.1041
2018    20      4       0.7818067       154.2201
2018    20      5       0.8233582       158.1499
2018    20      6       1.021808        181.1794
2018    20      7       0.8569081       164.7776
2018    21      0       0.7172011       147.2474
2018    21      1       0.8231272       159.2836
2018    21      2       0.7904681       154.8345
2018    21      3       0.788381        154.6841
2018    21      4       0.8605007       162.3331
2018    21      5       0.8925642       163.9868
2018    21      6       0.889682        164.6604
2018    21      7       1.009639        176.5968
2018    22      0       1.03118         177.8447
2018    22      1       0.8887182       164.6203
2018    22      2       0.8208396       157.7673
2018    22      3       0.9151271       168.4288
2018    22      4       0.9697657       173.0633
2018    22      5       0.8682181       162.1036
2018    22      6       0.8149648       156.3152
2018    22      7       0.6605001       136.2729
2018    23      0       0.5212304       115.5859
2018    23      1       0.5417904       119.2057
2018    23      2       0.7750424       152.0129
2018    23      3       0.6785842       140.0606
2018    23      4       0.6475139       136.2489
2018    23      5       0.8114733       157.7769
2018    23      6       0.8266156       159.1723
2018    23      7       0.7941649       154.8915
2018    24      0       0.7525031       149.5724
2018    24      1       0.6568306       136.9055
2018    24      2       0.7140046       144.6536
2018    24      3       0.6760979       139.5383
2018    24      4       0.6999098       142.6122
2018    24      5       0.7718003       151.7447
2018    24      6       0.8651345       163.338
2018    24      7       0.7978269       155.8643
2018    25      0       0.7539867       150.3017
2018    25      1       0.7051964       143.8964
2018    25      2       0.669653        139.1361
2018    25      3       0.6658779       138.7684
2018    25      4       0.7470447       149.4845
2018    25      5       0.845919        161.2171
2018    25      6       0.9591925       173.8099
2018    25      7       0.8968754       168.0263
2018    26      0       0.820337        159.5277
2018    26      1       0.7119198       145.5029
2018    26      2       0.6268802       133.0111
2018    26      3       0.9018872       167.51
2018    26      4       0.9021988       167.7893
2018    26      5       0.8655044       164.4223
2018    26      6       0.7704763       153.4253
2018    26      7       0.8912589       168.3894
2018    27      0       0.8616442       164.6918
2018    27      1       0.9233899       171.3631
2018    27      2       1.327786        207.1597
2018    27      3       0.9782256       176.7347
2018    27      4       1.069198        185.4279
2018    27      5       1.264023        201.5197
2018    27      6       1.158918        193.7364
2018    27      7       1.097851        188.5739
2018    28      0       1.022716        181.3619
2018    28      1       0.9125864       169.9317
2018    28      2       0.8190631       158.9545
2018    28      3       0.6973956       143.757
2018    28      4       0.7175648       146.4467
2018    28      5       0.7732627       153.7647
2018    28      6       0.7517126       151.2165
2018    28      7       0.7166368       146.6877
2018    29      0       0.6856426       142.5899
2018    29      1       0.7061238       145.2072
2018    29      2       0.7007652       144.4618
2018    29      3       0.6921588       143.4968
2018    29      4       0.794328        157.0525
2018    29      5       0.9701752       176.7147
2018    29      6       1.155344        193.6772
2018    29      7       0.9552392       175.1022
2018    30      0       0.8084203       158.863
2018    30      1       0.5793809       127.5541
2018    30      2       0.5146334       116.8358
2018    30      3       0.5229715       117.7009
2018    30      4       0.5173143       116.2291
2018    30      5       0.6308679       133.9102
2018    30      6       1.059357        185.1092
2018    30      7       0.9317597       172.0383
2018    31      0       0.87895         165.84
2018    31      1       0.9504934       173.0804
2018    31      2       1.066935        184.456
2018    31      3       0.8824887       166.0956
2018    31      4       0.7132431       145.2491
2018    31      5       0.6861413       141.5368
2018    31      6       0.7130513       145.4071
2018    31      7       0.6367976       135.1369
