####################################################################################################
# Month: 09Sep                                                                                     #
# Station: PAR                                                                                     #
# Frequency: 345 GHz                                                                               #
# Columns are: year    day     tau     Tb (K)                                                      #
####################################################################################################
2009    1       0.96273486      167.1627125
2009    2       0.61816137      125.40465625
2009    3       0.38056046      88.6475825
2009    4       0.31853911      77.25264625
2009    5       0.35100568      83.74350375
2009    6       0.30114281      73.4817
2009    7       0.45974534      102.4223025
2009    8       0.66939164      133.2343
2009    9       0.48072924      99.974025
2009    10      0.19896245      53.62779625
2009    11      0.1632158       45.95329125
2009    12      0.2101325       56.50773125
2009    13      0.18537235      51.56239375
2009    14      0.27706161      67.88063
2009    15      0.59071805      119.41186625
2009    16      0.75080399      143.80765
2009    17      0.38183969      88.2849825
2009    18      0.1828286       51.16889125
2009    19      0.27120976      70.2343975
2009    20      0.25251776      65.5256225
2009    21      0.30359789      75.905945
2009    22      0.3701314       88.36688625
2009    23      0.15827395      45.324935
2009    24      0.21457151      58.10475375
2009    25      0.16852572      47.07755125
2009    26      0.20792528      55.35545
2009    27      0.22349205      58.971145
2009    28      0.20532301      55.11821125
2009    29      0.26270964      67.0109775
2009    30      0.37167918      88.321115
2010    1       0.39255695      92.05745125
2010    2       0.29808344      74.08055125
2010    3       0.11133615      34.2739275
2010    4       0.14235482      41.4364775
2010    5       0.12462336      37.33159
2010    6       0.18831449      51.4738475
2010    7       0.19432701      53.10033625
2010    8       0.19337909      53.03222625
2010    9       0.26059435      67.32416
2010    10      0.37530775      89.55503125
2010    11      0.23335542      61.74612875
2010    12      0.33043551      79.74948125
2010    13      0.23362676      60.28393
2010    14      0.28404795      70.60965875
2010    15      0.15104901      42.5247325
2010    16      0.14903759      42.84585875
2010    17      0.15928299      45.357325
2010    18      0.27120824      68.37979125
2010    19      0.38344211      90.1350075
2010    20      0.41699815      97.23593625
2010    21      0.47756039      106.5923225
2010    22      0.46147705      103.40261875
2010    23      0.39323605      92.10017125
2010    24      0.34615149      83.41422875
2010    25      0.37182365      88.91968875
2010    26      0.31231284      77.91159375
2010    27      0.24174709      63.3200475
2010    28      0.20287062      54.1191425
2010    29      0.27210601      68.99586
2010    30      0.25155972      64.67545625
2011    1       0.1943976       53.00557625
2011    2       0.51326832      109.34191375
2011    3       0.90683671      162.32035
2011    4       0.72367746      138.38047625
2011    5       0.28804132      72.29444375
2011    6       0.25170731      64.86972375
2011    7       0.30275241      74.41586625
2011    8       0.14604395      41.520345
2011    9       0.49612579      106.42234
2011    10      0.66013795      132.9378125
2011    11      0.37238368      90.0130275
2011    12      0.24675838      65.55011
2011    13      0.32973749      81.11083375
2011    14      0.27157518      70.16734375
2011    15      0.19568039      53.71891375
2011    16      0.2796482       70.828365
2011    17      0.36564979      86.94873875
2011    18      0.41566012      95.621185
2011    19      0.37489382      89.23588
2011    20      0.30848114      77.38814625
2011    21      0.3105952       77.4838325
2011    22      0.40736301      95.50951125
2011    23      0.22468379      59.81618125
2011    24      0.21915294      58.24563875
2011    25      0.34585025      85.24688875
2011    26      0.22119489      59.65503
2011    27      0.31909059      79.682225
2011    28      0.56403008      121.61228875
2011    29      0.28334731      72.72502
2011    30      0.32543525      81.13800625
2012    1       1.00366125      171.9051625
2012    2       1.12700568      184.6113375
2012    3       0.60052328      126.5807875
2012    4       0.48851521      107.9235725
2012    5       0.96282112      171.6017375
2012    6       0.26995792      68.67233875
2012    7       0.25563536      65.78406
2012    8       0.58069724      123.68574125
2012    9       0.42118205      98.79673125
2012    10      0.21004704      56.87777375
2012    11      0.1982415       54.3437075
2012    12      0.36559704      85.57483625
2012    13      0.47328161      105.85504125
2012    14      0.50792658      111.2045
2012    15      1.00239634      172.2142625
2012    16      0.64211289      132.5665
2012    17      0.84819389      156.84265
2012    18      0.86669749      138.479045
2012    19      0.26703611      67.2022925
2012    20      0.47981217      107.68465375
2012    21      0.28107964      71.27611875
2012    22      0.37306956      87.4027725
2012    23      0.30807521      76.08589625
2012    24      0.29125235      73.43493625
2012    25      0.28195304      72.420695
2012    26      0.29671368      75.79063875
2012    27      0.395575        92.60439
2012    28      0.42438951      97.400205
2012    29      0.3652696       87.947035
2012    30      0.35064744      85.3678925
2013    1       0.29099944      73.38117875
2013    2       0.35950539      85.25310125
2013    3       0.47478726      105.57309625
2013    4       0.27354209      69.76143375
2013    5       0.38827361      88.753145
2013    6       1.15603725      188.8153625
2013    7       1.03108726      177.894475
2013    8       0.62772771      130.64655
2013    9       0.94816719      171.2595625
2013    10      0.71496194      144.4601625
2013    11      0.47586035      109.06555
2013    12      0.30375851      76.85807
2013    13      0.29132287      73.38151875
2013    14      0.44251489      99.23409875
2013    15      0.49373146      107.34419
2013    16      0.33569145      79.743845
2013    17      0.3178941       74.92368875
2013    18      0.32664919      79.42922375
2013    19      0.32210116      78.98597625
2013    20      0.46662583      104.14160625
2013    21      0.47839398      107.171875
2013    22      0.24946929      64.716375
2013    23      0.29491279      74.5168075
2013    24      0.27311436      69.95317125
2013    25      0.61984249      124.89455375
2013    26      1.08297808      181.871175
2013    27      0.94202944      162.00074375
2013    28      0.35409861      83.59284
2013    29      0.4696506       101.52459
2013    30      0.41456622      96.00394125
2014    1       0.64277261      131.553775
2014    2       0.69734696      139.1647125
2014    3       0.4265228       98.46617125
2014    4       0.49899792      110.2813075
2014    5       0.39235458      91.82455375
2014    6       0.18993262      51.4220425
2014    7       0.26874702      69.01519375
2014    8       0.24374875      64.6059
2014    9       0.31843145      79.55266125
2014    10      0.24799882      65.01902625
2014    11      0.21589406      58.035215
2014    12      0.81995116      149.61621
2014    13      1.34561031      197.5147375
2014    14      0.35352326      85.793155
2014    15      0.32316286      78.61000375
2014    16      0.37748635      89.6750775
2014    17      0.75626855      143.5693125
2014    18      0.71798256      142.0729
2014    19      0.45675489      102.1019725
2014    20      0.36302228      86.72798
2014    21      0.40023781      94.62222625
2014    22      0.45580501      104.521285
2014    23      0.42778651      98.51035875
2014    24      0.29451043      74.52377625
2014    25      0.27058792      68.73737
2014    26      0.24523089      63.76891875
2014    27      0.24321739      63.9672825
2014    28      0.2778907       69.71900625
2014    29      0.4163619       97.57135375
2014    30      0.53227271      115.7584625
2015    1       0.37473266      90.807155
2015    2       0.53069381      116.31066375
2015    3       0.56246291      120.4898775
2015    4       0.27592421      70.338125
2015    5       0.35741942      85.41387625
2015    6       0.94004852      163.1409625
2015    7       0.42521289      96.09141125
2015    8       0.26850939      67.97430625
2015    9       0.30472884      74.56222
2015    10      0.54871725      116.19056375
2015    11      0.48646989      106.0034575
2015    12      0.35628234      84.46550625
2015    13      0.38690458      90.05856625
2015    14      0.36253572      85.13418375
2015    15      0.34086351      81.65366875
2015    16      0.53496951      115.4486275
2015    17      0.61478112      127.0024625
2015    18      0.70702471      138.9392375
2015    19      0.64049161      130.6558125
2015    20      0.78461871      149.824325
2015    21      0.77957948      149.9830875
2015    22      0.52829928      116.6025625
2015    23      0.46484006      106.06216
2015    24      0.21664605      57.2846475
2015    25      0.26699325      67.7993625
2015    26      0.40287131      94.042315
2015    27      0.34400141      81.4794125
2015    28      0.6105749       127.8422375
2015    29      0.66164685      136.0779125
2015    30      0.6738496       136.8171125
2016    1       0.3728041       88.3456825
2016    2       0.31998144      78.14078125
2016    3       0.28992573      72.143035
2016    4       0.39673812      91.60597125
2016    5       0.29380973      72.973325
2016    6       0.19315269      52.18749125
2016    7       0.27529592      70.12213375
2016    8       0.21240385      56.62529375
2016    9       0.17090856      47.87406625
2016    10      0.1632994       46.480525
2016    11      0.18761942      51.7628425
2016    12      0.19283865      52.85466375
2016    13      0.19995792      54.2857675
2016    14      0.27941518      71.3406075
2016    15      0.25694229      66.15162875
2016    16      0.36969225      88.80300875
2016    17      0.33862231      83.3019325
2016    18      0.36078785      88.48577125
2016    19      0.28015306      72.5731025
2016    20      0.37823061      89.3426
2016    21      0.60707446      128.4216
2016    22      0.51050475      113.35825
2016    23      0.51588202      114.8431775
2016    24      0.27505445      70.97809
2016    25      0.27565026      70.84306625
2016    26      0.29616186      75.08219875
2016    27      0.29497092      75.407645
2016    28      0.50625234      111.39981
2016    29      0.47499495      107.317315
2016    30      0.28740009      72.00874375
2017    1       0.78072991      150.1253125
2017    2       0.63444332      130.1135375
2017    3       1.51065654      210.231875
2017    4       0.40414256      90.2811525
2017    5       0.15068929      43.2353275
2017    6       0.19051321      52.1833225
2017    7       0.28650294      72.5623225
2017    8       0.33815482      82.83749875
2017    9       0.51537962      112.32526625
2017    10      0.34648251      81.86775625
2017    11      0.19620584      53.75632625
2017    12      0.24574839      64.11678875
2017    13      0.18357384      50.7352225
2017    14      0.12464508      37.46773375
2017    15      0.15546273      44.9619575
2017    16      0.15802134      45.36606
2017    17      0.34137731      84.11968
2017    18      0.39734039      94.2021175
2017    19      0.66307651      136.3615125
2017    20      1.3043251       200.2756625
2017    21      0.31180961      75.0023625
2017    22      0.17010257      47.93243
2017    23      0.24638192      63.9192675
2017    24      0.29769643      75.5188375
2017    25      0.20166098      55.22774625
2017    26      0.16984015      48.27550375
2017    27      0.26080278      68.26013875
2017    28      0.4852468       104.70789375
2017    29      0.68913012      138.4009625
2017    30      0.47305204      106.889575
2018    1       0.38032731      84.4678425
2018    2       0.16384249      46.05549875
2018    3       0.1264871       38.02335625
2018    4       0.17980171      50.68383
2018    5       0.2070084       56.52391375
2018    6       0.1371629       40.38790375
2018    7       0.13903053      40.787955
2018    8       0.12857704      38.23676625
2018    9       0.29820708      72.68224125
2018    10      0.2866188       71.520825
2018    11      0.244615        63.87717625
2018    12      0.25489866      65.79121875
2018    13      0.41503131      94.715495
2018    14      0.31266759      76.5205
2018    15      0.51978312      112.8616
2018    16      0.32134542      78.52623625
2018    17      0.44715075      101.59863875
2018    18      0.37750392      89.18988375
2018    19      0.33495318      80.7270325
2018    20      0.34349824      84.38891
2018    21      0.14635338      43.0976825
2018    22      0.13381995      39.92385
2018    23      0.13224411      39.26978125
2018    24      0.20396254      54.42354875
2018    25      0.30972036      76.21939375
2018    26      0.45779204      102.962425
2018    27      0.62948616      129.5718
2018    28      0.48851505      109.112775
2018    29      0.47228744      105.937645
2018    30      0.37348242      88.9132175
