####################################################################################################
# Month: 11Nov                                                                                     #
# Station: NOB                                                                                     #
# Frequency: 230 GHz                                                                               #
# Columns are: year    day     segment         tau     Tb (K)                                      #
####################################################################################################
2009    1       0       1.257862        199.7379
2009    1       1       1.321391        204.0878
2009    1       2       1.575131        219.0133
2009    1       3       1.612386        220.6837
2009    1       4       1.41781         208.2916
2009    1       5       1.31228         201.5835
2009    1       6       1.404649        207.4916
2009    1       7       1.482009        211.1025
2009    2       0       1.312135        199.8317
2009    2       1       0.7485149       145.0371
2009    2       2       0.8815228       159.883
2009    2       3       1.165254        186.0417
2009    2       4       0.8201367       149.7255
2009    2       5       0.647626        127.22
2009    2       6       0.4703622       100.9515
2009    2       7       0.3737579       84.90796
2009    3       0       0.3410498       79.16567
2009    3       1       0.3202715       75.80152
2009    3       2       0.3237164       76.85645
2009    3       3       0.2755392       68.58172
2009    3       4       0.2313757       59.29764
2009    3       5       0.2155962       56.26316
2009    3       6       0.1931192       51.49371
2009    3       7       0.1754332       47.71696
2009    4       0       0.1465714       41.12952
2009    4       1       0.1834664       49.35021
2009    4       2       0.2398705       61.15192
2009    4       3       0.2277631       57.92949
2009    4       4       0.3287618       77.50457
2009    4       5       0.5532096       114.7837
2009    4       6       0.5077909       109.8626
2009    4       7       0.4137702       93.82182
2009    5       0       0.4279507       94.80628
2009    5       1       0.5968005       121.5125
2009    5       2       0.5905668       121.5966
2009    5       3       0.6701704       134.8009
2009    5       4       0.618165        128.4512
2009    5       5       0.4726981       106.1444
2009    5       6       0.4382549       100.2462
2009    5       7       0.4100421       95.22109
2009    6       0       0.2947383       73.41997
2009    6       1       0.3902345       91.86656
2009    6       2       0.4348154       100.0543
2009    6       3       0.4771435       107.1604
2009    6       4       0.5140774       112.8997
2009    6       5       0.471614        105.5584
2009    6       6       0.4214421       96.73368
2009    6       7       0.4234061       96.84628
2009    7       0       0.3971606       92.12092
2009    7       1       0.4299997       98.27982
2009    7       2       0.4597722       103.8997
2009    7       3       0.4526501       102.9927
2009    7       4       0.4582361       103.9123
2009    7       5       0.4581966       103.9833
2009    7       6       0.4687173       105.4564
2009    7       7       0.4467527       101.437
2009    8       0       0.4824788       107.3904
2009    8       1       0.5026011       110.7174
2009    8       2       0.5491594       118.6306
2009    8       3       0.632709        131.1196
2009    8       4       0.6962649       139.5179
2009    8       5       0.7572574       147.1144
2009    8       6       0.8179864       154.4213
2009    8       7       0.9884548       172.3507
2009    9       0       0.9790437       171.6562
2009    9       1       1.005851        174.1806
2009    9       2       1.09195         181.819
2009    9       3       1.043123        178.1953
2009    9       4       0.9775726       172.2884
2009    9       5       0.9230162       166.6516
2009    9       6       0.7546938       147.2039
2009    9       7       0.5884667       124.7015
2009    10      0       0.6077058       127.4713
2009    10      1       0.7357497       145.3798
2009    10      2       0.946431        169.4858
2009    10      3       1.254084        196.8496
2009    10      4       1.460244        211.4599
2009    10      5       1.477722        212.243
2009    10      6       1.490523        213.1538
2009    10      7       1.573519        217.975
2009    11      0       1.816895        231.6601
2009    11      1       1.921928        235.4677
2009    11      2       1.644289        220.6494
2009    11      3       1.442773        208.1043
2009    11      4       1.419219        206.6875
2009    11      5       1.260385        196.4872
2009    11      6       0.8781646       161.2294
2009    11      7       0.8417552       157.6243
2009    12      0       0.6696129       135.2209
2009    12      1       0.7216676       144.8261
2009    12      2       0.7450708       146.0603
2009    12      3       0.8188776       158.4974
2009    12      4       0.8271166       156.4398
2009    12      5       0.8298685       157.129
2009    12      6       0.7586494       148.6064
2009    12      7       0.6619462       135.6052
2009    13      0       0.7086668       141.4893
2009    13      1       0.9015299       164.6226
2009    13      2       1.277745        199.2737
2009    13      3       1.387636        207.7256
2009    13      4       1.510883        215.9079
2009    13      5       2.067766        242.8516
2009    13      6       1.748219        230.0232
2009    13      7       1.772015        231.2124
2009    14      0       2.086722        244.3498
2009    14      1       1.828987        231.3005
2009    14      2       0.9276668       168.4895
2009    14      3       0.9633347       171.2191
2009    14      4       0.9942046       173.6589
2009    14      5       0.8760911       160.8241
2009    14      6       0.9568129       169.0961
2009    14      7       0.765001        146.6446
2009    15      0       0.5146069       110.6161
2009    15      1       0.5137327       110.556
2009    15      2       0.5111033       109.8792
2009    15      3       0.553253        116.1593
2009    15      4       0.5219487       111.5473
2009    15      5       0.4326408       97.60713
2009    15      6       0.5442284       116.3624
2009    15      7       0.5454402       116.3317
2009    16      0       0.668362        132.002
2009    16      1       0.6373153       127.5221
2009    16      2       0.6051715       123.7928
2009    16      3       0.5558681       116.8939
2009    16      4       0.4976128       107.3438
2009    16      5       0.7208403       138.3432
2009    16      6       0.8070312       149.5784
2009    16      7       0.9582959       166.0616
2009    17      0       1.092334        179.0499
2009    17      1       1.044618        175.021
2009    17      2       1.091253        180.6723
2009    17      3       1.208951        190.6477
2009    17      4       0.9873624       171.4253
2009    17      5       0.7909099       149.0055
2009    17      6       0.7480231       143.2262
2009    17      7       0.9186187       161.7909
2009    18      0       0.807553        149.1459
2009    18      1       0.4880317       105.5531
2009    18      2       0.3991532       90.85554
2009    18      3       0.3759352       86.64374
2009    18      4       0.4265987       96.08049
2009    18      5       0.6851925       134.8993
2009    18      6       0.8430435       154.1733
2009    18      7       1.010217        171.3699
2009    19      0       0.9755827       167.4464
2009    19      1       0.7254481       138.7007
2009    19      2       0.6203473       124.775
2009    19      3       0.7003542       136.8222
2009    19      4       0.5595469       117.8668
2009    19      5       0.3817478       88.51912
2009    19      6       0.7140077       141.4524
2009    19      7       0.6895387       137.0764
2009    20      0       0.462863        101.9801
2009    20      1       0.4109125       93.08197
2009    20      2       0.4407445       98.28795
2009    20      3       0.5825749       120.437
2009    20      4       0.6471203       129.3416
2009    20      5       0.5843376       120.3363
2009    20      6       0.5841122       120.3535
2009    20      7       0.5735938       119.3107
2009    21      0       0.6008289       122.8717
2009    21      1       0.422589        95.05512
2009    21      2       0.3899826       89.56068
2009    21      3       0.5404046       114.9063
2009    21      4       0.3935485       89.72543
2009    21      5       0.3520042       82.36917
2009    21      6       0.4695771       102.988
2009    21      7       0.4201647       94.60633
2009    22      0       0.4758956       103.9297
2009    22      1       0.7051459       136.5068
2009    22      2       0.8350848       151.4268
2009    22      3       0.8216351       149.7821
2009    22      4       0.804817        148.6201
2009    22      5       0.8425404       153.1994
2009    22      6       0.5719207       118.5236
2009    22      7       0.3962648       90.88126
2009    23      0       0.3415454       81.87156
2009    23      1       0.3638296       86.08791
2009    23      2       0.3451921       82.78641
2009    23      3       0.3355596       80.91414
2009    23      4       0.3651883       86.52865
2009    23      5       0.3243083       78.81252
2009    23      6       0.2705022       68.0831
2009    23      7       0.2497525       63.7963
2009    24      0       0.1572638       43.61364
2009    24      1       0.287997        70.86769
2009    24      2       0.2514275       62.78667
2009    24      3       0.4006408       89.89937
2009    24      4       0.7096486       137.0922
2009    24      5       1.205519        190.21
2009    24      6       1.253103        194.1643
2009    24      7       1.366852        202.8632
2009    25      0       1.015175        175.034
2009    25      1       0.9679411       171.7427
2009    25      2       0.7498032       146.794
2009    25      3       0.6521332       133.2756
2009    25      4       0.65729         133.3466
2009    25      5       0.8369683       155.107
2009    25      6       0.6081992       124.9835
2009    25      7       0.5139037       110.8875
2009    26      0       0.5252666       112.8367
2009    26      1       0.5300456       113.9801
2009    26      2       0.404802        93.65385
2009    26      3       0.3696526       87.35445
2009    26      4       0.526453        114.0036
2009    26      5       0.4717393       105.044
2009    26      6       0.2804142       70.02198
2009    26      7       0.4970909       109.5298
2009    27      0       0.8456523       157.466
2009    27      1       0.9722889       171.2124
2009    27      2       1.006604        174.664
2009    27      3       1.133331        186.1774
2009    27      4       0.8219559       154.3908
2009    27      5       0.9313512       166.1952
2009    27      6       0.8930514       161.908
2009    27      7       0.8382229       155.4652
2009    28      0       0.6589015       132.8101
2009    28      1       0.5733168       120.3029
2009    28      2       0.4568379       102.232
2009    28      3       0.3827129       89.13221
2009    28      4       0.2582623       65.2324
2009    28      5       0.4089102       94.00986
2009    28      6       0.5758307       121.1328
2009    28      7       0.5911603       122.9802
2009    29      0       0.5551022       117.1763
2009    29      1       0.7206644       140.2791
2009    29      2       1.015203        172.5869
2009    29      3       1.107525        180.2346
2009    29      4       0.8885951       159.3751
2009    29      5       0.8765222       158.3741
2009    29      6       0.8056231       150.0551
2009    29      7       0.5148648       110.7006
2009    30      0       0.4397712       98.7205
2009    30      1       0.5223481       112.1838
2009    30      2       0.5722145       119.8283
2009    30      3       0.5803561       121.0313
2009    30      4       0.6403372       129.512
2009    30      5       0.4862207       106.2702
2009    30      6       0.4211561       95.2558
2009    30      7       0.3889832       89.57208
2010    1       0       1.249788        198.4913
2010    1       1       0.9507127       169.6279
2010    1       2       1.172386        189.2089
2010    1       3       1.204013        191.1829
2010    1       4       1.191891        189.3643
2010    1       5       0.6956329       137.4826
2010    1       6       0.6897856       136.6251
2010    1       7       0.7206088       140.7725
2010    2       0       0.607253        125.183
2010    2       1       0.5923477       123.0595
2010    2       2       0.727108        141.2374
2010    2       3       0.7430907       143.0207
2010    2       4       0.7704018       146.0393
2010    2       5       0.6873141       134.9528
2010    2       6       0.5647025       117.328
2010    2       7       0.4918111       106.1864
2010    3       0       0.4677206       102.3988
2010    3       1       0.4092273       92.989
2010    3       2       0.3978225       91.31535
2010    3       3       0.4032049       92.26387
2010    3       4       0.1987481       52.38946
2010    3       5       0.2340098       60.12813
2010    3       6       0.2498083       63.40712
2010    3       7       0.221646        57.46775
2010    4       0       0.2433223       62.00699
2010    4       1       0.2998614       73.54133
2010    4       2       0.3714824       87.24694
2010    4       3       0.4370499       98.7847
2010    4       4       0.4181236       95.4342
2010    4       5       0.3369932       80.60991
2010    4       6       0.5662866       119.4224
2010    4       7       0.6838719       136.1904
2010    5       0       0.8128181       152.2697
2010    5       1       0.6460986       131.1677
2010    5       2       0.5817346       121.9749
2010    5       3       0.6021395       124.7851
2010    5       4       0.6077149       125.7301
2010    5       5       0.4127068       94.91252
2010    5       6       0.3431523       82.28292
2010    5       7       0.363937        86.1751
2010    6       0       0.3124165       76.46412
2010    6       1       0.3712135       87.94879
2010    6       2       0.4117661       95.53742
2010    6       3       0.4487088       101.9437
2010    6       4       0.4648601       104.5676
2010    6       5       0.3933921       91.78358
2010    6       6       0.2446632       62.566
2010    6       7       0.207636        54.68889
2010    7       0       0.2027278       53.31726
2010    7       1       0.3380234       81.22532
2010    7       2       0.3823125       90.03166
2010    7       3       0.4498587       102.0608
2010    7       4       0.4825497       107.6365
2010    7       5       0.6211552       129.364
2010    7       6       0.6223065       129.4316
2010    7       7       0.6850942       137.4115
2010    8       0       0.9525171       169.9352
2010    8       1       1.196328        192.3772
2010    8       2       1.197984        192.7714
2010    8       3       0.8834208       162.5331
2010    8       4       0.6227561       129.2119
2010    8       5       0.8420652       157.1498
2010    8       6       0.7725474       149.0604
2010    8       7       0.7794712       149.1826
2010    9       0       0.5566152       117.7655
2010    9       1       0.4212762       95.09389
2010    9       2       0.4611834       101.2172
2010    9       3       0.585283        120.6954
2010    9       4       0.6658974       132.3944
2010    9       5       0.6027305       124.1156
2010    9       6       0.5809201       121.0232
2010    9       7       0.5979216       123.2649
2010    10      0       0.5093922       109.6004
2010    10      1       0.4818344       105.0833
2010    10      2       0.4658292       102.1773
2010    10      3       0.4817585       104.9879
2010    10      4       0.5063843       109.3134
2010    10      5       0.4699911       103.6272
2010    10      6       0.4243008       96.07022
2010    10      7       0.342492        81.38772
2010    11      0       0.3490439       82.66592
2010    11      1       0.4049481       92.85426
2010    11      2       0.399411        92.25805
2010    11      3       0.3661524       86.38267
2010    11      4       0.2404417       61.65099
2010    11      5       0.2504751       63.21679
2010    11      6       0.3488393       82.43929
2010    11      7       0.4712935       104.113
2010    12      0       0.9038964       162.4075
2010    12      1       1.169053        188.2085
2010    12      2       0.78876         150.2682
2010    12      3       0.3457188       82.66551
2010    12      4       0.15016         41.9918
2010    12      5       0.1316237       37.6236
2010    12      6       0.1349357       38.16389
2010    12      7       0.1287402       36.33913
2010    13      0       0.1225392       34.75374
2010    13      1       0.1196461       33.99923
2010    13      2       0.1572946       42.13218
2010    13      3       0.1727665       45.44611
2010    13      4       0.2088867       52.97903
2010    13      5       0.2936883       69.79044
2010    13      6       0.4422932       97.17592
2010    13      7       0.7065905       137.9595
2010    14      0       0.9546612       168.0103
2010    14      1       0.9307824       165.9995
2010    14      2       0.9905656       173.0027
2010    14      3       0.8596432       159.1299
2010    14      4       0.6495353       132.7337
2010    14      5       0.4608116       102.9856
2010    14      6       0.5545984       117.7314
2010    14      7       0.7663685       146.6071
2010    15      0       0.8094183       150.9397
2010    15      1       0.9659139       166.5531
2010    15      2       0.710316        138.125
2010    15      3       0.6468754       128.9403
2010    15      4       0.4119616       93.20254
2010    15      5       0.2843237       69.73712
2010    15      6       0.2027398       53.01988
2010    15      7       0.2240298       57.45403
2010    16      0       0.3552784       84.32007
2010    16      1       0.423382        95.50282
2010    16      2       0.5281352       111.99
2010    16      3       0.6116039       123.9887
2010    16      4       0.6457526       128.876
2010    16      5       0.6787413       133.1744
2010    16      6       0.6221206       125.8954
2010    16      7       0.4844207       105.1391
2010    17      0       0.4021736       91.20942
2010    17      1       0.4466325       99.23089
2010    17      2       0.3696008       86.49016
2010    17      3       0.3972453       91.10278
2010    17      4       0.5579362       116.7126
2010    17      5       0.4762444       103.7027
2010    17      6       0.7935907       147.5197
2010    17      7       0.6468953       128.4486
2010    18      0       0.6149738       123.8401
2010    18      1       0.5829752       117.9189
2010    18      2       0.533622        110.9413
2010    18      3       0.3907164       88.93946
2010    18      4       0.2355085       59.97044
2010    18      5       0.179967        48.24871
2010    18      6       0.1906602       50.54461
2010    18      7       0.1989624       52.29219
2010    19      0       0.1848886       49.23545
2010    19      1       0.2018153       53.09501
2010    19      2       0.2329124       59.8703
2010    19      3       0.2693613       67.0237
2010    19      4       0.2264793       57.84287
2010    19      5       0.3404793       79.94209
2010    19      6       0.5884736       121.7101
2010    19      7       0.5269195       112.8609
2010    20      0       0.4480305       99.97037
2010    20      1       0.448405        100.3232
2010    20      2       0.4372579       98.89295
2010    20      3       0.4248705       96.79718
2010    20      4       0.4100004       94.29603
2010    20      5       0.3460065       82.61229
2010    20      6       0.2157595       56.3736
2010    20      7       0.184208        49.44504
2010    21      0       0.1494969       41.58567
2010    21      1       0.258934        65.61962
2010    21      2       0.3043511       75.03136
2010    21      3       0.2837463       70.73344
2010    21      4       0.1623861       44.60715
2010    21      5       0.3041048       74.48726
2010    21      6       0.5240898       113.1879
2010    21      7       0.7100048       138.3092
2010    22      0       0.9887429       169.9948
2010    22      1       1.211856        190.7826
2010    22      2       1.266352        195.5877
2010    22      3       1.469392        210.1009
2010    22      4       1.203406        190.5501
2010    22      5       1.202902        189.8159
2010    22      6       1.421333        206.6374
2010    22      7       1.184179        189.8346
2010    23      0       0.7348407       143.2705
2010    23      1       0.7455015       144.2283
2010    23      2       0.7607935       145.8764
2010    23      3       0.5204827       112.5118
2010    23      4       0.4741883       105.6104
2010    23      5       0.6610107       134.0269
2010    23      6       0.783938        149.6556
2010    23      7       0.6512985       131.8891
2010    24      0       0.6486224       131.4456
2010    24      1       0.7195189       140.6441
2010    24      2       0.64283         130.0981
2010    24      3       0.7367745       142.4651
2010    24      4       0.7321972       141.7552
2010    24      5       0.6973969       137.8804
2010    24      6       0.3895735       90.32455
2010    24      7       0.284043        69.44949
2010    25      0       0.3620372       83.75021
2010    25      1       0.5944155       121.8406
2010    25      2       0.6499102       130.4806
2010    25      3       0.9641758       167.6628
2010    25      4       1.10014         180.7964
2010    25      5       0.7603385       144.6213
2010    25      6       0.4374829       97.06223
2010    25      7       0.4813371       105.9085
2010    26      0       0.5310942       113.664
2010    26      1       0.5878459       121.6313
2010    26      2       0.5081036       110.084
2010    26      3       0.6360071       128.9641
2010    26      4       0.7520738       143.9832
2010    26      5       0.5305823       112.9455
2010    26      6       0.6502741       130.0582
2010    26      7       0.6244193       126.3673
2010    27      0       0.515178        110.1098
2010    27      1       0.3366504       79.97256
2010    27      2       0.3489877       82.15044
2010    27      3       0.4273271       96.02308
2010    27      4       0.1766271       47.18887
2010    27      5       0.3068694       74.17563
2010    27      6       0.5815456       120.9741
2010    27      7       0.6155533       126.031
2010    28      0       0.8131858       151.0523
2010    28      1       0.4864296       105.2853
2010    28      2       0.5061795       107.9286
2010    28      3       0.5136954       108.6513
2010    28      4       0.3675723       84.44721
2010    28      5       0.3542633       82.31778
2010    28      6       0.2756976       67.4811
2010    28      7       0.3486119       81.20119
2010    29      0       0.4806575       103.5505
2010    29      1       0.5199581       108.8567
2010    29      2       0.5474768       114.113
2010    29      3       0.5401154       113.4645
2010    29      4       0.434968        96.45884
2010    29      5       0.3173073       75.40881
2010    29      6       0.313889        74.87588
2010    29      7       0.2495893       62.42933
2010    30      0       0.1670395       45.00875
2010    30      1       0.2240565       57.33458
2010    30      2       0.2690108       66.14058
2010    30      3       0.2929474       70.68264
2010    30      4       0.4965387       107.0179
2010    30      5       0.5062284       108.7066
2010    30      6       0.5250594       112.4325
2010    30      7       0.4515894       100.8418
2011    1       0       0.1815758       49.29
2011    1       1       0.2926142       73.49479
2011    1       2       0.4460192       102.5889
2011    1       3       0.5656439       122.1247
2011    1       4       0.7312864       146.0469
2011    1       5       0.6816496       139.52
2011    1       6       0.4424679       102.108
2011    1       7       0.2865228       72.26711
2011    2       0       0.2183788       57.58485
2011    2       1       0.3793915       90.26783
2011    2       2       0.4747812       106.8135
2011    2       3       0.5347665       116.0547
2011    2       4       0.5310712       115.5378
2011    2       5       0.682384        137.8931
2011    2       6       1.053216        179.9571
2011    2       7       1.179631        190.9606
2011    3       0       1.154709        188.7946
2011    3       1       1.226427        194.9879
2011    3       2       1.279458        199.7982
2011    3       3       1.249615        198.1121
2011    3       4       1.024022        179.2793
2011    3       5       0.9233098       169.2701
2011    3       6       0.8449341       160.4846
2011    3       7       0.8540223       161.5214
2011    4       0       0.8258128       157.968
2011    4       1       0.851118        161.213
2011    4       2       0.8861865       165.5253
2011    4       3       0.8756762       164.2988
2011    4       4       0.9349924       170.4589
2011    4       5       0.8939725       165.2886
2011    4       6       0.868304        161.9186
2011    4       7       1.176406        192.5786
2011    5       0       1.18104         192.788
2011    5       1       1.487762        214.8351
2011    5       2       1.710454        226.8975
2011    5       3       1.635949        223.0035
2011    5       4       1.578987        218.918
2011    5       5       1.693421        226.6081
2011    5       6       1.861887        235.6532
2011    5       7       2.0176          242.2126
2011    6       0       1.762803        229.9626
2011    6       1       1.878234        235.6653
2011    6       2       2.210033        247.8353
2011    6       3       2.382324        252.754
2011    6       4       1.751125        229.6701
2011    6       5       1.833386        232.8048
2011    6       6       1.842195        233.2491
2011    6       7       1.729595        227.2669
2011    7       0       1.892502        234.92
2011    7       1       1.359733        206.4545
2011    7       2       0.8202702       156.8381
2011    7       3       0.8177691       155.989
2011    7       4       0.8275449       157.0386
2011    7       5       0.7622193       148.4291
2011    7       6       0.6828364       137.5085
2011    7       7       0.6295177       129.5136
2011    8       0       0.6052636       125.5429
2011    8       1       0.5902668       122.8833
2011    8       2       0.5705295       120.1801
2011    8       3       0.5908064       122.9881
2011    8       4       0.8798656       159.6797
2011    8       5       0.9222347       164.8356
2011    8       6       0.9880244       171.5727
2011    8       7       0.7588077       145.4918
2011    9       0       0.8199673       152.7274
2011    9       1       0.5853103       122.1067
2011    9       2       0.5791185       121.2414
2011    9       3       0.6232594       127.346
2011    9       4       0.9111813       162.8342
2011    9       5       0.7013285       137.9635
2011    9       6       0.681596        135.2233
2011    9       7       0.7275721       141.3748
2011    10      0       0.631154        127.7295
2011    10      1       0.5368638       114.068
2011    10      2       0.5432738       115.3849
2011    10      3       0.568455        119.7905
2011    10      4       0.6292297       129.4385
2011    10      5       0.7998853       151.8749
2011    10      6       0.9717345       170.9621
2011    10      7       1.130694        186.0001
2011    11      0       1.257469        196.1359
2011    11      1       1.428662        208.3042
2011    11      2       1.404106        207.3307
2011    11      3       1.539691        218.0218
2011    11      4       1.220411        196.207
2011    11      5       1.20491         195.0671
2011    11      6       1.070716        183.528
2011    11      7       0.7161194       145.5183
2011    12      0       0.5436115       118.8114
2011    12      1       0.6661795       136.9264
2011    12      2       0.6368621       133.2515
2011    12      3       0.663432        136.9239
2011    12      4       0.6770887       138.36
2011    12      5       0.5083474       112.4418
2011    12      6       0.5638921       121.3711
2011    12      7       0.7369478       146.0707
2011    13      0       0.9155133       167.0863
2011    13      1       0.9739524       173.3299
2011    13      2       0.9611392       171.6882
2011    13      3       0.9340736       168.0291
2011    13      4       0.8157227       154.455
2011    13      5       0.538411        114.9211
2011    13      6       0.8669971       158.6476
2011    13      7       1.604233        218.2212
2011    14      0       1.603765        217.9471
2011    14      1       0.8087438       152.2768
2011    14      2       0.6835391       136.4404
2011    14      3       0.6262333       128.7118
2011    14      4       0.6591936       132.9578
2011    14      5       0.7311171       142.345
2011    14      6       1.056818        177.3702
2011    14      7       0.9013847       161.4742
2011    15      0       0.864846        157.0452
2011    15      1       0.5486166       115.709
2011    15      2       0.4440374       99.13589
2011    15      3       0.5260471       112.3747
2011    15      4       0.6447634       129.3534
2011    15      5       0.5648722       117.6349
2011    15      6       0.404921        91.79862
2011    15      7       0.2404952       60.67773
2011    16      0       0.2009273       52.48467
2011    16      1       0.2566449       64.23704
2011    16      2       0.2578991       64.71657
2011    16      3       0.1910959       50.53873
2011    16      4       0.4105829       93.82135
2011    16      5       0.6672802       133.7776
2011    16      6       0.8861696       160.0761
2011    16      7       0.1811859       48.3404
2011    17      0       0.1510408       41.57265
2011    17      1       0.2812369       69.25858
2011    17      2       0.3183245       76.26987
2011    17      3       0.3827721       88.483
2011    17      4       0.5023205       108.7921
2011    17      5       0.4954037       107.3758
2011    17      6       0.3845501       88.2233
2011    17      7       0.4079837       92.13149
2011    18      0       0.4510741       100.2221
2011    18      1       0.5530033       116.5165
2011    18      2       0.6518128       132.0162
2011    18      3       0.925529        166.1312
2011    18      4       0.8343848       156.5351
2011    18      5       1.372454        206.4474
2011    18      6       1.45853         211.9212
2011    18      7       1.607718        221.6667
2011    19      0       1.720432        228.0248
2011    19      1       1.7724          230.3709
2011    19      2       2.370621        253.8073
2011    19      3       2.248165        252.9098
2011    19      4       1.612892        224.4488
2011    19      5       1.476977        215.6553
2011    19      6       1.585341        220.6083
2011    19      7       1.437033        210.6535
2011    20      0       1.232044        195.6494
2011    20      1       0.7786954       150.3569
2011    20      2       0.7138879       140.83
2011    20      3       0.6679479       133.8134
2011    20      4       0.6715942       133.9295
2011    20      5       0.5115381       109.8155
2011    20      6       0.5877482       121.0036
2011    20      7       0.4955872       106.3104
2011    21      0       0.4901214       105.2855
2011    21      1       0.3964774       89.6348
2011    21      2       0.3769041       86.03356
2011    21      3       0.4212117       93.61404
2011    21      4       0.3736989       85.51362
2011    21      5       0.3957665       89.68647
2011    21      6       0.430038        95.54214
2011    21      7       0.3951819       89.63371
2011    22      0       0.2856936       69.4952
2011    22      1       0.3796077       87.28722
2011    22      2       0.3842739       88.28781
2011    22      3       0.3470933       81.39335
2011    22      4       0.3674218       84.47171
2011    22      5       0.3477265       80.20946
2011    22      6       0.3251224       76.05187
2011    22      7       0.300046        72.15812
2011    23      0       0.3825633       88.31364
2011    23      1       0.4682079       103.115
2011    23      2       0.7350872       141.3433
2011    23      3       0.9350023       164.508
2011    23      4       1.143276        184.4583
2011    23      5       0.6642038       133.1924
2011    23      6       0.4535898       101.0113
2011    23      7       0.480638        104.579
2011    24      0       0.4196249       94.11222
2011    24      1       0.4031296       91.31844
2011    24      2       0.3439572       80.53979
2011    24      3       0.3942757       89.49557
2011    24      4       0.477268        103.4088
2011    24      5       0.5100613       108.6537
2011    24      6       0.5706215       117.6326
2011    24      7       0.5794478       118.6881
2011    25      0       0.4698299       101.952
2011    25      1       0.3844383       87.85627
2011    25      2       0.3622168       83.9658
2011    25      3       0.3844412       87.89202
2011    25      4       0.3238666       77.04612
2011    25      5       0.1999043       52.2616
2011    25      6       0.1516331       41.73263
2011    25      7       0.1164957       33.66734
2011    26      0       0.1069792       31.26046
2011    26      1       0.2497629       62.68374
2011    26      2       0.300533        73.22062
2011    26      3       0.2749012       68.32386
2011    26      4       0.1399446       39.21019
2011    26      5       0.1209629       34.78539
2011    26      6       0.1561264       42.83639
2011    26      7       0.1828855       48.47293
2011    27      0       0.1825359       48.39158
2011    27      1       0.2223378       57.49997
2011    27      2       0.2535608       64.18609
2011    27      3       0.3267168       78.86404
2011    27      4       0.467584        104.6818
2011    27      5       0.4256595       97.52734
2011    27      6       0.4161598       95.59437
2011    27      7       0.4362774       98.83577
2011    28      0       0.3837004       89.31466
2011    28      1       0.3906474       89.79274
2011    28      2       0.4444582       98.62385
2011    28      3       0.4755419       103.8371
2011    28      4       0.4648428       102.2823
2011    28      5       0.426689        95.95977
2011    28      6       0.3779652       88.07617
2011    28      7       0.407168        94.01261
2011    29      0       0.3638954       86.46185
2011    29      1       0.3137533       77.0164
2011    29      2       0.3658079       86.93938
2011    29      3       0.4497044       102.0192
2011    29      4       0.560679        120.7266
2011    29      5       0.6764343       137.5917
2011    29      6       0.7890621       151.8157
2011    29      7       0.5908732       125.0178
2011    30      0       0.5620435       120.5134
2011    30      1       0.6437925       132.4544
2011    30      2       0.7620955       148.1425
2011    30      3       0.9274948       166.9801
2011    30      4       1.238844        194.7869
2011    30      5       1.242961        195.0698
2011    30      6       1.257423        195.8984
2011    30      7       1.150238        186.5069
2012    1       0       0.8724973       159.4212
2012    1       1       0.4715183       104.4175
2012    1       2       0.5370468       114.9825
2012    1       3       0.572517        119.7451
2012    1       4       0.7425528       143.165
2012    1       5       0.6536695       131.6971
2012    1       6       0.7558234       146.4981
2012    1       7       0.609234        128.2127
2012    2       0       0.5765132       122.6207
2012    2       1       0.4069955       94.35222
2012    2       2       0.4006613       94.07314
2012    2       3       0.4668856       106.2341
2012    2       4       0.527676        115.8162
2012    2       5       0.4574382       103.2595
2012    2       6       0.4302388       98.32176
2012    2       7       0.4065291       92.59243
2012    3       0       0.398855        91.45609
2012    3       1       0.4666358       103.3879
2012    3       2       0.4802315       105.8293
2012    3       3       0.4878208       106.8385
2012    3       4       0.4056281       92.85732
2012    3       5       0.3284619       78.79144
2012    3       6       0.2195766       57.24066
2012    3       7       0.1875093       50.36535
2012    4       0       0.1797811       48.70998
2012    4       1       0.2847448       70.87961
2012    4       2       0.3477231       83.14952
2012    4       3       0.3861185       90.25288
2012    4       4       0.4451835       100.1934
2012    4       5       0.4444782       99.70222
2012    4       6       0.4715262       104.4402
2012    4       7       0.6784652       135.0068
2012    5       0       0.9317467       166.1548
2012    5       1       0.9610973       169.0377
2012    5       2       1.105769        182.5609
2012    5       3       1.009229        173.9736
2012    5       4       1.111407        184.643
2012    5       5       0.9521347       169.8229
2012    5       6       1.069423        180.8095
2012    5       7       1.129052        184.6491
2012    6       0       1.356515        203.9506
2012    6       1       1.480384        211.2702
2012    6       2       1.233475        194.5169
2012    6       3       0.8591677       159.1408
2012    6       4       0.6919343       138.6533
2012    6       5       0.3975571       92.56869
2012    6       6       0.2896024       71.84761
2012    6       7       0.7925319       150.0774
2012    7       0       0.6353858       128.8196
2012    7       1       0.6500004       129.8364
2012    7       2       0.6502206       130.2441
2012    7       3       0.7810817       147.5292
2012    7       4       0.6125346       125.4084
2012    7       5       0.7976631       150.2055
2012    7       6       0.7566261       145.6557
2012    7       7       0.8188467       152.9443
2012    8       0       0.9149991       163.8693
2012    8       1       0.6968316       138.419
2012    8       2       0.6987074       138.7182
2012    8       3       0.9835695       171.2526
2012    8       4       1.622999        218.55
2012    8       5       1.711666        222.9844
2012    8       6       1.166754        188.203
2012    8       7       1.170014        188.3825
2012    9       0       1.105579        182.658
2012    9       1       0.6438515       131.2224
2012    9       2       0.5239197       113.5139
2012    9       3       0.5207457       112.2196
2012    9       4       0.3245313       78.14138
2012    9       5       0.2771011       68.82008
2012    9       6       0.3294407       78.88304
2012    9       7       0.5538366       117.0245
2012    10      0       0.9220267       164.1321
2012    10      1       0.6646476       133.3754
2012    10      2       0.5908336       123.3321
2012    10      3       0.5976193       124.2488
2012    10      4       0.5791808       121.9332
2012    10      5       0.5305442       115.0085
2012    10      6       0.4661806       104.4883
2012    10      7       0.4414972       100.2709
2012    11      0       0.5972636       124.882
2012    11      1       1.322737        200.2631
2012    11      2       1.150968        186.0548
2012    11      3       1.051811        179.4081
2012    11      4       1.35697         205.2958
2012    11      5       1.460363        212.5113
2012    11      6       1.296351        201.6668
2012    11      7       1.081082        183.8284
2012    12      0       0.9811261       173.6878
2012    12      1       0.5643388       120.866
2012    12      2       0.4195117       96.60982
2012    12      3       0.489359        108.0186
2012    12      4       0.3873465       90.45555
2012    12      5       0.2721932       68.07975
2012    12      6       0.2840047       70.10588
2012    12      7       0.3672472       85.727
2012    13      0       0.4966086       108.1
2012    13      1       0.8042587       149.3712
2012    13      2       0.6547536       131.3352
2012    13      3       0.793999        148.0774
2012    13      4       0.8397697       152.4297
2012    13      5       0.6325576       125.7416
2012    13      6       0.6619903       129.4003
2012    13      7       0.7246269       136.9703
2012    14      0       0.6933639       133.5626
2012    14      1       0.6120068       121.6954
2012    14      2       0.5983012       119.1971
2012    14      3       0.708312        133.7537
2012    14      4       0.5365682       111.5788
2012    14      5       0.5224496       109.4625
2012    14      6       0.4417297       96.81325
2012    14      7       0.5814901       117.5023
2012    15      0       0.715854        134.8287
2012    15      1       0.5774728       116.5527
2012    15      2       0.4754978       101.5536
2012    15      3       0.5600403       114.9668
2012    15      4       1.013764        170.0958
2012    15      5       0.7834374       146.2476
2012    15      6       0.5229075       111.5336
2012    15      7       0.4415546       98.65115
2012    16      0       0.3034411       73.4731
2012    16      1       0.2838649       70.18078
2012    16      2       0.2673867       67.32208
2012    16      3       0.2313397       59.56559
2012    16      4       0.1520353       42.04382
2012    16      5       0.1952142       51.5843
2012    16      6       0.3914417       89.56947
2012    16      7       1.053613        176.4813
2012    17      0       1.1923          189.2798
2012    17      1       1.176814        188.8736
2012    17      2       1.153934        187.5209
2012    17      3       1.321847        200.3487
2012    17      4       0.820235        154.1626
2012    17      5       1.017855        174.6316
2012    17      6       0.6140523       126.2504
2012    17      7       0.6691993       133.6857
2012    18      0       0.6038301       124.131
2012    18      1       0.4254142       96.26775
2012    18      2       0.3895458       91.83346
2012    18      3       0.2565078       66.02551
2012    18      4       0.1608394       44.23072
2012    18      5       0.1909505       50.74686
2012    18      6       0.2876907       70.92474
2012    18      7       0.3450814       81.76743
2012    19      0       0.3884574       89.56347
2012    19      1       0.4092592       93.32023
2012    19      2       0.410714        93.56355
2012    19      3       0.6180794       126.3665
2012    19      4       0.6033543       124.5411
2012    19      5       0.7914544       149.6221
2012    19      6       0.522133        111.9739
2012    19      7       0.5616593       117.9357
2012    20      0       0.5536853       116.7417
2012    20      1       0.4547599       101.174
2012    20      2       0.440952        98.84853
2012    20      3       0.5815882       120.6751
2012    20      4       0.6315165       127.5841
2012    20      5       0.6642847       131.737
2012    20      6       0.5615747       116.7452
2012    20      7       0.3001512       72.22297
2012    21      0       0.1521073       41.3692
2012    21      1       0.2357704       59.41173
2012    21      2       0.2418432       60.71702
2012    21      3       0.3158985       75.55354
2012    21      4       0.6176918       125.3365
2012    21      5       0.9795121       167.8814
2012    21      6       0.7095824       137.0578
2012    21      7       0.6769349       133.0526
2012    22      0       0.6098362       124.2547
2012    22      1       0.5989573       123.0023
2012    22      2       0.6372834       129.3503
2012    22      3       0.6990849       138.5931
2012    22      4       0.497571        109.1135
2012    22      5       0.509311        110.723
2012    22      6       0.5885338       122.9963
2012    22      7       1.038401        174.8468
2012    23      0       0.8831114       160.4977
2012    23      1       0.9948988       172.2232
2012    23      2       1.067749        179.002
2012    23      3       1.457498        208.0557
2012    23      4       1.035307        175.0455
2012    23      5       0.8005281       150.2505
2012    23      6       0.9457275       164.7075
2012    23      7       1.072841        174.9686
2012    24      0       0.7357092       139.0727
2012    24      1       0.4584276       99.68976
2012    24      2       0.3406623       79.77413
2012    24      3       0.3923764       88.9869
2012    24      4       0.3305379       77.81829
2012    24      5       0.2005104       52.00954
2012    24      6       0.1809473       47.88677
2012    24      7       0.1621569       43.78342
2012    25      0       0.1752167       46.72322
2012    25      1       0.2287704       58.48082
2012    25      2       0.3218236       77.21009
2012    25      3       0.3325971       79.02102
2012    25      4       0.3157563       75.84377
2012    25      5       0.5583582       116.3558
2012    25      6       0.7228502       140.0444
2012    25      7       0.9816105       168.8128
2012    26      0       0.9961307       172.0236
2012    26      1       1.261547        195.4586
2012    26      2       1.491792        214.2902
2012    26      3       1.390653        204.6823
2012    26      4       0.7843067       148.4625
2012    26      5       0.4706726       103.2508
2012    26      6       0.4072533       92.16957
2012    26      7       0.4815037       104.2369
2012    27      0       0.3443174       80.10156
2012    27      1       0.2664859       65.46652
2012    27      2       0.2975031       71.51133
2012    27      3       0.3189284       75.50071
2012    27      4       0.2187809       55.90645
2012    27      5       0.1843187       48.61909
2012    27      6       0.1734514       46.43865
2012    27      7       0.2156618       55.50507
2012    28      0       0.2362602       59.82868
2012    28      1       0.3155674       75.55327
2012    28      2       0.3756297       85.9854
2012    28      3       0.35057         80.5095
2012    28      4       0.3755147       86.37919
2012    28      5       0.3130941       75.47587
2012    28      6       0.4686358       103.7164
2012    28      7       0.637609        129.4742
2012    29      0       0.6441761       129.8099
2012    29      1       0.6331758       127.4892
2012    29      2       0.7068966       136.3549
2012    29      3       0.6754688       131.3862
2012    29      4       0.4570449       99.81481
2012    29      5       0.3609558       83.98624
2012    29      6       0.3836306       88.15281
2012    29      7       0.3838019       88.00335
2012    30      0       0.3756098       86.33916
2012    30      1       0.5105827       108.5643
2012    30      2       0.5706094       117.468
2012    30      3       0.6147072       123.4186
2012    30      4       0.5222774       110.3571
2012    30      5       0.4872582       105.178
2012    30      6       0.4736436       103.0779
2012    30      7       0.5168387       109.088
2013    1       0       0.4841724       107.1858
2013    1       1       0.5300444       114.487
2013    1       2       0.5478404       117.4987
2013    1       3       0.5746037       121.7297
2013    1       4       0.5619495       120.2274
2013    1       5       0.5922447       124.8616
2013    1       6       0.6102075       127.5369
2013    1       7       0.4774311       106.5266
2013    2       0       0.5689228       121.2965
2013    2       1       0.8018135       153.0883
2013    2       2       0.9295731       167.4914
2013    2       3       1.016584        176.0528
2013    2       4       0.7553842       146.1665
2013    2       5       0.5461463       116.1679
2013    2       6       0.7005327       139.2735
2013    2       7       0.7802284       150.0895
2013    3       0       0.8372039       157.2713
2013    3       1       0.9108277       165.3502
2013    3       2       0.8962445       163.8791
2013    3       3       1.089198        182.5442
2013    3       4       1.385882        206.6453
2013    3       5       1.619709        221.5885
2013    3       6       1.675395        223.7518
2013    3       7       1.323882        202.1734
2013    4       0       1.252306        196.5938
2013    4       1       1.099696        183.2755
2013    4       2       0.9996849       172.13
2013    4       3       0.84067         154.4371
2013    4       4       0.449383        100.3887
2013    4       5       0.4795853       105.5189
2013    4       6       0.6498654       131.3212
2013    4       7       0.883903        160.1104
2013    5       0       0.355871        84.23069
2013    5       1       0.2867828       71.18911
2013    5       2       0.2950318       73.08934
2013    5       3       0.323244        78.70757
2013    5       4       0.3620887       86.09032
2013    5       5       0.2993695       74.10587
2013    5       6       0.265849        67.28737
2013    5       7       0.2074917       54.75417
2013    6       0       0.1456492       40.81384
2013    6       1       0.5576546       119.0842
2013    6       2       0.7304668       143.7243
2013    6       3       0.7641921       147.5712
2013    6       4       0.8804966       161.3522
2013    6       5       1.076781        181.3224
2013    6       6       1.212131        193.3921
2013    6       7       1.26483         197.0459
2013    7       0       1.413581        208.1145
2013    7       1       1.163642        189.2161
2013    7       2       1.367551        203.9884
2013    7       3       0.7098277       140.4534
2013    7       4       0.5090568       111.1302
2013    7       5       0.2831093       70.50438
2013    7       6       0.3410301       81.66762
2013    7       7       0.3051031       74.62704
2013    8       0       0.3080617       75.14869
2013    8       1       0.4677795       103.8632
2013    8       2       0.5378989       114.8428
2013    8       3       0.5786378       121.0295
2013    8       4       0.3659239       86.01242
2013    8       5       0.2774788       69.16886
2013    8       6       0.3820192       88.98645
2013    8       7       0.3411242       80.96865
2013    9       0       0.3468413       81.52426
2013    9       1       0.5091176       109.8525
2013    9       2       0.6312362       127.6486
2013    9       3       0.4646233       101.7448
2013    9       4       0.3707061       86.3602
2013    9       5       0.5723703       120.7613
2013    9       6       0.7636979       148.3195
2013    9       7       1.126584        186.7874
2013    10      0       1.249243        195.7877
2013    10      1       1.262598        197.698
2013    10      2       1.606912        220.0858
2013    10      3       1.073774        181.5948
2013    10      4       0.7198929       142.7687
2013    10      5       0.6880852       137.5845
2013    10      6       0.634733        129.7017
2013    10      7       0.6592003       132.584
2013    11      0       0.6370535       129.1421
2013    11      1       0.4994743       108.5819
2013    11      2       0.5229405       111.2955
2013    11      3       0.5960335       121.1917
2013    11      4       0.3657854       84.22185
2013    11      5       0.3049601       74.05656
2013    11      6       0.3268489       78.58546
2013    11      7       0.4698633       103.4633
2013    12      0       0.4981746       106.2387
2013    12      1       0.3674004       84.20619
2013    12      2       0.3508894       81.33088
2013    12      3       0.4069724       91.02146
2013    12      4       0.4237295       93.70559
2013    12      5       0.6022292       121.2368
2013    12      6       0.3553413       81.72173
2013    12      7       0.5246737       110.0874
2013    13      0       0.3345695       78.28949
2013    13      1       0.3048222       73.00814
2013    13      2       0.305543        73.36724
2013    13      3       0.3387488       79.57638
2013    13      4       0.3073635       73.694
2013    13      5       0.2245699       57.37887
2013    13      6       0.1967222       51.64327
2013    13      7       0.1429456       39.44335
2013    14      0       0.2012414       52.20877
2013    14      1       0.4420057       98.19668
2013    14      2       0.4790803       105.0862
2013    14      3       0.5035939       109.1461
2013    14      4       0.3850956       88.49151
2013    14      5       0.5761888       119.659
2013    14      6       0.8581745       156.7066
2013    14      7       1.044417        175.4945
2013    15      0       0.9138447       162.0652
2013    15      1       1.041928        174.34
2013    15      2       0.6269691       128.1029
2013    15      3       0.6876621       136.9026
2013    15      4       0.3859894       90.08662
2013    15      5       0.302391        74.36394
2013    15      6       0.260324        65.87786
2013    15      7       0.2822283       70.18971
2013    16      0       0.3027984       74.04215
2013    16      1       0.32555         78.57331
2013    16      2       0.3604252       85.30976
2013    16      3       0.4093443       93.9704
2013    16      4       0.4190752       95.52257
2013    16      5       0.3986222       91.71165
2013    16      6       0.331072        79.14634
2013    16      7       0.3418702       81.11341
2013    17      0       0.3414663       81.05439
2013    17      1       0.4522032       100.9175
2013    17      2       0.6917222       137.1181
2013    17      3       0.8368872       155.1709
2013    17      4       0.9572668       168.0417
2013    17      5       0.9462188       166.708
2013    17      6       1.063164        178.5826
2013    17      7       0.7169576       140.3453
2013    18      0       0.6071147       124.973
2013    18      1       0.4092907       93.48521
2013    18      2       0.3579439       84.00129
2013    18      3       0.415629        94.07462
2013    18      4       0.4517303       99.80264
2013    18      5       0.2799483       68.37958
2013    18      6       0.289008        69.71076
2013    18      7       0.4864053       103.9009
2013    19      0       0.4525606       98.02395
2013    19      1       0.4645054       100.138
2013    19      2       0.422587        93.69535
2013    19      3       0.4695204       101.7756
2013    19      4       0.394159        89.04888
2013    19      5       0.4674497       101.2291
2013    19      6       0.4449645       97.66831
2013    19      7       0.453976        99.28353
2013    20      0       0.4932451       105.5977
2013    20      1       0.5277558       110.4665
2013    20      2       0.4602859       100.0247
2013    20      3       0.4760796       102.6242
2013    20      4       0.5136928       108.3594
2013    20      5       0.5430577       112.9358
2013    20      6       0.577209        118.106
2013    20      7       0.5282463       110.9448
2013    21      0       0.4633716       101.0296
2013    21      1       0.4035612       91.1325
2013    21      2       0.409206        92.29266
2013    21      3       0.5001097       107.5102
2013    21      4       0.5355827       113.1975
2013    21      5       0.5701715       118.5595
2013    21      6       0.5935963       121.8281
2013    21      7       0.6755622       133.163
2013    22      0       0.7677898       144.9658
2013    22      1       0.6461391       128.8068
2013    22      2       0.7653461       143.4601
2013    22      3       0.8196638       150.5372
2013    22      4       0.795347        147.2715
2013    22      5       0.5172598       109.828
2013    22      6       0.3837946       88.35145
2013    22      7       0.2857265       70.15379
2013    23      0       0.1821757       48.709
2013    23      1       0.220842        57.25874
2013    23      2       0.2654231       66.6672
2013    23      3       0.3383653       80.74522
2013    23      4       0.3936736       90.53755
2013    23      5       0.3903037       89.82402
2013    23      6       0.3900401       89.82119
2013    23      7       0.5645493       118.4569
2013    24      0       0.5572278       117.0013
2013    24      1       0.4746014       104.4357
2013    24      2       0.4655874       103.5192
2013    24      3       0.4411907       99.68344
2013    24      4       0.5144607       111.485
2013    24      5       0.4185751       95.33118
2013    24      6       0.3257998       77.7967
2013    24      7       0.5569028       115.7234
2013    25      0       0.6545605       131.3769
2013    25      1       1.140571        186.6682
2013    25      2       1.23363         194.2529
2013    25      3       1.19886         192.8424
2013    25      4       1.192825        192.1583
2013    25      5       1.021512        175.4128
2013    25      6       0.5846021       122.0754
2013    25      7       0.4540358       100.8575
2013    26      0       0.4336103       97.31613
2013    26      1       0.34081         80.6207
2013    26      2       0.3212203       76.60929
2013    26      3       0.3837726       87.65605
2013    26      4       0.4341812       96.31901
2013    26      5       0.3996384       90.3711
2013    26      6       0.3883079       88.26651
2013    26      7       0.443671        96.65753
2013    27      0       0.3992115       88.90267
2013    27      1       0.4103894       91.81034
2013    27      2       0.5797242       118.91
2013    27      3       0.6114217       123.978
2013    27      4       0.8515759       154.8826
2013    27      5       0.9520832       165.5691
2013    27      6       0.769375        144.8448
2013    27      7       0.5704992       117.8132
2013    28      0       0.6325525       125.8382
2013    28      1       0.382636        86.61642
2013    28      2       0.2670115       65.19635
2013    28      3       0.2844312       68.70861
2013    28      4       0.3413213       79.38317
2013    28      5       0.3880078       87.64314
2013    28      6       0.3934954       88.29018
2013    28      7       0.3780024       85.3725
2013    29      0       0.3747185       84.88321
2013    29      1       0.3426619       79.14654
2013    29      2       0.4304964       94.2617
2013    29      3       0.3983621       89.36648
2013    29      4       0.5460373       113.7508
2013    29      5       0.3585269       82.99364
2013    29      6       0.3507594       81.56044
2013    29      7       0.3204399       75.8787
2013    30      0       0.3054961       73.08866
2013    30      1       0.3178941       75.86041
2013    30      2       0.3321555       78.78186
2013    30      3       0.3570529       83.13732
2013    30      4       0.2916084       70.65488
2013    30      5       0.4333397       96.47134
2013    30      6       0.4811897       104.244
2013    30      7       0.4986747       106.8626
2014    1       0       1.265369        196.3696
2014    1       1       1.502779        214.5038
2014    1       2       1.51947         217.1435
2014    1       3       1.577785        220.9841
2014    1       4       1.521578        216.7471
2014    1       5       1.450091        212.9419
2014    1       6       1.176626        194.1507
2014    1       7       1.2811          202.1817
2014    2       0       1.203002        196.2409
2014    2       1       1.560329        219.9482
2014    2       2       1.767254        230.2128
2014    2       3       1.762314        229.5612
2014    2       4       1.410028        208.5785
2014    2       5       1.058976        179.1765
2014    2       6       0.8681753       158.8851
2014    2       7       0.5498463       119.0442
2014    3       0       0.5403988       115.7116
2014    3       1       0.4908937       107.8383
2014    3       2       0.4566677       101.9592
2014    3       3       0.4713965       104.1195
2014    3       4       0.5391388       115.0306
2014    3       5       0.5118755       110.8669
2014    3       6       0.5279189       113.4549
2014    3       7       0.3215823       77.86381
2014    4       0       0.2152169       56.41887
2014    4       1       0.3281139       79.50404
2014    4       2       0.361251        85.81515
2014    4       3       0.4242916       97.42984
2014    4       4       0.5785263       122.398
2014    4       5       0.498782        110.0216
2014    4       6       0.3408177       81.69528
2014    4       7       0.5563128       119.2936
2014    5       0       0.57598         122.7394
2014    5       1       0.6722005       136.4996
2014    5       2       0.7307721       144.5902
2014    5       3       0.6695016       136.6316
2014    5       4       0.6491292       134.3983
2014    5       5       0.3826566       91.56242
2014    5       6       0.3891179       93.05128
2014    5       7       0.4425491       102.5203
2014    6       0       0.4637208       106.0275
2014    6       1       0.763806        149.4256
2014    6       2       1.066763        181.9439
2014    6       3       0.9461916       170.2578
2014    6       4       1.366922        206.2603
2014    6       5       1.414531        207.8838
2014    6       6       0.74842         145.256
2014    6       7       1.08407         181.5439
2014    7       0       0.473976        105.5645
2014    7       1       0.5337164       115.1405
2014    7       2       0.4605797       103.3516
2014    7       3       0.4303504       98.31402
2014    7       4       0.5347741       115.7545
2014    7       5       0.6328209       130.4076
2014    7       6       0.651203        132.5893
2014    7       7       0.6418856       130.9526
2014    8       0       0.6236142       127.9138
2014    8       1       0.8066383       152.3928
2014    8       2       0.9076314       163.9761
2014    8       3       1.059525        179.0226
2014    8       4       1.071899        180.1158
2014    8       5       0.9598174       168.7453
2014    8       6       1.151366        186.9588
2014    8       7       1.350244        203.0685
2014    9       0       1.425907        208.1492
2014    9       1       1.471426        210.7403
2014    9       2       1.51388         213.307
2014    9       3       1.387233        205.6123
2014    9       4       1.111069        186.0409
2014    9       5       1.19421         193.2438
2014    9       6       1.029863        178.2963
2014    9       7       0.6786649       137.64
2014    10      0       0.298864        73.46861
2014    10      1       0.4368242       99.06362
2014    10      2       0.4895113       107.9449
2014    10      3       0.7123086       140.2971
2014    10      4       0.9685548       171.5625
2014    10      5       0.773463        149.4959
2014    10      6       0.8446774       156.9051
2014    10      7       0.8648836       159.59
2014    11      0       0.9545333       169.896
2014    11      1       0.8824078       162.7447
2014    11      2       0.8110746       154.7723
2014    11      3       0.8270074       156.0778
2014    11      4       0.9030167       164.6439
2014    11      5       1.126689        187.421
2014    11      6       1.186006        191.0514
2014    11      7       0.9911934       173.4888
2014    12      0       0.8736301       161.3399
2014    12      1       0.9603462       170.7374
2014    12      2       0.7698856       148.8158
2014    12      3       0.9864438       172.7802
2014    12      4       0.7644472       146.8097
2014    12      5       0.5956565       123.2352
2014    12      6       0.5181986       110.9513
2014    12      7       0.6835601       134.3305
2014    13      0       0.3961918       90.49955
2014    13      1       0.3236919       77.3971
2014    13      2       0.3274784       78.05871
2014    13      3       0.3650758       84.71677
2014    13      4       0.392485        89.64853
2014    13      5       0.396137        90.3942
2014    13      6       0.4008779       91.31889
2014    13      7       0.4540959       100.4276
2014    14      0       0.4497024       99.53253
2014    14      1       0.4076405       92.56213
2014    14      2       0.4006815       91.27487
2014    14      3       0.4606374       100.9955
2014    14      4       0.3894484       88.46429
2014    14      5       0.3742901       85.92773
2014    14      6       0.3604022       83.45762
2014    14      7       0.3781834       86.5465
2014    15      0       0.4339443       96.25571
2014    15      1       0.4335581       96.41622
2014    15      2       0.3900232       89.01795
2014    15      3       0.3868456       88.45537
2014    15      4       0.4554004       100.4172
2014    15      5       0.3813298       87.74734
2014    15      6       0.2610733       64.71075
2014    15      7       0.279172        68.07528
2014    16      0       0.2847087       68.31176
2014    16      1       0.3981898       89.48963
2014    16      2       0.4885407       104.5446
2014    16      3       0.4288732       95.20229
2014    16      4       0.3185547       76.21196
2014    16      5       0.2516384       63.02596
2014    16      6       0.2763655       67.88818
2014    16      7       0.4023011       91.39363
2014    17      0       0.4357469       97.10867
2014    17      1       0.5177254       109.4874
2014    17      2       0.6839416       133.8661
2014    17      3       0.8239647       152.0403
2014    17      4       0.9504426       164.8589
2014    17      5       0.5583206       116.0217
2014    17      6       0.8416777       152.6689
2014    17      7       0.6262234       125.8112
2014    18      0       0.6235936       125.4989
2014    18      1       0.4854925       105.1291
2014    18      2       0.4176235       93.79476
2014    18      3       0.3571808       82.93725
2014    18      4       0.2857577       69.50913
2014    18      5       0.2825411       68.92193
2014    18      6       0.2523416       62.9921
2014    18      7       0.2454116       61.62488
2014    19      0       0.2830538       69.16688
2014    19      1       0.317963        76.02398
2014    19      2       0.3175872       76.22797
2014    19      3       0.3160084       76.02874
2014    19      4       0.3619514       84.63801
2014    19      5       0.4202194       94.78268
2014    19      6       0.4324015       96.64075
2014    19      7       0.5057099       108.3533
2014    20      0       0.5379235       112.6574
2014    20      1       0.4791736       103.8785
2014    20      2       0.5491854       114.5705
2014    20      3       0.5281477       111.938
2014    20      4       0.4367079       97.50487
2014    20      5       0.2283776       58.71052
2014    20      6       0.1454792       40.4317
2014    20      7       0.1556099       42.71823
2014    21      0       0.1518097       41.74714
2014    21      1       0.2335733       59.80979
2014    21      2       0.2667681       66.95879
2014    21      3       0.2557895       64.70186
2014    21      4       0.1690699       45.91812
2014    21      5       0.1346206       37.98669
2014    21      6       0.1777133       47.73634
2014    21      7       0.2858007       70.10018
2014    22      0       0.2592469       65.54133
2014    22      1       0.3236689       78.69619
2014    22      2       0.3955399       92.36662
2014    22      3       0.4048671       94.17387
2014    22      4       0.4105673       94.79779
2014    22      5       0.3929911       91.37704
2014    22      6       0.4228791       96.28507
2014    22      7       0.6522081       132.1853
2014    23      0       1.014556        174.7087
2014    23      1       0.7273794       142.36
2014    23      2       0.5761686       121.2527
2014    23      3       0.5214107       112.4096
2014    23      4       0.6950456       137.4634
2014    23      5       0.7724588       146.9294
2014    23      6       0.6912307       137.0568
2014    23      7       0.7991566       150.4457
2014    24      0       0.9165107       164.1916
2014    24      1       0.6986161       138.1805
2014    24      2       0.6795678       135.4421
2014    24      3       0.706756        138.7324
2014    24      4       0.7595524       145.6674
2014    24      5       1.019595        174.5983
2014    24      6       1.284419        196.7746
2014    24      7       1.457533        209.1661
2014    25      0       1.353624        201.9311
2014    25      1       1.317797        199.0256
2014    25      2       1.283244        196.9235
2014    25      3       1.0972          182.6204
2014    25      4       1.003959        174.0528
2014    25      5       0.9677339       170.4424
2014    25      6       1.055041        178.4105
2014    25      7       1.191669        189.4751
2014    26      0       1.089771        179.834
2014    26      1       1.035316        175.3754
2014    26      2       1.10156         181.28
2014    26      3       1.115204        181.9713
2014    26      4       0.9789915       169.8203
2014    26      5       1.120326        183.3555
2014    26      6       0.8468225       155.8204
2014    26      7       0.9834823       170.637
2014    27      0       0.4550984       102.2553
2014    27      1       0.4842166       107.3639
2014    27      2       0.4277907       98.17885
2014    27      3       0.3919172       91.76053
2014    27      4       0.3912686       91.72799
2014    27      5       0.4522454       102.6344
2014    27      6       0.9519638       169.7432
2014    27      7       1.414388        207.7985
2014    28      0       1.020561        176.3241
2014    28      1       0.8238607       155.4728
2014    28      2       0.8730863       160.598
2014    28      3       1.250727        195.5761
2014    28      4       1.158164        189.3676
2014    28      5       1.298334        201.0027
2014    28      6       1.416539        209.5115
2014    28      7       1.251161        195.8534
2014    29      0       1.71958         226.591
2014    29      1       1.538573        216.9328
2014    29      2       0.9864896       174.0114
2014    29      3       1.007908        175.5381
2014    29      4       1.365363        205.5901
2014    29      5       0.6916519       139.6966
2014    29      6       0.4569474       104.1333
2014    29      7       0.5086427       112.8864
2014    30      0       0.7130938       142.7263
2014    30      1       0.7512166       147.502
2014    30      2       0.9625336       170.4258
2014    30      3       1.13717         186.4006
2014    30      4       1.319344        201.1433
2014    30      5       1.298585        198.334
2014    30      6       1.182138        190.186
2014    30      7       1.435791        209.9333
2015    1       0       0.1380371       38.80204
2015    1       1       0.3187614       76.8008
2015    1       2       0.4035375       93.0163
2015    1       3       0.535963        114.8384
2015    1       4       0.5353971       112.5516
2015    1       5       0.6048276       122.5441
2015    1       6       0.9878603       170.301
2015    1       7       1.317643        199.7446
2015    2       0       1.433021        208.1634
2015    2       1       1.46071         209.4574
2015    2       2       1.017919        174.9241
2015    2       3       0.7106848       140.5467
2015    2       4       0.9253459       166.1197
2015    2       5       1.222991        192.7451
2015    2       6       1.140035        185.1943
2015    2       7       1.000332        172.1773
2015    3       0       0.9826572       170.2312
2015    3       1       0.8688755       158.7413
2015    3       2       0.7207718       141.7799
2015    3       3       0.5988126       124.9884
2015    3       4       0.2802646       69.93742
2015    3       5       0.2502104       64.0183
2015    3       6       0.3131046       77.01899
2015    3       7       0.4424813       100.9461
2015    4       0       0.2590948       66.21004
2015    4       1       0.3432574       83.12137
2015    4       2       0.4027028       94.5296
2015    4       3       0.420509        97.92973
2015    4       4       0.345962        84.1322
2015    4       5       0.2622211       67.25302
2015    4       6       0.2368952       61.9494
2015    4       7       0.21699         57.63362
2015    5       0       0.2011445       54.18323
2015    5       1       0.2679829       68.60742
2015    5       2       0.3355659       82.28609
2015    5       3       0.3798247       90.49572
2015    5       4       0.3738879       89.12757
2015    5       5       0.3335633       81.03495
2015    5       6       0.3729232       88.16843
2015    5       7       0.6534917       133.7293
2015    6       0       0.6929589       139.0618
2015    6       1       0.6940707       139.3213
2015    6       2       0.7229988       143.4773
2015    6       3       0.7295634       144.4549
2015    6       4       0.7088207       141.7168
2015    6       5       0.7185657       142.9064
2015    6       6       0.7807831       150.2863
2015    6       7       0.8083159       153.2425
2015    7       0       0.9403548       167.5983
2015    7       1       1.143402        187.7439
2015    7       2       1.167888        190.0019
2015    7       3       1.083309        182.8798
2015    7       4       1.013831        176.2465
2015    7       5       1.001087        174.3642
2015    7       6       1.271428        197.3566
2015    7       7       1.452776        210.1168
2015    8       0       1.549447        216.6392
2015    8       1       1.489264        213.6451
2015    8       2       1.528774        216.0386
2015    8       3       1.597983        220.8436
2015    8       4       1.547956        219.64
2015    8       5       1.731656        228.7628
2015    8       6       1.568854        221.3779
2015    8       7       1.412768        211.5521
2015    9       0       1.537349        219.0979
2015    9       1       1.906666        237.0579
2015    9       2       1.534724        217.3482
2015    9       3       1.503732        216.5426
2015    9       4       1.562649        219.7169
2015    9       5       1.463991        213.3505
2015    9       6       1.172341        191.8071
2015    9       7       1.029592        178.6164
2015    10      0       1.052841        180.7372
2015    10      1       1.296812        200.4376
2015    10      2       1.351253        203.6143
2015    10      3       1.980996        235.7002
2015    10      4       1.725463        224.8008
2015    10      5       1.488528        212.0369
2015    10      6       1.324944        201.7468
2015    10      7       1.182346        191.2564
2015    11      0       1.278921        198.4998
2015    11      1       0.8526191       158.3124
2015    11      2       0.686548        137.3494
2015    11      3       0.6879789       137.0228
2015    11      4       0.7268575       141.7729
2015    11      5       0.7850074       148.9993
2015    11      6       0.7597756       145.7346
2015    11      7       0.6094894       125.1688
2015    12      0       0.5686332       119.2096
2015    12      1       0.6613558       132.4776
2015    12      2       0.7194502       139.9704
2015    12      3       0.6639666       133.5548
2015    12      4       0.6416023       130.4665
2015    12      5       0.5791998       121.5312
2015    12      6       0.3711097       86.80584
2015    12      7       0.3292658       78.80621
2015    13      0       0.3155466       75.98089
2015    13      1       0.3889148       88.9308
2015    13      2       0.5682607       118.1396
2015    13      3       0.7162661       139.4311
2015    13      4       0.9842751       171.0183
2015    13      5       1.138382        185.6399
2015    13      6       1.486684        211.7698
2015    13      7       1.588501        218.1391
2015    14      0       1.640631        221.7797
2015    14      1       1.847107        231.7393
2015    14      2       1.694271        224.9613
2015    14      3       1.442966        211.1756
2015    14      4       1.683418        225.0232
2015    14      5       1.712052        226.4481
2015    14      6       1.67849         224.8763
2015    14      7       1.653838        223.36
2015    15      0       1.420757        209.3156
2015    15      1       1.323229        204.1029
2015    15      2       1.050571        181.928
2015    15      3       1.426955        211.1418
2015    15      4       1.360523        206.3631
2015    15      5       0.7992208       153.7725
2015    15      6       0.5725042       122.7561
2015    15      7       0.4247905       97.94595
2015    16      0       0.3444145       83.35314
2015    16      1       0.7930524       154.0844
2015    16      2       0.8639886       162.4975
2015    16      3       0.6519243       134.7393
2015    16      4       0.6768923       137.8401
2015    16      5       0.9225961       164.3698
2015    16      6       0.7156014       141.5977
2015    16      7       0.730347        145.0402
2015    17      0       0.8118506       155.7777
2015    17      1       1.243378        197.6358
2015    17      2       1.410063        209.8217
2015    17      3       1.577809        219.1973
2015    17      4       1.557912        217.4827
2015    17      5       1.441261        209.9426
2015    17      6       1.291531        201.2331
2015    17      7       1.297001        202.0627
2015    18      0       1.364154        206.8359
2015    18      1       2.030159        240.971
2015    18      2       1.666769        223.9402
2015    18      3       1.711984        225.6682
2015    18      4       1.302072        199.7621
2015    18      5       1.249511        195.462
2015    18      6       1.447896        210.7335
2015    18      7       0.9773385       172.3177
2015    19      0       0.5467651       117.7832
2015    19      1       0.5090659       111.9672
2015    19      2       0.6475357       132.9835
2015    19      3       0.8174177       154.7262
2015    19      4       0.9676229       171.1757
2015    19      5       1.075284        181.4018
2015    19      6       1.098537        184.1776
2015    19      7       1.121787        186.5754
2015    20      0       1.234878        195.0201
2015    20      1       1.49296         213.0298
2015    20      2       1.317834        202.0697
2015    20      3       0.7701896       149.1992
2015    20      4       0.4867352       108.1818
2015    20      5       0.4110921       95.08567
2015    20      6       0.5459834       117.6817
2015    20      7       0.3748739       88.29536
2015    21      0       0.3563288       83.88165
2015    21      1       0.4051479       92.87915
2015    21      2       0.5274711       113.7876
2015    21      3       0.5748824       121.2284
2015    21      4       0.9034068       163.9198
2015    21      5       0.7767284       148.5752
2015    21      6       0.7106781       139.9138
2015    21      7       0.7454916       144.507
2015    22      0       0.9118266       164.6153
2015    22      1       0.7855521       150.3611
2015    22      2       0.9055946       164.6642
2015    22      3       0.9719054       171.7586
2015    22      4       0.8727095       161.0645
2015    22      5       0.8212042       155.212
2015    22      6       0.8772095       161.7548
2015    22      7       0.8913271       163.2934
2015    23      0       1.015097        176.3308
2015    23      1       0.9854048       173.3325
2015    23      2       1.034775        178.2335
2015    23      3       0.9858728       173.2935
2015    23      4       1.082956        182.317
2015    23      5       1.330437        201.6879
2015    23      6       1.292248        198.9595
2015    23      7       1.087119        183.3014
2015    24      0       1.232953        196.4461
2015    24      1       0.98003         173.7391
2015    24      2       0.8670916       160.2641
2015    24      3       0.5958516       123.7147
2015    24      4       0.3473084       82.14505
2015    24      5       0.4491547       100.7665
2015    24      6       1.345615        203.5793
2015    24      7       1.002088        173.5458
2015    25      0       0.862558        158.2674
2015    25      1       1.239322        193.712
2015    25      2       1.231354        191.211
2015    25      3       1.100504        180.5054
2015    25      4       1.09903         180.2132
2015    25      5       1.131525        183.089
2015    25      6       1.115737        181.9827
2015    25      7       0.9904103       172.02
2015    26      0       0.9496057       169.1897
2015    26      1       0.8005308       151.297
2015    26      2       0.6592252       132.629
2015    26      3       0.7025664       137.7562
2015    26      4       0.5081225       109.0769
2015    26      5       0.3792215       86.93352
2015    26      6       0.4695526       101.6646
2015    26      7       0.3812557       85.80011
2015    27      0       0.4569132       98.27021
2015    27      1       0.4574757       98.42605
2015    27      2       0.3938739       88.31121
2015    27      3       0.4807802       103.982
2015    27      4       0.4766256       103.5058
2015    27      5       0.4975052       106.7444
2015    27      6       0.49376         106.1299
2015    27      7       0.4930182       105.9691
2015    28      0       0.5329319       112.3175
2015    28      1       0.5290058       111.779
2015    28      2       0.5355823       112.6055
2015    28      3       0.5930434       121.0364
2015    28      4       0.4912993       105.6583
2015    28      5       0.4053347       91.55992
2015    28      6       0.4284234       95.4483
2015    28      7       0.315499        75.13739
2015    29      0       0.3123365       74.60256
2015    29      1       0.3926095       89.06977
2015    29      2       0.4488783       98.27058
2015    29      3       0.4474948       98.04225
2015    29      4       0.4175227       93.38329
2015    29      5       0.3921795       89.06761
2015    29      6       0.4491379       98.97638
2015    29      7       0.480097        104.2597
2015    30      0       0.4308736       96.32381
2015    30      1       0.462008        102.0023
2015    30      2       0.483663        105.7931
2015    30      3       0.4614602       102.1354
2015    30      4       0.5212977       111.7732
2015    30      5       0.5871316       121.7493
2015    30      6       0.7622504       145.1492
2015    30      7       0.5375664       113.4527
2016    1       0       1.166082        188.7159
2016    1       1       1.053353        183.4927
2016    1       2       0.6692297       137.8988
2016    1       3       0.7435881       147.6214
2016    1       4       0.6648308       135.9486
2016    1       5       0.6710988       134.983
2016    1       6       1.036908        176.7421
2016    1       7       1.112005        183.5733
2016    2       0       0.9700373       169.7921
2016    2       1       0.6570563       133.172
2016    2       2       0.6224276       128.8758
2016    2       3       0.8373501       156.5593
2016    2       4       0.9405154       167.9722
2016    2       5       1.102239        183.1125
2016    2       6       0.7308134       143.1286
2016    2       7       0.5685942       120.2146
2016    3       0       0.5901757       122.1838
2016    3       1       0.425134        95.87453
2016    3       2       0.4207894       95.72395
2016    3       3       0.5569306       117.5432
2016    3       4       0.6950756       137.0623
2016    3       5       0.7650096       145.7754
2016    3       6       0.6137559       125.7852
2016    3       7       0.7123336       141.7201
2016    4       0       0.6473951       133.5595
2016    4       1       0.6262845       128.6531
2016    4       2       0.6160832       127.5275
2016    4       3       0.5129336       112.0187
2016    4       4       0.4145194       95.65523
2016    4       5       0.3501043       83.94934
2016    4       6       0.2898988       72.18672
2016    4       7       0.2551854       65.11518
2016    5       0       0.2675187       67.85148
2016    5       1       0.369156        88.09041
2016    5       2       0.4099614       95.8281
2016    5       3       0.3786069       89.73422
2016    5       4       0.4031361       94.1061
2016    5       5       0.8224844       155.8541
2016    5       6       1.835472        231.5796
2016    5       7       1.542109        216.1332
2016    6       0       0.735153        144.6161
2016    6       1       0.5746977       124.5376
2016    6       2       0.5379403       116.1137
2016    6       3       0.5838179       123.5878
2016    6       4       0.6435685       132.6171
2016    6       5       1.146283        188.6915
2016    6       6       1.194032        192.3747
2016    6       7       0.9443224       168.8398
2016    7       0       0.6204529       129.0302
2016    7       1       0.5155618       113.1959
2016    7       2       0.5868729       124.6073
2016    7       3       0.7029596       140.9076
2016    7       4       0.813413        154.7932
2016    7       5       0.673836        136.7938
2016    7       6       0.7670997       149.1624
2016    7       7       0.9964714       174.3451
2016    8       0       1.2097          192.8257
2016    8       1       1.6638          222.3068
2016    8       2       1.475683        210.5447
2016    8       3       1.169426        186.8585
2016    8       4       1.139341        183.4769
2016    8       5       0.6752035       134.3611
2016    8       6       0.5983073       125.5768
2016    8       7       0.4605949       103.2668
2016    9       0       0.3184704       76.44063
2016    9       1       0.3052041       74.44218
2016    9       2       0.3034283       74.31887
2016    9       3       0.3342294       80.25235
2016    9       4       0.3142612       76.80656
2016    9       5       0.2160196       56.57151
2016    9       6       0.2018526       52.52147
2016    9       7       0.2391644       59.93264
2016    10      0       0.3103699       73.60068
2016    10      1       0.489721        105.5474
2016    10      2       0.74981         142.8844
2016    10      3       0.781996        146.9106
2016    10      4       0.916244        162.7341
2016    10      5       1.109071        181.3835
2016    10      6       1.069901        178.5082
2016    10      7       1.066182        179.0009
2016    11      0       0.986304        173.8149
2016    11      1       0.8440872       158.8529
2016    11      2       0.7187182       143.4042
2016    11      3       0.8767232       162.3696
2016    11      4       0.9100068       165.279
2016    11      5       0.7264561       143.1583
2016    11      6       0.6144758       127.4968
2016    11      7       0.586054        123.0392
2016    12      0       0.4583483       102.8846
2016    12      1       0.4951739       109.1744
2016    12      2       0.4888275       108.6514
2016    12      3       0.4939958       109.3966
2016    12      4       0.5680531       120.189
2016    12      5       0.4452841       100.2006
2016    12      6       0.3458777       81.82686
2016    12      7       0.3419023       80.91566
2016    13      0       0.3938149       91.3043
2016    13      1       0.554241        118.8191
2016    13      2       0.6265237       129.8341
2016    13      3       0.5981131       125.5465
2016    13      4       0.3807632       89.01837
2016    13      5       0.3445736       81.53664
2016    13      6       0.3873422       89.46554
2016    13      7       0.4567446       102.0344
2016    14      0       0.5756884       121.3718
2016    14      1       0.9311315       167.6072
2016    14      2       1.101386        183.9649
2016    14      3       1.04171         178.1563
2016    14      4       1.244197        193.9235
2016    14      5       1.309533        201.4854
2016    14      6       1.515857        217.26
2016    14      7       1.524065        217.9941
2016    15      0       1.451431        213.6032
2016    15      1       1.53791         218.5252
2016    15      2       1.543912        217.9374
2016    15      3       1.229751        195.0129
2016    15      4       0.4930416       108.7059
2016    15      5       0.2123057       55.73385
2016    15      6       0.1510767       42.1386
2016    15      7       0.149098        41.4687
2016    16      0       0.1864885       49.70904
2016    16      1       0.3493694       82.90148
2016    16      2       0.3313995       79.74644
2016    16      3       0.4165699       94.91213
2016    16      4       0.4444723       99.40631
2016    16      5       0.3141398       75.41005
2016    16      6       0.3583438       83.81817
2016    16      7       0.4963734       108.1285
2016    17      0       0.5881419       122.5257
2016    17      1       0.7147767       140.2642
2016    17      2       0.7112421       140.132
2016    17      3       0.620093        127.2637
2016    17      4       0.2193151       57.08698
2016    17      5       0.09317343      28.30699
2016    17      6       0.10774         31.83332
2016    17      7       0.3769329       88.56296
2016    18      0       0.2724645       68.25586
2016    18      1       0.3836997       89.57345
2016    18      2       0.4832595       107.0016
2016    18      3       0.4920784       108.4054
2016    18      4       0.4739897       105.546
2016    18      5       0.5951402       123.7732
2016    18      6       1.083934        180.5068
2016    18      7       1.28323         196.582
2016    19      0       1.3808          204.5746
2016    19      1       1.584596        219.3635
2016    19      2       1.782894        230.5448
2016    19      3       1.393464        208.7217
2016    19      4       1.596246        222.16
2016    19      5       0.7918207       153.9433
2016    19      6       0.9331051       170.3942
2016    19      7       0.9186683       168.1473
2016    20      0       0.9020431       165.9419
2016    20      1       1.203001        194.6813
2016    20      2       0.9271264       168.7002
2016    20      3       0.8929429       164.1335
2016    20      4       0.7308532       143.9536
2016    20      5       0.316512        77.17813
2016    20      6       0.3272794       79.47875
2016    20      7       0.5871239       124.1854
2016    21      0       0.6631139       135.1193
2016    21      1       0.7558377       147.2167
2016    21      2       0.9714948       171.2174
2016    21      3       1.162941        189.1212
2016    21      4       0.9776501       172.4814
2016    21      5       1.190794        191.9693
2016    21      6       1.277615        198.4367
2016    21      7       1.240517        194.7819
2016    22      0       0.9174165       166.966
2016    22      1       0.6448775       133.7509
2016    22      2       0.5961147       126.4471
2016    22      3       0.7171942       142.5935
2016    22      4       0.7489173       146.151
2016    22      5       1.173148        189.6917
2016    22      6       1.022132        174.9286
2016    22      7       0.8221401       154.8193
2016    23      0       0.8736514       159.7968
2016    23      1       0.6800491       133.7124
2016    23      2       0.4878263       106.0028
2016    23      3       0.6176905       125.3057
2016    23      4       0.7725921       144.961
2016    23      5       0.9507368       163.505
2016    23      6       0.8588535       153.4697
2016    23      7       0.845634        152.7628
2016    24      0       0.7741295       144.9764
2016    24      1       0.6768266       133.2576
2016    24      2       0.5777852       118.8756
2016    24      3       0.7234775       138.0959
2016    24      4       0.4884874       105.1812
2016    24      5       0.3718138       85.63152
2016    24      6       0.4042283       91.4516
2016    24      7       0.3621475       83.74871
2016    25      0       0.3085621       73.7939
2016    25      1       0.4351434       96.61897
2016    25      2       0.4546439       100.1386
2016    25      3       0.4640879       101.1191
2016    25      4       0.5863413       120.043
2016    25      5       0.3524563       82.4219
2016    25      6       0.3449883       81.41302
2016    25      7       0.2754643       68.14068
2016    26      0       0.1979259       52.02053
2016    26      1       0.3060877       74.36668
2016    26      2       0.3387198       80.41134
2016    26      3       0.4307742       96.41933
2016    26      4       1.026269        174.5899
2016    26      5       1.152127        185.9545
2016    26      6       1.339451        201.368
2016    26      7       1.698694        223.5073
2016    27      0       1.614868        219.3386
2016    27      1       1.460972        209.7338
2016    27      2       1.47718         210.8918
2016    27      3       1.448002        209.1363
2016    27      4       1.502127        211.7823
2016    27      5       1.246779        193.807
2016    27      6       0.6678443       133.4444
2016    27      7       0.6823969       134.7153
2016    28      0       0.6443005       129.5657
2016    28      1       0.3766959       87.39093
2016    28      2       0.3666606       87.23185
2016    28      3       0.3800888       89.58876
2016    28      4       0.37714         87.31932
2016    28      5       0.39246         89.8669
2016    28      6       0.3971484       90.48637
2016    28      7       0.4326806       98.30843
2016    29      0       0.5121235       111.5456
2016    29      1       0.4442332       98.6022
2016    29      2       0.3949317       90.12124
2016    29      3       0.357908        83.39771
2016    29      4       0.2102231       54.58517
2016    29      5       0.1136334       33.10358
2016    29      6       0.121992        35.07841
2016    29      7       0.2716916       67.61386
2016    30      0       0.3831494       88.5743
2016    30      1       0.5226411       111.2823
2016    30      2       0.5461002       113.8334
2016    30      3       0.8414966       153.5685
2016    30      4       0.812929        151.1162
2016    30      5       0.8386917       154.4555
2016    30      6       0.962099        168.5359
2016    30      7       1.088219        181.2155
2017    1       0       0.199799        51.77799
2017    1       1       0.3220682       77.84732
2017    1       2       0.3671687       86.99895
2017    1       3       0.2303821       59.57323
2017    1       4       0.2121437       55.46616
2017    1       5       0.2614065       65.82304
2017    1       6       0.2850493       70.93119
2017    1       7       0.3063552       74.94447
2017    2       0       0.3462799       82.3067
2017    2       1       0.4789863       106.3057
2017    2       2       0.4677511       105.4665
2017    2       3       0.364821        87.72612
2017    2       4       0.2095112       55.67134
2017    2       5       0.2331991       60.30205
2017    2       6       0.3524296       84.96195
2017    2       7       0.2950654       72.75521
2017    3       0       0.453135        102.1063
2017    3       1       0.5697651       121.3517
2017    3       2       0.6537556       133.8834
2017    3       3       0.7380089       145.5503
2017    3       4       0.7952305       151.3817
2017    3       5       0.6212104       128.321
2017    3       6       0.9799395       172.3818
2017    3       7       1.001454        174.4883
2017    4       0       1.039249        177.9854
2017    4       1       1.070256        180.3747
2017    4       2       0.848065        156.5639
2017    4       3       1.396667        203.6729
2017    4       4       0.8038403       150.8324
2017    4       5       0.2632165       65.88731
2017    4       6       0.2773754       68.72269
2017    4       7       0.277159        68.98838
2017    5       0       0.2504268       63.83307
2017    5       1       0.3183045       77.56905
2017    5       2       0.3356921       81.28628
2017    5       3       0.3665921       87.48702
2017    5       4       0.3791402       90.0005
2017    5       5       0.3078693       76.55018
2017    5       6       0.2105661       56.17735
2017    5       7       0.1905521       51.67699
2017    6       0       0.267287        68.19054
2017    6       1       0.3581528       85.93573
2017    6       2       0.3833446       90.75574
2017    6       3       0.1435414       40.79817
2017    6       4       0.104791        31.19984
2017    6       5       0.1962502       51.48493
2017    6       6       0.1677318       45.79982
2017    6       7       0.1704879       46.44176
2017    7       0       0.2054006       53.70883
2017    7       1       0.3196418       77.74569
2017    7       2       0.5733666       122.4002
2017    7       3       0.5604454       120.2193
2017    7       4       0.4713055       105.1999
2017    7       5       1.24862         197.0073
2017    7       6       1.434683        209.0643
2017    7       7       1.097758        181.2436
2017    8       0       1.21323         193.1714
2017    8       1       1.338774        202.7705
2017    8       2       1.413961        207.9861
2017    8       3       1.392088        206.8197
2017    8       4       1.712           224.722
2017    8       5       0.7893588       150.9843
2017    8       6       1.091821        181.9799
2017    8       7       0.8126711       152.2648
2017    9       0       0.4033522       92.85392
2017    9       1       0.3330529       79.92556
2017    9       2       0.324289        78.1345
2017    9       3       0.2187836       56.79634
2017    9       4       0.1541727       42.46705
2017    9       5       0.1324189       37.72224
2017    9       6       0.1814687       49.22003
2017    9       7       0.1734385       47.47652
2017    10      0       0.1156849       33.73593
2017    10      1       0.2773452       69.23043
2017    10      2       0.615873        128.0928
2017    10      3       0.2708358       68.16634
2017    10      4       0.253279        64.36878
2017    10      5       0.5080997       111.0739
2017    10      6       1.129979        186.1639
2017    10      7       1.425671        207.4685
2017    11      0       0.6294146       128.6414
2017    11      1       0.4030582       92.82112
2017    11      2       0.3853752       91.07166
2017    11      3       0.4968963       110.0892
2017    11      4       0.4274052       98.04403
2017    11      5       0.2620693       65.65772
2017    11      6       0.1688782       45.84475
2017    11      7       0.1536856       42.3781
2017    12      0       0.1647364       44.91163
2017    12      1       0.3185684       76.7617
2017    12      2       0.343357        81.57402
2017    12      3       0.3914435       90.30553
2017    12      4       0.4207026       95.36919
2017    12      5       0.1746987       46.81717
2017    12      6       0.1350454       37.93275
2017    12      7       0.1466451       40.73665
2017    13      0       0.2063511       54.0132
2017    13      1       0.4242262       96.35384
2017    13      2       0.666893        134.3049
2017    13      3       0.6892391       137.8169
2017    13      4       0.7980043       151.0131
2017    13      5       0.7819196       148.7631
2017    13      6       0.6305435       128.1577
2017    13      7       0.7614061       146.0982
2017    14      0       0.9185209       164.5568
2017    14      1       1.250016        193.5146
2017    14      2       1.079685        178.8327
2017    14      3       0.7258264       142.1723
2017    14      4       0.7883421       150.2582
2017    14      5       0.7422016       144.0011
2017    14      6       0.5989255       124.1377
2017    14      7       0.5395503       114.7365
2017    15      0       0.5584685       117.068
2017    15      1       0.5457666       115.7823
2017    15      2       0.4836264       105.8776
2017    15      3       0.4554612       100.8175
2017    15      4       0.53302         112.8649
2017    15      5       0.5649517       117.5781
2017    15      6       0.5430561       113.8683
2017    15      7       0.4069518       91.36979
2017    16      0       0.361008        83.13693
2017    16      1       0.3422199       79.71969
2017    16      2       0.3562963       82.33487
2017    16      3       0.3951975       89.38012
2017    16      4       0.3810181       86.69475
2017    16      5       0.3804945       86.62171
2017    16      6       0.352534        81.85474
2017    16      7       0.3429706       80.07051
2017    17      0       0.3494375       81.24996
2017    17      1       0.3497596       81.81922
2017    17      2       0.386581        88.45115
2017    17      3       0.3722661       85.6314
2017    17      4       0.3359167       78.70964
2017    17      5       0.4397423       97.38892
2017    17      6       0.6338439       126.8892
2017    17      7       0.9468386       165.577
2017    18      0       0.93            163.4868
2017    18      1       0.9536019       165.8577
2017    18      2       0.8676743       157.6661
2017    18      3       1.105706        180.9288
2017    18      4       0.7744913       145.675
2017    18      5       0.4026782       90.46815
2017    18      6       0.3696636       84.73602
2017    18      7       0.3379274       80.35205
2017    19      0       0.3186988       75.26504
2017    19      1       0.3297179       77.03926
2017    19      2       0.438485        95.8162
2017    19      3       0.4859771       103.8506
2017    19      4       0.5106944       107.7575
2017    19      5       0.3631414       82.948
2017    19      6       0.3441996       79.40363
2017    19      7       0.4504478       97.16225
2017    20      0       0.5285727       108.9293
2017    20      1       0.5814918       117.0386
2017    20      2       0.5806794       117.7059
2017    20      3       0.5666703       116.2306
2017    20      4       0.5552359       113.8325
2017    20      5       0.7044333       133.7114
2017    20      6       0.3434496       78.9444
2017    20      7       0.3140783       73.88439
2017    21      0       0.1917796       50.09352
2017    21      1       0.2496098       62.23735
2017    21      2       0.2401859       60.53775
2017    21      3       0.181516        48.28601
2017    21      4       0.2065413       53.63882
2017    21      5       0.173643        46.56265
2017    21      6       0.201895        52.83731
2017    21      7       0.2685914       66.73602
2017    22      0       0.4083072       92.71495
2017    22      1       0.6764806       133.1326
2017    22      2       0.9105112       160.9983
2017    22      3       0.9513213       165.8926
2017    22      4       0.9521509       166.4129
2017    22      5       1.039043        175.0783
2017    22      6       1.045205        175.5203
2017    22      7       1.039802        174.1398
2017    23      0       0.9384096       164.4616
2017    23      1       0.7828964       148.3568
2017    23      2       0.4682067       102.4624
2017    23      3       0.3735126       85.66802
2017    23      4       0.4447801       98.0059
2017    23      5       0.3682887       84.71303
2017    23      6       0.4575824       99.9697
2017    23      7       0.4233243       93.94791
2017    24      0       0.4266508       93.91781
2017    24      1       0.321115        75.20332
2017    24      2       0.3609985       82.40382
2017    24      3       0.5392346       111.8233
2017    24      4       0.3605083       82.95438
2017    24      5       0.4058222       91.01601
2017    24      6       0.4859279       104.3948
2017    24      7       0.4042538       90.82693
2017    25      0       0.4301539       95.17971
2017    25      1       0.3821577       87.02617
2017    25      2       0.3624414       83.47529
2017    25      3       0.2303733       57.93869
2017    25      4       0.1698121       45.15935
2017    25      5       0.1539307       41.8042
2017    25      6       0.1660875       44.31278
2017    25      7       0.1643848       44.0695
2017    26      0       0.2213893       56.53102
2017    26      1       0.3641852       84.78878
2017    26      2       0.5681021       118.5841
2017    26      3       0.7791519       147.1298
2017    26      4       0.919116        162.4339
2017    26      5       0.7345944       141.4965
2017    26      6       0.5993118       123.7812
2017    26      7       0.3075839       74.95107
2017    27      0       0.1866061       50.10197
2017    27      1       0.3846772       89.77148
2017    27      2       0.4500363       101.1444
2017    27      3       0.4450118       99.99566
2017    27      4       0.2968779       73.03349
2017    27      5       0.2286237       59.26901
2017    27      6       0.1457546       41.02084
2017    27      7       0.09190356      28.0928
2017    28      0       0.07494745      23.48002
2017    28      1       0.1200149       34.59409
2017    28      2       0.1682531       46.04642
2017    28      3       0.1028608       30.50372
2017    28      4       0.1313911       37.23759
2017    28      5       0.181762        48.90478
2017    28      6       0.4203747       97.05199
2017    28      7       0.6937004       139.5206
2017    29      0       1.114163        185.71
2017    29      1       1.517001        214.7461
2017    29      2       0.9402359       167.6037
2017    29      3       0.7433791       144.2847
2017    29      4       0.7482774       144.3848
2017    29      5       0.6380278       129.1912
2017    29      6       0.7212655       140.0075
2017    29      7       0.7157842       139.6671
2017    30      0       0.7096895       138.3988
2017    30      1       0.7198254       139.9582
2017    30      2       0.7515469       144.0169
2017    30      3       0.7854636       148.1304
2017    30      4       0.7424325       142.6345
2017    30      5       0.6530583       130.8201
2017    30      6       0.5308539       112.6917
2017    30      7       0.4493615       99.53121
2018    1       0       0.3107829       75.57045
2018    1       1       0.3768659       88.28757
2018    1       2       0.3913787       91.05936
2018    1       3       0.5502202       116.5945
2018    1       4       0.8355095       154.2748
2018    1       5       0.5998384       123.9118
2018    1       6       0.5616838       118.8314
2018    1       7       0.4814388       106.6085
2018    2       0       0.4491688       101.2718
2018    2       1       0.4370218       99.59969
2018    2       2       0.4633642       104.3534
2018    2       3       0.5124139       112.3745
2018    2       4       0.5586136       119.4824
2018    2       5       0.4997237       109.9402
2018    2       6       0.4304453       98.04676
2018    2       7       0.4663647       104.0814
2018    3       0       0.5125383       111.6897
2018    3       1       0.5508643       118.1542
2018    3       2       0.6013012       126.1129
2018    3       3       0.6409362       132.05
2018    3       4       0.6483974       133.2965
2018    3       5       0.6497025       133.617
2018    3       6       0.6693714       136.5446
2018    3       7       0.8278917       156.7675
2018    4       0       0.9034341       165.3837
2018    4       1       1.194047        192.2064
2018    4       2       1.159447        189.5922
2018    4       3       1.008101        175.9635
2018    4       4       0.7541573       148.0679
2018    4       5       0.7522113       148.3694
2018    4       6       0.8718198       162.7061
2018    4       7       0.9365477       170.0785
2018    5       0       0.9628558       173.1777
2018    5       1       0.9690018       173.6632
2018    5       2       0.910694        167.4901
2018    5       3       0.8296728       158.1304
2018    5       4       0.8980849       166.0217
2018    5       5       0.944942        171.1245
2018    5       6       1.183265        193.1005
2018    5       7       1.426903        210.2467
2018    6       0       1.375209        205.6777
2018    6       1       1.538744        215.6454
2018    6       2       1.482277        213.4508
2018    6       3       1.761425        229.116
2018    6       4       1.608988        221.5478
2018    6       5       1.171877        191.7025
2018    6       6       1.220546        195.5162
2018    6       7       1.046518        179.9983
2018    7       0       0.9585766       171.3847
2018    7       1       1.115342        186.5726
2018    7       2       0.9643411       171.9501
2018    7       3       1.152905        189.3566
2018    7       4       1.326223        203.1372
2018    7       5       1.35085         205.1663
2018    7       6       1.386323        207.3494
2018    7       7       1.417789        209.1212
2018    8       0       1.126914        186.7464
2018    8       1       0.9903292       174.1434
2018    8       2       0.9238707       167.7105
2018    8       3       0.9924853       174.91
2018    8       4       0.9730902       172.8336
2018    8       5       0.684865        138.1417
2018    8       6       0.7657626       148.767
2018    8       7       0.934499        169.1243
2018    9       0       1.516266        216.2029
2018    9       1       1.456056        213.5761
2018    9       2       1.37283         208.6983
2018    9       3       1.401346        211.0356
2018    9       4       1.345869        206.9476
2018    9       5       1.409859        211.0261
2018    9       6       1.570286        221.1972
2018    9       7       1.234196        197.8569
2018    10      0       0.9166791       167.3695
2018    10      1       0.681418        138.4432
2018    10      2       0.5330207       116.5904
2018    10      3       0.4651071       105.3294
2018    10      4       0.3711254       88.45232
2018    10      5       0.3757417       89.44104
2018    10      6       0.2975041       74.34591
2018    10      7       0.2145853       56.83049
2018    11      0       0.1614345       44.80245
2018    11      1       0.3427238       82.84947
2018    11      2       0.3905048       91.99604
2018    11      3       0.3778607       89.40767
2018    11      4       0.2387258       61.25883
2018    11      5       0.3354949       80.20906
2018    11      6       0.5579731       117.7494
2018    11      7       0.57066         118.1453
2018    12      0       0.4428665       99.43858
2018    12      1       0.7320501       142.6477
2018    12      2       1.046395        176.4329
2018    12      3       0.986745        171.2828
2018    12      4       1.046507        177.7066
2018    12      5       1.18633         189.9983
2018    12      6       1.530048        213.0622
2018    12      7       1.615175        218.5665
2018    13      0       0.971534        170.6968
2018    13      1       0.7317803       143.1804
2018    13      2       0.7487361       145.3568
2018    13      3       1.598862        217.9788
2018    13      4       1.309263        198.9888
2018    13      5       1.228967        192.5418
2018    13      6       1.020278        174.1013
2018    13      7       0.9335547       165.0352
2018    14      0       1.031121        174.2326
2018    14      1       0.7429959       142.9415
2018    14      2       0.5379128       114.3175
2018    14      3       0.5834255       121.2292
2018    14      4       0.6384327       128.9443
2018    14      5       0.4206368       95.25374
2018    14      6       0.3728548       86.79852
2018    14      7       0.3374288       80.24184
2018    15      0       0.3151961       76.15411
2018    15      1       0.3833274       88.92152
2018    15      2       0.3884337       90.27349
2018    15      3       0.3789583       88.83354
2018    15      4       0.4642777       103.6667
2018    15      5       0.4075028       93.51068
2018    15      6       0.4393978       98.83665
2018    15      7       0.3474934       82.40335
2018    16      0       0.4512604       101.0801
2018    16      1       0.519437        112.1693
2018    16      2       0.6350881       129.079
2018    16      3       0.7265235       140.82
2018    16      4       0.7668018       145.7449
2018    16      5       0.5846073       120.9242
2018    16      6       0.5524551       117.0241
2018    16      7       0.5996062       124.344
2018    17      0       0.8042533       151.7499
2018    17      1       1.345305        201.9162
2018    17      2       1.520918        213.4054
2018    17      3       1.035251        176.7778
2018    17      4       0.8170794       154.017
2018    17      5       0.8489449       158.0118
2018    17      6       1.027187        176.6329
2018    17      7       0.7351743       142.9308
2018    18      0       0.7018211       138.3876
2018    18      1       0.6802347       135.3294
2018    18      2       0.7749159       147.2435
2018    18      3       0.8913824       160.2092
2018    18      4       0.7920983       148.8965
2018    18      5       0.6743845       133.9431
2018    18      6       0.8648407       157.3288
2018    18      7       1.101596        182.1211
2018    19      0       1.167225        187.2456
2018    19      1       1.020673        174.0031
2018    19      2       0.9107993       161.9567
2018    19      3       1.216709        190.1034
2018    19      4       0.8952517       160.081
2018    19      5       0.6278152       127.0916
2018    19      6       0.4722695       103.615
2018    19      7       0.3815266       88.074
2018    20      0       0.4191228       94.6204
2018    20      1       0.3334472       79.38932
2018    20      2       0.3644239       85.09669
2018    20      3       0.3392067       80.18526
2018    20      4       0.2787968       68.52711
2018    20      5       0.2158609       55.64528
2018    20      6       0.1380615       38.25502
2018    20      7       0.1202583       33.86008
2018    21      0       0.1929966       50.13224
2018    21      1       0.2993172       72.2507
2018    21      2       0.3729595       85.9423
2018    21      3       0.3341924       78.80903
2018    21      4       0.3325752       77.8895
2018    21      5       0.5070275       108.0966
2018    21      6       0.5136745       109.2514
2018    21      7       0.5643132       116.913
2018    22      0       0.7557626       142.4008
2018    22      1       0.9396037       164.1278
2018    22      2       0.9443055       165.3856
2018    22      3       0.8059557       150.0952
2018    22      4       0.6573101       130.5295
2018    22      5       0.7273484       139.612
2018    22      6       0.6291985       126.4727
2018    22      7       0.5242706       110.8514
2018    23      0       0.3919846       88.9125
2018    23      1       0.3596388       83.46504
2018    23      2       0.3546337       82.78773
2018    23      3       0.439573        97.48991
2018    23      4       0.4805521       104.1276
2018    23      5       0.444434        98.36188
2018    23      6       0.352693        82.11544
2018    23      7       0.2851579       69.22693
2018    24      0       0.3092567       73.72816
2018    24      1       0.3525987       81.75924
2018    24      2       0.3784729       86.55637
2018    24      3       0.3925243       88.99582
2018    24      4       0.3375493       79.13445
2018    24      5       0.3347481       78.49418
2018    24      6       0.2809666       68.73114
2018    24      7       0.3961266       90.77874
2018    25      0       0.4200161       95.10647
2018    25      1       0.4544986       101.1002
2018    25      2       0.5842872       121.6157
2018    25      3       0.808464        151.319
2018    25      4       0.9505056       167.2815
2018    25      5       0.8634329       157.7914
2018    25      6       1.048131        176.8157
2018    25      7       0.7310097       141.764
2018    26      0       0.4112461       94.21754
2018    26      1       0.3452562       81.99792
2018    26      2       0.4521907       101.0997
2018    26      3       0.5063381       110.0595
2018    26      4       0.3983614       91.62361
2018    26      5       0.4770663       105.0844
2018    26      6       0.3657877       85.2513
2018    26      7       0.218395        56.76063
2018    27      0       0.2297171       59.41239
2018    27      1       0.2871544       71.65173
2018    27      2       0.3855052       90.77036
2018    27      3       0.3420066       82.51099
2018    27      4       0.3400575       82.02934
2018    27      5       0.6344176       131.215
2018    27      6       1.01413         176.4042
2018    27      7       1.270693        198.3971
2018    28      0       1.035112        177.7735
2018    28      1       0.6708971       135.6858
2018    28      2       0.689063        137.348
2018    28      3       0.9303161       165.1207
2018    28      4       0.9181464       161.7936
2018    28      5       0.8445343       153.3866
2018    28      6       0.6635773       133.3612
2018    28      7       0.4269978       96.62122
2018    29      0       0.2862316       70.26912
2018    29      1       0.3259663       77.8497
2018    29      2       0.3413181       80.60786
2018    29      3       0.4379247       97.983
2018    29      4       0.5785042       119.7359
2018    29      5       0.5284768       112.0671
2018    29      6       0.4898036       106.2218
2018    29      7       0.5421464       114.621
2018    30      0       0.5383378       114.0164
2018    30      1       0.4498046       100.1107
2018    30      2       0.4406612       98.60207
2018    30      3       0.5044221       108.8013
2018    30      4       0.632231        127.6697
2018    30      5       0.6800834       134.5327
2018    30      6       0.682871        134.977
2018    30      7       0.6581838       131.2914
