####################################################################################################
# Month: 02Feb                                                                                     #
# Station: FLWO                                                                                    #
# Frequency: 230 GHz                                                                               #
# Columns are: year    day     tau     Tb (K)                                                      #
####################################################################################################
2009    1       0.07089212      22.64427375
2009    2       0.06667765      21.5745325
2009    3       0.0613225       20.50008625
2009    4       0.07181454      22.54142125
2009    5       0.10536724      31.0552025
2009    6       0.09300735      27.77580375
2009    7       0.14968392      40.91250125
2009    8       0.32267223      74.603765
2009    9       0.13976202      36.493555
2009    10      0.20065541      49.21844875
2009    11      0.08916126      26.81638
2009    12      0.2055037       51.87382125
2009    13      0.05010516      17.31005875
2009    14      0.07618578      23.7476025
2009    15      0.12637818      34.42752
2009    16      0.20886498      51.363245
2009    17      0.11773643      33.7827125
2009    18      0.06839401      21.87561125
2009    19      0.04736024      16.625525
2009    20      0.04734373      16.721885
2009    21      0.0811926       24.7814775
2009    22      0.28375215      65.93408375
2009    23      0.50826674      109.71914625
2009    24      0.27767044      67.99437875
2009    25      0.22251356      56.1199375
2009    26      0.14492312      40.14397625
2009    27      0.29164361      70.42975625
2009    28      0.20933165      54.54874875
2010    1       0.15456842      41.79777625
2010    2       0.23114574      57.462895
2010    3       0.58643015      118.65817625
2010    4       0.2750477       64.54013
2010    5       0.20889589      53.28285125
2010    6       0.13030165      36.18906125
2010    7       0.25103888      62.0508075
2010    8       0.12343662      34.72735375
2010    9       0.12797284      35.63952125
2010    10      0.26487852      61.6464675
2010    11      0.25264399      60.56405625
2010    12      0.20879204      54.08583
2010    13      0.06875566      22.046615
2010    14      0.10275804      30.354045
2010    15      0.11341286      32.7547925
2010    16      0.11438893      33.0366975
2010    17      0.08754602      26.77569625
2010    18      0.14100627      38.91097875
2010    19      0.10010578      29.41156375
2010    20      0.13914574      37.03999125
2010    21      0.15666462      41.39949
2010    22      0.35429186      78.22936
2010    23      0.1211902       31.89565625
2010    24      0.13814663      36.64123625
2010    25      0.25761064      63.21406875
2010    26      0.08649878      25.667205
2010    27      0.14873645      40.14423625
2010    28      0.36116846      80.69383
2011    1       0.15338384      40.36864875
2011    2       0.04948776      16.855395
2011    3       0.04434138      15.55507
2011    4       0.11200184      32.07219
2011    5       0.15859912      42.73984875
2011    6       0.1688996       45.35964
2011    7       0.15487912      42.5797625
2011    8       0.1210585       34.916995
2011    9       0.09535838      28.64179625
2011    10      0.05154227      17.83369125
2011    11      0.05323355      18.15671625
2011    12      0.04598229      16.2247425
2011    13      0.07491978      23.5933825
2011    14      0.24806342      61.4508325
2011    15      0.22287126      57.90796125
2011    16      0.27595211      67.549325
2011    17      0.29335454      68.598425
2011    18      0.18498355      47.97161375
2011    19      0.36861699      85.48421625
2011    20      0.16532203      43.11185375
2011    21      0.18040042      46.8417825
2011    22      0.11196692      32.2524125
2011    23      0.08608245      26.32742625
2011    24      0.10171628      29.73075
2011    25      0.10369523      30.32402875
2011    26      0.09598802      27.57415625
2011    27      0.24106511      58.57144875
2011    28      0.03998073      14.78505375
2012    1       0.09313923      27.71374625
2012    2       0.09403262      27.76240875
2012    3       0.08534374      25.981325
2012    4       0.15620315      41.7531975
2012    5       0.29188595      69.90246625
2012    6       0.25303864      62.72509125
2012    7       0.23987098      59.68748375
2012    8       0.50091049      106.45759875
2012    9       0.37393435      85.34149125
2012    10      0.18545002      48.64021625
2012    11      0.09408969      28.1080025
2012    12      0.17358541      46.2122325
2012    13      0.15743564      42.4134775
2012    14      0.24768065      60.7387475
2012    15      0.10374757      30.05662375
2012    16      0.13133059      35.427295
2012    17      0.3920551       87.57228
2012    18      0.13449558      36.97900625
2012    19      0.1129018       32.5470725
2012    20      0.10702575      30.2714975
2012    21      0.09121764      27.20818875
2012    22      0.09181923      27.66934625
2012    23      0.08808691      26.69731125
2012    24      0.14917495      41.25772125
2012    25      0.16122469      43.982565
2012    26      0.1632435       44.397225
2012    27      0.11569754      33.378595
2012    28      0.0783984       24.2545675
2012    29      0.04917695      17.186385
2013    1       0.08960955      26.9998625
2013    2       0.126486        34.9930125
2013    3       0.4717188       99.82377
2013    4       0.27785121      66.94759
2013    5       0.1047423       30.80732
2013    6       0.12991412      36.15419
2013    7       0.06773997      21.4568275
2013    8       0.06215973      20.11342
2013    9       0.11111189      31.448025
2013    10      0.05144353      17.4841925
2013    11      0.12394816      32.87735875
2013    12      0.10970807      29.320265
2013    13      0.06553751      20.91959
2013    14      0.07320071      23.28737
2013    15      0.05410638      18.21349375
2013    16      0.03321314      12.873895
2013    17      0.07383704      23.04108625
2013    18      0.05583512      18.59827875
2013    19      0.12513294      34.64756875
2013    20      0.21205119      52.13996875
2013    21      0.15334943      39.94092
2013    22      0.1413775       38.1641325
2013    23      0.09758107      29.1469825
2013    24      0.09994972      29.384065
2013    25      0.04426911      15.734505
2013    26      0.06528573      20.91610125
2013    27      0.05420232      18.23759375
2013    28      0.05372145      18.13603125
2014    1       0.26409584      64.308465
2014    2       0.10535795      30.28058625
2014    3       0.16431501      43.3957975
2014    4       0.16447496      41.31910125
2014    5       0.3146178       73.34798375
2014    6       0.24081951      58.9167625
2014    7       0.24329496      59.34585125
2014    8       0.28315851      69.83221125
2014    9       0.30097319      73.32805625
2014    10      0.28588301      70.72379375
2014    11      0.13835356      38.83498125
2014    12      0.16410826      44.76648625
2014    13      0.24079714      61.25780875
2014    14      0.1586303       44.02050625
2014    15      0.13543109      38.51023
2014    16      0.14231192      39.5840625
2014    17      0.28102109      68.338225
2014    18      0.17102808      46.4040975
2014    19      0.2725566       66.2634775
2014    20      0.11864471      33.52568125
2014    21      0.1228429       34.42153
2014    22      0.14262877      38.77928
2014    23      0.28716766      68.93664125
2014    24      0.40180998      90.30764625
2014    25      0.48258359      102.89388
2014    26      0.41243695      92.211435
2014    27      0.24914395      62.124115
2014    28      0.30198875      73.18823875
2015    1       0.38218686      85.9194475
2015    2       0.14594795      40.25010875
2015    3       0.14912805      41.32261
2015    4       0.14838605      41.2250225
2015    5       0.0944876       28.85028375
2015    6       0.08980223      27.7524825
2015    7       0.07054088      22.8314375
2015    8       0.07309312      23.75573125
2015    9       0.05452071      18.781965
2015    10      0.07776653      24.616865
2015    11      0.08330149      25.649755
2015    12      0.10147957      30.1476025
2015    13      0.1428285       39.99881625
2015    14      0.42042816      93.48163125
2015    15      0.72189995      140.0537125
2015    16      0.3760144       83.49990625
2015    17      0.13782039      38.57604625
2015    18      0.16744159      45.973135
2015    19      0.16716291      45.42254625
2015    20      0.24125275      58.85867875
2015    21      0.33761908      77.8536275
2015    22      0.35355408      81.96867875
2015    23      0.16625119      44.0755175
2015    24      0.11510766      32.7778175
2015    25      0.08852773      26.79109625
2015    26      0.1294843       36.20425125
2015    27      0.20107761      52.078725
2015    28      0.31370472      74.76991875
2016    1       0.29419741      69.883905
2016    2       0.08531417      25.297305
2016    3       0.07574862      23.35505875
2016    4       0.0729811       22.7128125
2016    5       0.08942361      26.96926375
2016    6       0.06949019      22.4367775
2016    7       0.09911156      29.62445625
2016    8       0.09683127      29.126415
2016    9       0.07651152      24.33579125
2016    10      0.08636993      26.77713625
2016    11      0.07273652      23.3325025
2016    12      0.06063426      20.42581
2016    13      0.12169524      35.207855
2016    14      0.09287845      28.25379
2016    15      0.14086938      39.51907
2016    16      0.09787515      29.6264025
2016    17      0.0767803       24.62785125
2016    18      0.17267364      45.13757125
2016    19      0.3541403       81.90298875
2016    20      0.34744845      82.04000375
2016    21      0.23320839      59.60200875
2016    22      0.06009292      19.99162
2016    23      0.08935839      27.2512875
2016    24      0.07198147      22.70023125
2016    25      0.0841197       26.019345
2016    26      0.11841684      34.31832
2016    27      0.1464631       40.695225
2016    28      0.11538104      33.50822125
2016    29      0.15432451      42.503085
2017    1       0.04721908      16.69432625
2017    2       0.04991942      17.21887875
2017    3       0.09127889      27.23366125
2017    4       0.11394904      32.67425125
2017    5       0.13803961      38.14994125
2017    6       0.25194269      62.209785
2017    7       0.45339758      100.11966125
2017    8       0.33817593      80.91101875
2017    9       0.19649591      52.29368375
2017    10      0.18767434      50.3852625
2017    11      0.21506082      56.1944675
2017    12      0.3828874       86.4606325
2017    13      0.40910735      91.55638875
2017    14      0.41721462      92.569545
2017    15      0.30296238      71.62960375
2017    16      0.10460478      30.9133175
2017    17      0.2979876       69.5541475
2017    18      0.46426599      100.0828575
2017    19      0.52100332      108.42453
2017    20      0.2711441       66.221565
2017    21      0.20755059      54.8376275
2017    22      0.20787395      54.72972375
2017    23      0.13588246      37.09940875
2017    24      0.05856937      19.339645
2017    25      0.07793474      24.01128625
2017    26      0.32678719      75.1673575
2017    27      0.15083874      39.32101375
2017    28      0.37127728      83.9751975
2018    1       0.08965642      27.45429125
2018    2       0.1441038       40.03280875
2018    3       0.34515641      79.85725625
2018    4       0.10148472      30.13319625
2018    5       0.11313402      33.194295
2018    6       0.12768622      36.50765
2018    7       0.08325619      25.64422375
2018    8       0.09954638      29.92322375
2018    9       0.10820915      31.97530875
2018    10      0.12046338      34.6684575
2018    11      0.24712594      61.44914375
2018    12      0.15122457      41.38504875
2018    13      0.12658418      35.60852625
2018    14      0.41094528      89.34765875
2018    15      0.88802231      159.0634
2018    16      0.7524103       142.5852
2018    17      0.18486939      44.75402875
2018    18      0.28199191      68.89178375
2018    19      0.22002083      55.2100275
2018    20      0.07414134      23.29963875
2018    21      0.06630301      21.07223625
2018    22      0.12583639      34.3358925
2018    23      0.06828984      21.745375
2018    24      0.04453341      15.82233
2018    25      0.05626066      18.7555575
2018    26      0.05047368      17.334915
2018    27      0.07437462      23.118725
2018    28      0.19451668      50.00422
