####################################################################################################
# Month: 11Nov                                                                                     #
# Station: SKS                                                                                     #
# Frequency: 230 GHz                                                                               #
# Columns are: year    day     tau     Tb (K)                                                      #
####################################################################################################
2009    1       0.56683061      114.95710125
2009    2       0.49681124      107.20215375
2009    3       1.02341206      172.9358375
2009    4       0.4746985       97.44870375
2009    5       0.3676377       86.20821125
2009    6       0.73051789      142.6334875
2009    7       0.61043471      126.3766625
2009    8       0.63378922      121.16931625
2009    9       0.2388572       61.97327125
2009    10      0.41857075      94.42263875
2009    11      0.66748936      131.81854625
2009    12      0.8311356       147.20400875
2009    13      0.54183774      115.410165
2009    14      0.17784196      47.87317875
2009    15      0.23663092      60.19866375
2009    16      0.56038296      117.66507
2009    17      0.49452929      109.7126575
2009    18      0.30857092      76.49996125
2009    19      0.31277325      76.4531125
2009    20      0.1848444       49.9252775
2009    21      0.22152116      58.171245
2009    22      0.22586193      58.47783875
2009    23      0.21703818      55.882275
2009    24      0.24667114      62.526305
2009    25      0.33054731      77.4658825
2009    26      0.20870352      54.40345125
2009    27      0.14582928      40.84056
2009    28      0.23707465      60.26525875
2009    29      0.44617828      99.00050625
2009    30      0.37922109      87.61176375
2010    1       0.10763946      31.59356
2010    2       0.1443443       40.097645
2010    3       0.11243892      32.715925
2010    4       0.10725764      31.795945
2010    5       0.10604483      31.949775
2010    6       0.21509342      57.00781625
2010    7       0.2606318       66.4241875
2010    8       0.42085241      95.96374125
2010    9       0.37792671      88.55014625
2010    10      0.25751094      65.421175
2010    11      0.40114742      91.66453
2010    12      1.018006        174.511525
2010    13      0.84333801      150.242625
2010    14      0.7193692       135.84673
2010    15      1.18295106      186.7714625
2010    16      0.62959213      128.46429
2010    17      0.47857904      106.0296825
2010    18      0.52562032      112.9150425
2010    19      0.39638332      92.090025
2010    20      0.2907532       70.65017125
2010    21      0.27600762      68.320675
2010    22      0.33166852      76.59638875
2010    23      0.50492196      107.71648875
2010    24      0.40509964      89.8178475
2010    25      0.67221459      133.19528125
2010    26      0.34127909      81.59479375
2010    27      0.39998752      91.67338625
2010    28      0.43581402      98.12064125
2010    29      0.31379439      76.59566875
2010    30      0.25270629      64.11240625
2011    1       0.55957         117.044155
2011    2       0.73162061      139.70110125
2011    3       0.17720286      47.9343225
2011    4       0.09949578      29.8122225
2011    5       0.09289111      27.98737
2011    6       0.1689221       45.46452875
2011    7       0.22183046      56.4448675
2011    8       0.41571994      94.2299175
2011    9       0.78720792      148.4250875
2011    10      0.55472506      116.1529375
2011    11      0.57051578      119.1000125
2011    12      0.51617757      110.48480875
2011    13      0.51412213      107.47261625
2011    14      1.09712989      177.8584125
2011    15      0.50090965      103.90268875
2011    16      0.19089016      49.72423625
2011    17      0.19767373      50.98282375
2011    18      0.18063582      45.98823875
2011    19      0.1462971       40.70256625
2011    20      0.13227688      37.3740475
2011    21      0.11684185      33.78336
2011    22      0.25087013      61.376805
2011    23      0.34926862      81.74351875
2011    24      0.27301343      67.97992875
2011    25      0.32171374      76.9638425
2011    26      0.39553489      90.3427675
2011    27      0.31223825      70.53504375
2011    28      0.1831165       48.8362725
2011    29      0.31975414      76.43842375
2011    30      0.31915658      75.54642
2012    1       1.02155406      174.2098125
2012    2       0.93376689      167.87925
2012    3       0.53955325      115.64804625
2012    4       0.28165085      71.21320375
2012    5       0.31836695      76.98635
2012    6       0.7448166       146.002575
2012    7       0.78198826      149.8985375
2012    8       0.94451849      162.28603375
2012    9       0.14669303      40.60396
2012    10      0.2765122       69.47981
2012    11      0.11007368      32.69139875
2012    12      0.09592961      28.094035
2012    13      0.1505728       41.23868625
2012    14      0.13120645      37.34580375
2012    15      0.53011626      104.957785
2012    16      1.05030868      176.3589875
2012    17      1.32628975      197.773075
2012    18      1.02925168      173.8409625
2012    19      0.94015854      165.261175
2012    20      0.79050279      148.57775
2012    21      0.88586262      158.61805
2012    22      1.03137415      166.50751125
2012    23      0.18917219      50.412935
2012    24      0.45327958      99.44032625
2012    25      0.16538684      45.09418
2012    26      0.32421548      77.4255725
2012    27      0.2030866       53.89697625
2012    28      0.33812258      80.98999875
2012    29      0.48893679      106.28783
2012    30      0.67722005      134.2636625
2013    1       0.29297019      72.6706075
2013    2       0.22524225      58.65904125
2013    3       0.17680234      48.09833125
2013    4       0.44812995      96.11155875
2013    5       0.4568013       101.41130875
2013    6       1.03800846      167.99255375
2013    7       1.21644512      192.6564625
2013    8       0.34064464      82.309425
2013    9       0.21123942      56.1527525
2013    10      0.19306305      52.09004625
2013    11      0.39085249      89.63399875
2013    12      0.6896932       136.5463125
2013    13      0.40746746      93.1114675
2013    14      0.61294829      125.5636625
2013    15      0.7815317       149.013925
2013    16      0.85657032      155.3910875
2013    17      0.59584165      120.83614125
2013    18      0.2504828       63.4892725
2013    19      0.36586302      85.39619625
2013    20      0.43790195      98.430475
2013    21      0.63405168      118.60216375
2013    22      0.75077524      130.6587925
2013    23      0.51794959      106.09067
2013    24      0.56002479      115.326685
2013    25      0.76050758      144.017675
2013    26      0.55718555      116.026815
2013    27      0.39501748      89.2905175
2013    28      0.40878896      87.95876625
2013    29      0.2654887       63.92886375
2013    30      0.74156205      141.325375
2014    1       0.72886559      140.3590375
2014    2       0.3875661       88.848365
2014    3       0.24668758      62.64144375
2014    4       0.3142138       76.13435625
2014    5       0.36855924      82.99325375
2014    6       0.67694096      135.9998
2014    7       0.67179666      134.693075
2014    8       0.65482321      132.6878875
2014    9       0.70889718      139.801425
2014    10      0.56163326      120.85905
2014    11      0.50675639      108.7892475
2014    12      0.60030348      119.46920625
2014    13      0.59414038      122.235775
2014    14      0.71452977      138.5337125
2014    15      0.95949222      166.6777125
2014    16      0.6521686       132.0610875
2014    17      0.56765485      120.137625
2014    18      0.43507358      98.79737
2014    19      0.4428763       98.29180625
2014    20      0.37516582      86.86175
2014    21      0.39151718      88.4239525
2014    22      0.23370806      59.23953
2014    23      0.34775151      81.74623375
2014    24      0.29334846      70.52009625
2014    25      0.45578725      97.130235
2014    26      0.38222895      85.73505375
2014    27      0.84935839      152.2926125
2014    28      0.90453762      161.4156
2014    29      0.55044666      116.4578
2014    30      0.52086784      111.35792625
2015    1       0.77473617      146.8900875
2015    2       0.52381161      108.368095
2015    3       0.21771061      55.57359125
2015    4       0.24241781      61.98317125
2015    5       0.2015792       53.26666375
2015    6       0.18992291      50.92003875
2015    7       0.20852311      55.30703125
2015    8       0.16724975      45.94053875
2015    9       0.16505399      44.85876375
2015    10      0.3079356       74.37113375
2015    11      0.5257852       114.72150625
2015    12      0.48004911      106.99987
2015    13      0.30621174      75.819115
2015    14      0.39498572      90.392735
2015    15      0.47596131      104.48579375
2015    16      0.3924755       89.659
2015    17      0.29478567      72.187375
2015    18      0.22718282      59.38842
2015    19      0.23137909      59.6335225
2015    20      0.27575638      68.14764125
2015    21      0.3701063       86.68611125
2015    22      0.47280089      106.10907625
2015    23      0.40237732      88.8933375
2015    24      0.164953        43.46994125
2015    25      0.42618899      94.2888625
2015    26      0.74723298      140.86075625
2015    27      0.59232301      119.543245
2015    28      0.50700944      108.1620575
2015    29      0.54240236      113.10466375
2015    30      0.33673092      74.18213
2016    1       0.22612103      57.6019375
2016    2       0.17902415      48.8276375
2016    3       0.18450826      49.74268875
2016    4       0.61778554      123.860975
2016    5       0.51268487      110.70142625
2016    6       0.23007966      58.0933575
2016    7       0.52719562      111.9322175
2016    8       0.56141982      120.0042875
2016    9       0.47254476      103.594825
2016    10      0.34497535      82.82875875
2016    11      0.48568555      107.8592375
2016    12      0.59548856      124.5594
2016    13      0.55605786      111.3099025
2016    14      0.22273906      57.22999625
2016    15      0.55933768      111.644625
2016    16      0.74979695      139.05179125
2016    17      0.25447856      64.19287875
2016    18      0.31709124      76.76596875
2016    19      0.47006569      103.63246
2016    20      0.30974069      75.0050275
2016    21      0.316348        76.6342675
2016    22      0.49136645      107.29076375
2016    23      0.39996256      91.0201925
2016    24      0.24823442      62.95637
2016    25      0.27219044      67.23417625
2016    26      0.31365204      75.41326375
2016    27      0.49264965      106.62150875
2016    28      0.61804678      127.017125
2016    29      0.72195958      138.1412125
2016    30      0.99189524      168.3451
2017    1       0.53235594      114.1741375
2017    2       0.46322515      99.87861125
2017    3       0.19761119      52.0676975
2017    4       0.82519244      150.5915625
2017    5       0.312364        75.40715875
2017    6       0.2027981       53.31856125
2017    7       0.39576334      91.4173875
2017    8       0.31922378      77.5260925
2017    9       0.36402189      80.3737425
2017    10      0.40315304      91.319285
2017    11      0.44461466      99.57269125
2017    12      0.38205174      87.91524375
2017    13      0.52909158      106.449425
2017    14      0.40523414      93.19290625
2017    15      0.51234294      108.543985
2017    16      0.36881622      86.29606375
2017    17      0.2609288       65.53925
2017    18      0.66716347      131.35164875
2017    19      0.54917395      114.58861625
2017    20      0.45916032      101.41242875
2017    21      0.17832943      46.83118625
2017    22      0.25108921      63.18618125
2017    23      0.22492944      58.126615
2017    24      0.1982929       51.658065
2017    25      0.47197737      101.009575
2017    26      0.3520795       81.55145875
2017    27      0.78513036      141.6257975
2017    28      0.48264518      101.17920875
2017    29      0.15519735      41.15911
2017    30      0.67959658      126.9226125
2018    1       0.57206688      122.9784775
2018    2       0.31549286      78.6656775
2018    3       0.24479372      63.43102
2018    4       0.18697788      50.3316025
2018    5       0.13365195      37.584185
2018    6       0.2323251       60.1043675
2018    7       0.20861109      55.141035
2018    8       0.6645142       123.972185
2018    9       0.72841594      141.1745
2018    10      0.57197741      120.967775
2018    11      0.56818909      119.9510625
2018    12      0.6222949       122.1855525
2018    13      0.10521615      31.15206
2018    14      0.15728583      42.9451075
2018    15      0.34604349      79.03350625
2018    16      0.69171266      127.89462875
2018    17      1.01737721      166.9519
2018    18      0.7145668       136.8037375
2018    19      0.42212578      93.38059375
2018    20      0.48072638      102.8232775
2018    21      0.49130311      96.0122375
2018    22      0.40659926      89.3672425
2018    23      0.4022893       89.7147
2018    24      0.27172231      67.23221375
2018    25      0.47465549      104.23270125
2018    26      0.79575026      146.59079625
2018    27      0.7380835       132.62239375
2018    28      0.93831226      162.7420875
2018    29      1.13633989      181.749075
2018    30      0.6392603       121.2426575
