####################################################################################################
# Month: 11Nov                                                                                     #
# Station: SKS                                                                                     #
# Frequency: 230 GHz                                                                               #
# Columns are: year    day     segment         tau     Tb (K)                                      #
####################################################################################################
2009    1       0       0.7434978       142.9166
2009    1       1       0.3832402       88.5963
2009    1       2       0.6932857       136.617
2009    1       3       0.6612316       132.0837
2009    1       4       0.841076        154.6647
2009    1       5       0.7121714       138.9531
2009    1       6       0.2623525       65.21409
2009    1       7       0.2377897       60.61132
2009    2       0       0.6526267       131.3381
2009    2       1       0.5961161       123.2048
2009    2       2       0.574021        121.671
2009    2       3       0.4238851       97.51627
2009    2       4       0.3699941       87.70908
2009    2       5       0.3284491       78.26569
2009    2       6       0.3605787       84.36389
2009    2       7       0.6688191       133.5484
2009    3       0       0.6525077       131.3627
2009    3       1       0.887655        160.0401
2009    3       2       0.8663558       158.6708
2009    3       3       1.172704        188.8567
2009    3       4       1.037931        177.0566
2009    3       5       1.186664        190.0022
2009    3       6       1.023354        174.8498
2009    3       7       1.360125        202.6478
2009    4       0       1.007081        174.0228
2009    4       1       0.6599842       132.8213
2009    4       2       0.915079        162.6321
2009    4       3       0.3103966       75.99468
2009    4       4       0.1935756       51.76919
2009    4       5       0.236091        60.78149
2009    4       6       0.2304942       59.25392
2009    4       7       0.2448864       62.31415
2009    5       0       0.2679187       67.39757
2009    5       1       0.2917566       72.29064
2009    5       2       0.3081369       75.68487
2009    5       3       0.3089127       76.16592
2009    5       4       0.3125914       77.14737
2009    5       5       0.4017441       93.86602
2009    5       6       0.4701188       105.2923
2009    5       7       0.5799224       121.821
2009    6       0       0.6652816       133.6832
2009    6       1       0.6372773       129.8319
2009    6       2       0.7276466       141.5201
2009    6       3       0.8118042       152.7495
2009    6       4       0.7756746       148.8386
2009    6       5       0.769869        147.9863
2009    6       6       0.7505799       145.8957
2009    6       7       0.7060099       140.5626
2009    7       0       0.6919173       138.6438
2009    7       1       0.6816328       136.9594
2009    7       2       0.6018431       125.9102
2009    7       3       0.5361743       115.9045
2009    7       4       0.5400928       116.1959
2009    7       5       0.4975694       109.6612
2009    7       6       0.4986275       110.0797
2009    7       7       0.8356205       157.6586
2009    8       0       0.8409733       156.5697
2009    8       1       1.029993        174.8319
2009    8       2       1.049408        177.2969
2009    8       3       0.4707855       105.3344
2009    8       4       0.9425911       169.6145
2009    8       5       0.4209555       97.71199
2009    8       6       0.1107242       32.78955
2009    8       7       0.2048832       55.20559
2009    9       0       0.3110544       77.41
2009    9       1       0.3024234       75.60864
2009    9       2       0.2400763       62.61724
2009    9       3       0.1462562       41.45436
2009    9       4       0.1748989       48.07955
2009    9       5       0.1995505       53.56197
2009    9       6       0.2749435       69.80589
2009    9       7       0.2616544       67.24852
2009    10      0       0.24786         64.22589
2009    10      1       0.2562258       65.55469
2009    10      2       0.2936528       73.25048
2009    10      3       0.347388        83.74547
2009    10      4       0.4040343       94.18638
2009    10      5       0.4537787       102.9086
2009    10      6       0.5970359       125.6582
2009    10      7       0.7485905       145.8514
2009    11      0       0.5813502       121.7983
2009    11      1       0.3707969       86.92547
2009    11      2       0.584279        121.4481
2009    11      3       0.848173        156.8777
2009    11      4       0.4943962       108.4647
2009    11      5       0.7269929       142.1311
2009    11      6       0.7872667       149.4967
2009    11      7       0.94666         167.4063
2009    12      0       1.119658        183.9472
2009    12      1       0.898857        161.3393
2009    12      2       1.240827        193.743
2009    12      3       1.065784        178.9143
2009    12      4       1.019722        173.8615
2009    12      5       0.7075046       139.3681
2009    12      6       0.3309361       79.63757
2009    12      7       0.2657961       66.8211
2009    13      0       0.459683        103.105
2009    13      1       0.5061539       110.7689
2009    13      2       0.7509176       145.8977
2009    13      3       0.6576757       133.788
2009    13      4       0.6252838       129.1784
2009    13      5       0.5203885       113.4853
2009    13      6       0.4972364       109.7662
2009    13      7       0.317363        77.29182
2009    14      0       0.2470489       62.67395
2009    14      1       0.2418247       61.2588
2009    14      2       0.1644095       44.96664
2009    14      3       0.1309611       37.58779
2009    14      4       0.1329947       38.11525
2009    14      5       0.1583134       44.02304
2009    14      6       0.173056        47.15863
2009    14      7       0.1741274       47.20133
2009    15      0       0.1617688       44.44167
2009    15      1       0.1670907       45.90436
2009    15      2       0.1835283       49.69237
2009    15      3       0.206437        54.68381
2009    15      4       0.2384194       61.34951
2009    15      5       0.2459024       62.56314
2009    15      6       0.3590028       84.01306
2009    15      7       0.330898        78.94139
2009    16      0       0.3110494       74.64146
2009    16      1       0.475898        103.2191
2009    16      2       0.5531152       116.5615
2009    16      3       0.6173652       127.0553
2009    16      4       0.6034669       125.3948
2009    16      5       0.623642        128.6588
2009    16      6       0.6372695       131.0627
2009    16      7       0.6612575       134.7269
2009    17      0       0.6618561       134.6985
2009    17      1       0.6157857       128.3406
2009    17      2       0.5218975       114.7441
2009    17      3       0.5047823       112.3443
2009    17      4       0.4590184       104.8955
2009    17      5       0.4212925       98.46066
2009    17      6       0.3935428       93.55656
2009    17      7       0.378059        90.66104
2009    18      0       0.392125        93.3187
2009    18      1       0.3959946       94.06084
2009    18      2       0.3794651       90.79796
2009    18      3       0.3531026       85.80059
2009    18      4       0.3046889       76.45494
2009    18      5       0.2531187       65.79491
2009    18      6       0.2051307       55.24479
2009    18      7       0.1849418       50.52696
2009    19      0       0.2157227       57.50806
2009    19      1       0.298694        74.9133
2009    19      2       0.3431281       83.36352
2009    19      3       0.3625709       86.65898
2009    19      4       0.5334036       116.5089
2009    19      5       0.2823404       70.88637
2009    19      6       0.2158142       57.147
2009    19      7       0.2505121       64.63877
2009    20      0       0.2368441       61.65805
2009    20      1       0.1961376       52.7288
2009    20      2       0.1831874       49.71127
2009    20      3       0.1561917       43.52399
2009    20      4       0.1813089       49.1833
2009    20      5       0.2086321       55.09961
2009    20      6       0.1742432       47.39526
2009    20      7       0.1422102       40.10194
2009    21      0       0.1803946       49.10876
2009    21      1       0.2249892       59.11734
2009    21      2       0.2339724       61.06615
2009    21      3       0.2310822       60.40903
2009    21      4       0.2332626       60.79462
2009    21      5       0.2365274       61.46139
2009    21      6       0.2221444       58.18283
2009    21      7       0.2097965       55.22984
2009    22      0       0.2139703       55.94628
2009    22      1       0.2221492       57.49652
2009    22      2       0.2205622       57.03978
2009    22      3       0.2285261       58.58764
2009    22      4       0.2256069       58.45837
2009    22      5       0.233466        60.49309
2009    22      6       0.2353633       60.82686
2009    22      7       0.2272514       58.97417
2009    23      0       0.2225158       57.80424
2009    23      1       0.2038307       53.55076
2009    23      2       0.1924851       50.81101
2009    23      3       0.2049041       53.26994
2009    23      4       0.214153        55.11614
2009    23      5       0.2241134       57.04691
2009    23      6       0.2318102       58.59035
2009    23      7       0.2424931       60.86885
2009    24      0       0.2504835       62.65393
2009    24      1       0.2504408       62.79921
2009    24      2       0.2458133       62.14235
2009    24      3       0.2310018       59.32075
2009    24      4       0.2375078       61.03711
2009    24      5       0.2562062       64.90709
2009    24      6       0.2579736       65.10063
2009    24      7       0.2439421       62.24937
2009    25      0       0.2348876       60.36386
2009    25      1       0.2239808       57.88162
2009    25      2       0.216069        55.94659
2009    25      3       0.2107818       54.65479
2009    25      4       0.6348814       129.9886
2009    25      5       0.4533485       101.7192
2009    25      6       0.4246667       96.84085
2009    25      7       0.2457627       62.33155
2009    26      0       0.3037765       74.13033
2009    26      1       0.2912501       71.79185
2009    26      2       0.2187299       56.80883
2009    26      3       0.1965308       52.05451
2009    26      4       0.1887254       50.39087
2009    26      5       0.1684296       45.93549
2009    26      6       0.155816        43.10856
2009    26      7       0.1463699       41.00717
2009    27      0       0.1455132       40.81298
2009    27      1       0.1399265       39.58007
2009    27      2       0.1338834       38.22469
2009    27      3       0.131408        37.66894
2009    27      4       0.1355831       38.56072
2009    27      5       0.1531777       42.3906
2009    27      6       0.1626503       44.5248
2009    27      7       0.164492        44.96168
2009    28      0       0.1987871       52.22377
2009    28      1       0.2089608       54.28884
2009    28      2       0.1959006       51.54948
2009    28      3       0.1947701       51.54371
2009    28      4       0.2204439       57.20104
2009    28      5       0.29376         72.27615
2009    28      6       0.3046299       74.14305
2009    28      7       0.2793448       68.89603
2009    29      0       0.2653388       66.11007
2009    29      1       0.25688         64.50771
2009    29      2       0.4303039       98.21794
2009    29      3       0.5188387       112.7685
2009    29      4       0.6955601       138.7363
2009    29      5       0.568188        120.5227
2009    29      6       0.4429494       100.2378
2009    29      7       0.3913673       90.90303
2009    30      0       0.3934807       91.02413
2009    30      1       0.3840153       89.53054
2009    30      2       0.4197853       95.88042
2009    30      3       0.4266189       96.38456
2009    30      4       0.5555062       117.9751
2009    30      5       0.33241         79.0727
2009    30      6       0.2756402       68.44661
2009    30      7       0.2463121       62.58005
2010    1       0       0.11288         32.88628
2010    1       1       0.1039977       30.92714
2010    1       2       0.09853466      29.62413
2010    1       3       0.09890428      29.60464
2010    1       4       0.10491         30.93295
2010    1       5       0.1082939       31.62562
2010    1       6       0.1123664       32.50944
2010    1       7       0.1212287       34.63828
2010    2       0       0.1314152       37.15214
2010    2       1       0.1346678       37.94787
2010    2       2       0.1313674       37.191
2010    2       3       0.130437        36.95539
2010    2       4       0.1423051       39.62865
2010    2       5       0.1554811       42.61976
2010    2       6       0.1642509       44.56849
2010    2       7       0.1648299       44.71786
2010    3       0       0.159944        43.72876
2010    3       1       0.1500261       41.56219
2010    3       2       0.1201971       34.68482
2010    3       3       0.0994872       29.72168
2010    3       4       0.09632149      28.93214
2010    3       5       0.09510214      28.62024
2010    3       6       0.09049579      27.52429
2010    3       7       0.08793757      26.95328
2010    4       0       0.092128        28.08374
2010    4       1       0.09621071      29.1809
2010    4       2       0.1049554       31.28775
2010    4       3       0.1174848       34.12338
2010    4       4       0.1124224       32.93914
2010    4       5       0.1080785       31.95862
2010    4       6       0.1108477       32.70323
2010    4       7       0.1159336       34.0908
2010    5       0       0.1021675       30.87121
2010    5       1       0.09619431      29.49242
2010    5       2       0.08732986      27.34286
2010    5       3       0.07781853      24.97476
2010    5       4       0.08134472      25.84333
2010    5       5       0.1099847       33.04577
2010    5       6       0.1447545       41.52406
2010    5       7       0.1487645       42.50379
2010    6       0       0.1429336       41.06949
2010    6       1       0.1663176       46.46725
2010    6       2       0.2024932       54.61441
2010    6       3       0.2136585       57.00069
2010    6       4       0.2152192       57.23872
2010    6       5       0.2339154       61.16694
2010    6       6       0.2678402       68.2218
2010    6       7       0.2783697       70.28323
2010    7       0       0.2698221       68.35421
2010    7       1       0.2482284       63.74185
2010    7       2       0.2560834       65.48097
2010    7       3       0.2678614       67.86776
2010    7       4       0.2670046       67.70825
2010    7       5       0.269994        68.39207
2010    7       6       0.2625176       66.94656
2010    7       7       0.2435429       62.90183
2010    8       0       0.306289        75.40785
2010    8       1       0.3763188       88.26284
2010    8       2       0.3810016       88.88624
2010    8       3       0.4359506       98.60544
2010    8       4       0.4442364       100.2157
2010    8       5       0.4137455       95.36646
2010    8       6       0.4675682       104.4259
2010    8       7       0.5417092       116.5395
2010    9       0       0.5488029       117.4707
2010    9       1       0.3652342       86.56868
2010    9       2       0.3080416       75.69691
2010    9       3       0.3148934       77.08562
2010    9       4       0.3417848       81.78603
2010    9       5       0.3599167       85.56199
2010    9       6       0.4210478       97.33905
2010    9       7       0.3636923       86.89219
2010    10      0       0.2853448       71.16517
2010    10      1       0.2270294       58.84348
2010    10      2       0.2249618       58.51544
2010    10      3       0.279343        70.09773
2010    10      4       0.3016538       74.3346
2010    10      5       0.2113682       55.11151
2010    10      6       0.2458789       63.44707
2010    10      7       0.2845076       71.8544
2010    11      0       0.256451        66.10221
2010    11      1       0.157298        44.01407
2010    11      2       0.3214069       78.83505
2010    11      3       0.4794796       107.6113
2010    11      4       0.4216846       97.66235
2010    11      5       0.4154672       96.21466
2010    11      6       0.4588003       103.3178
2010    11      7       0.6985918       139.5588
2010    12      0       0.9904957       172.6105
2010    12      1       1.081097        180.1492
2010    12      2       0.8711579       159.252
2010    12      3       1.080968        181.2333
2010    12      4       1.158422        188.6911
2010    12      5       1.025216        176.2963
2010    12      6       1.149374        188.0095
2010    12      7       0.7873174       149.8503
2010    13      0       0.7776579       147.7808
2010    13      1       0.5933343       122.3393
2010    13      2       0.4653978       102.6483
2010    13      3       0.4894832       106.3684
2010    13      4       1.190706        189.562
2010    13      5       1.227445        192.5691
2010    13      6       0.9893619       169.791
2010    13      7       1.013318        170.8821
2010    14      0       1.02595         172.0888
2010    14      1       1.041027        174.5157
2010    14      2       0.900531        160.3324
2010    14      3       0.6948415       135.6157
2010    14      4       0.6204371       126.519
2010    14      5       0.533841        113.5197
2010    14      6       0.4141402       93.32324
2010    14      7       0.5241858       110.8593
2010    15      0       0.9851731       169.4592
2010    15      1       1.148036        183.9624
2010    15      2       1.205263        188.5574
2010    15      3       1.361987        201.4512
2010    15      4       1.309489        198.476
2010    15      5       1.371653        203.229
2010    15      6       1.200914        189.3861
2010    15      7       0.8810934       159.6504
2010    16      0       0.7630078       146.5035
2010    16      1       0.8190996       153.7748
2010    16      2       0.8138353       153.9041
2010    16      3       0.6096913       127.4465
2010    16      4       0.5822557       123.6423
2010    16      5       0.5707395       121.8231
2010    16      6       0.4447894       101.2377
2010    16      7       0.4333184       99.38232
2010    17      0       0.460061        103.7591
2010    17      1       0.4466712       101.2769
2010    17      2       0.3789091       89.02979
2010    17      3       0.5885834       123.1946
2010    17      4       0.5551011       119.0205
2010    17      5       0.6220453       129.4504
2010    17      6       0.3986732       93.27891
2010    17      7       0.378588        89.22726
2010    18      0       0.3937765       91.79618
2010    18      1       0.4044875       93.42795
2010    18      2       0.4354361       98.82311
2010    18      3       0.6379562       130.6509
2010    18      4       0.7525948       146.1659
2010    18      5       0.5732632       121.4416
2010    18      6       0.4977307       109.4863
2010    18      7       0.5097176       111.5284
2010    19      0       0.4889279       108.1263
2010    19      1       0.4772169       106.0118
2010    19      2       0.445114        100.6395
2010    19      3       0.3836612       90.07906
2010    19      4       0.3666469       87.15645
2010    19      5       0.3587039       85.78815
2010    19      6       0.3467529       83.52539
2010    19      7       0.3040429       75.39355
2010    20      0       0.3073243       75.66573
2010    20      1       0.3081105       75.04087
2010    20      2       0.2149735       54.84908
2010    20      3       0.2024352       51.7453
2010    20      4       0.2204769       56.07656
2010    20      5       0.2776825       68.49564
2010    20      6       0.3630522       85.40681
2010    20      7       0.4319705       97.92138
2010    21      0       0.4123          94.55269
2010    21      1       0.3753501       87.8498
2010    21      2       0.3167862       77.01672
2010    21      3       0.278402        69.40796
2010    21      4       0.2330022       60.23608
2010    21      5       0.1950156       52.11414
2010    21      6       0.199023        52.80911
2010    21      7       0.1981819       52.5789
2010    22      0       0.1990666       52.77465
2010    22      1       0.1982335       52.42701
2010    22      2       0.2204145       56.6054
2010    22      3       0.2416506       60.38719
2010    22      4       0.3414045       79.29135
2010    22      5       0.293753        71.41531
2010    22      6       0.47876         104.1647
2010    22      7       0.6800655       135.7055
2010    23      0       0.5847156       122.7987
2010    23      1       0.6172891       126.6592
2010    23      2       0.7779062       148.9956
2010    23      3       0.6486615       131.9059
2010    23      4       0.5002294       109.7385
2010    23      5       0.3925301       91.3105
2010    23      6       0.2826145       70.29912
2010    23      7       0.2354293       60.02439
2010    24      0       0.1970018       51.3125
2010    24      1       0.2310704       58.28876
2010    24      2       0.2671563       65.59339
2010    24      3       0.5927236       121.7121
2010    24      4       0.6478621       130.1681
2010    24      5       0.4540544       100.9707
2010    24      6       0.3148267       76.03223
2010    24      7       0.5361018       114.465
2010    25      0       0.8673          158.9976
2010    25      1       0.7285451       142.6185
2010    25      2       0.6765044       135.8736
2010    25      3       0.8100496       152.7654
2010    25      4       0.6035332       124.7351
2010    25      5       0.4296905       97.04185
2010    25      6       0.6598085       130.7512
2010    25      7       0.6022854       122.779
2010    26      0       0.438436        98.49753
2010    26      1       0.3606572       85.33809
2010    26      2       0.2933152       72.58444
2010    26      3       0.3362793       80.50356
2010    26      4       0.2895865       71.73805
2010    26      5       0.2907946       72.22505
2010    26      6       0.3543129       84.74129
2010    26      7       0.366851        87.13034
2010    27      0       0.3574578       85.17634
2010    27      1       0.3146026       76.74622
2010    27      2       0.3099985       75.77811
2010    27      3       0.3791117       88.43362
2010    27      4       0.534432        113.5772
2010    27      5       0.5517434       116.7193
2010    27      6       0.3910867       91.41078
2010    27      7       0.3614675       85.54552
2010    28      0       0.3417594       81.51562
2010    28      1       0.3408497       81.38238
2010    28      2       0.389461        90.32517
2010    28      3       0.4485463       100.546
2010    28      4       0.5401106       116.3067
2010    28      5       0.5405445       116.3548
2010    28      6       0.4610869       102.3533
2010    28      7       0.4241538       96.18116
2010    29      0       0.3759325       87.54457
2010    29      1       0.3202197       77.09764
2010    29      2       0.2932858       72.45502
2010    29      3       0.2966696       73.34921
2010    29      4       0.2723375       68.47887
2010    29      5       0.2791607       70.11108
2010    29      6       0.3166526       77.90632
2010    29      7       0.3560967       85.82264
2010    30      0       0.3747797       89.36895
2010    30      1       0.3460485       83.63825
2010    30      2       0.2949016       73.25461
2010    30      3       0.2653722       67.39487
2010    30      4       0.2487196       63.75218
2010    30      5       0.1841319       50.11342
2010    30      6       0.1542637       42.90509
2010    30      7       0.1534331       42.47188
2011    1       0       0.4265579       94.99994
2011    1       1       0.5389625       113.8902
2011    1       2       0.4948941       107.3032
2011    1       3       0.4818339       105.3652
2011    1       4       0.5087907       110.0179
2011    1       5       0.5965546       123.8031
2011    1       6       0.7061307       139.3622
2011    1       7       0.7228356       141.6115
2011    2       0       0.7592548       146.1325
2011    2       1       0.8721334       159.0454
2011    2       2       0.9214777       164.3878
2011    2       3       0.9070778       162.9802
2011    2       4       0.8379473       155.2079
2011    2       5       0.7099362       139.5229
2011    2       6       0.5203606       112.1703
2011    2       7       0.3247771       78.16181
2011    3       0       0.2225571       57.99702
2011    3       1       0.216922        57.08121
2011    3       2       0.1962239       52.66081
2011    3       3       0.213687        56.5226
2011    3       4       0.197895        52.87187
2011    3       5       0.1442062       40.36067
2011    3       6       0.1098388       32.26992
2011    3       7       0.1162929       33.71048
2011    4       0       0.1244196       35.63977
2011    4       1       0.1168676       33.98356
2011    4       2       0.1093569       32.2324
2011    4       3       0.09472358      28.68168
2011    4       4       0.08425007      26.13597
2011    4       5       0.08418555      26.16659
2011    4       6       0.08738704      26.95653
2011    4       7       0.09477589      28.70128
2011    5       0       0.09101741      27.78077
2011    5       1       0.08043111      25.10122
2011    5       2       0.07774156      24.37465
2011    5       3       0.08069119      25.07121
2011    5       4       0.08633818      26.39387
2011    5       5       0.09378535      28.14431
2011    5       6       0.105018        30.82533
2011    5       7       0.1281061       36.2076
2011    6       0       0.1516366       41.55308
2011    6       1       0.176697        47.09318
2011    6       2       0.1826287       48.28582
2011    6       3       0.1672743       45.00491
2011    6       4       0.1786715       47.43332
2011    6       5       0.1680766       45.24773
2011    6       6       0.1617748       44.16037
2011    6       7       0.1646173       44.93782
2011    7       0       0.1589246       43.49613
2011    7       1       0.152761        41.86392
2011    7       2       0.1448287       40.0068
2011    7       3       0.178852        47.60379
2011    7       4       0.2367097       60.00899
2011    7       5       0.277924        68.33526
2011    7       6       0.3077025       74.1137
2011    7       7       0.3169412       76.13035
2011    8       0       0.3033756       73.87686
2011    8       1       0.3302433       79.24017
2011    8       2       0.37384         87.74478
2011    8       3       0.3997893       92.38163
2011    8       4       0.4523127       100.8447
2011    8       5       0.4628897       102.4766
2011    8       6       0.4890583       106.5234
2011    8       7       0.5142506       110.7512
2011    9       0       0.5773501       120.5027
2011    9       1       0.7442123       143.2554
2011    9       2       0.8251264       153.6179
2011    9       3       0.82244         153.9051
2011    9       4       0.8860663       161.0968
2011    9       5       0.868635        159.0343
2011    9       6       0.8514866       156.4191
2011    9       7       0.7223467       139.5694
2011    10      0       0.5827809       121.0253
2011    10      1       0.6518636       130.3942
2011    10      2       0.631493        127.8222
2011    10      3       0.5297172       112.251
2011    10      4       0.4965473       107.0209
2011    10      5       0.541767        114.4158
2011    10      6       0.5425954       114.6847
2011    10      7       0.4610361       101.6094
2011    11      0       0.4788575       105.086
2011    11      1       0.5115357       110.0068
2011    11      2       0.501541        108.535
2011    11      3       0.5048226       108.8721
2011    11      4       0.6363549       129.3589
2011    11      5       0.7239079       141.4071
2011    11      6       0.663339        133.4405
2011    11      7       0.5437676       116.0937
2011    12      0       0.5046518       109.7932
2011    12      1       0.5171862       111.4538
2011    12      2       0.5376159       114.2854
2011    12      3       0.5500167       115.8239
2011    12      4       0.5692894       118.3133
2011    12      5       0.5464794       114.7247
2011    12      6       0.5174054       110.5137
2011    12      7       0.3867758       88.97047
2011    13      0       0.2168444       56.09031
2011    13      1       0.2800209       69.40068
2011    13      2       0.2996467       73.01764
2011    13      3       0.6493378       132.3596
2011    13      4       0.703712        139.835
2011    13      5       0.5571862       117.2155
2011    13      6       0.5413854       114.8286
2011    13      7       0.8648436       157.0336
2011    14      0       0.9550927       165.7475
2011    14      1       0.8911716       158.8753
2011    14      2       0.8933265       159.7726
2011    14      3       0.9648952       167.7677
2011    14      4       1.354733        200.5482
2011    14      5       1.423578        204.885
2011    14      6       1.315732        197.4697
2011    14      7       0.9785101       167.8013
2011    15      0       0.7152144       137.7362
2011    15      1       0.8031343       148.9227
2011    15      2       0.6987508       136.6205
2011    15      3       0.5466739       115.2605
2011    15      4       0.5209422       111.5152
2011    15      5       0.3608214       84.63106
2011    15      6       0.2105177       54.82655
2011    15      7       0.1512225       41.7088
2011    16      0       0.15582         42.49598
2011    16      1       0.1900437       49.94245
2011    16      2       0.2123261       54.48273
2011    16      3       0.1961393       50.88203
2011    16      4       0.1892784       49.1638
2011    16      5       0.1983245       51.01025
2011    16      6       0.1946522       50.24508
2011    16      7       0.1905371       49.57157
2011    17      0       0.1505983       40.73901
2011    17      1       0.1419427       38.57512
2011    17      2       0.1532232       40.96063
2011    17      3       0.1510724       40.85924
2011    17      4       0.1620133       43.84992
2011    17      5       0.2381211       60.4127
2011    17      6       0.2457629       62.03369
2011    17      7       0.3386559       80.43228
2011    18      0       0.4994726       108.188
2011    18      1       0.3378865       79.98374
2011    18      2       0.1504004       41.44883
2011    18      3       0.08676604      26.55138
2011    18      4       0.08728894      26.66368
2011    18      5       0.08970335      27.20847
2011    18      6       0.08692956      26.54741
2011    18      7       0.1066392       31.3144
2011    19      0       0.1261233       35.96755
2011    19      1       0.1324342       37.48826
2011    19      2       0.1254584       35.8138
2011    19      3       0.1339636       37.76668
2011    19      4       0.1694039       45.97166
2011    19      5       0.1815812       48.81334
2011    19      6       0.1601621       44.06187
2011    19      7       0.1412501       39.73737
2011    20      0       0.139077        39.23075
2011    20      1       0.1381713       38.99048
2011    20      2       0.1289785       36.76547
2011    20      3       0.1220649       35.06001
2011    20      4       0.1226077       35.16389
2011    20      5       0.1273318       36.18138
2011    20      6       0.1363978       38.04797
2011    20      7       0.143586        39.55243
2011    21      0       0.1249536       35.50177
2011    21      1       0.1166727       33.7213
2011    21      2       0.115056        33.40127
2011    21      3       0.1180875       34.19088
2011    21      4       0.1233324       35.46501
2011    21      5       0.1134391       33.17832
2011    21      6       0.1067049       31.41576
2011    21      7       0.1164886       33.39257
2011    22      0       0.1231572       34.74998
2011    22      1       0.148099        40.19544
2011    22      2       0.1637518       43.76982
2011    22      3       0.1823196       47.87837
2011    22      4       0.3464732       81.31481
2011    22      5       0.2639896       64.4034
2011    22      6       0.3706918       85.90802
2011    22      7       0.4084788       92.7946
2011    23      0       0.3912465       89.64183
2011    23      1       0.4134646       93.0586
2011    23      2       0.4089027       92.22675
2011    23      3       0.3618536       84.1145
2011    23      4       0.3652453       84.66111
2011    23      5       0.3043105       73.52941
2011    23      6       0.2623999       65.7435
2011    23      7       0.2867259       70.97245
2011    24      0       0.2965942       72.95125
2011    24      1       0.2650458       66.65538
2011    24      2       0.2595103       65.43295
2011    24      3       0.2635368       66.13326
2011    24      4       0.2778847       68.85583
2011    24      5       0.2788067       68.99373
2011    24      6       0.2685397       66.87799
2011    24      7       0.2741892       67.93904
2011    25      0       0.2960053       71.92938
2011    25      1       0.3027878       73.15664
2011    25      2       0.2883749       70.40967
2011    25      3       0.3110323       74.96398
2011    25      4       0.3310133       78.91017
2011    25      5       0.3521354       82.89886
2011    25      6       0.3564613       83.64081
2011    25      7       0.3358996       79.80123
2011    26      0       0.3406915       80.72222
2011    26      1       0.3744597       86.81856
2011    26      2       0.4497662       99.59891
2011    26      3       0.406274        92.46935
2011    26      4       0.42228         94.94056
2011    26      5       0.3579267       83.80703
2011    26      6       0.4164469       93.60418
2011    26      7       0.3964341       90.78133
2011    27      0       0.4382612       97.5987
2011    27      1       0.8232587       151.6778
2011    27      2       0.4196245       94.19777
2011    27      3       0.199642        51.80397
2011    27      4       0.1756537       46.72059
2011    27      5       0.1724861       46.4987
2011    27      6       0.1526381       42.12454
2011    27      7       0.1163417       33.65828
2011    28      0       0.118705        34.15641
2011    28      1       0.1299688       36.8612
2011    28      2       0.1502658       41.59933
2011    28      3       0.1704797       46.35284
2011    28      4       0.1993741       52.82739
2011    28      5       0.2201766       57.26507
2011    28      6       0.2340191       60.0564
2011    28      7       0.2419429       61.57154
2011    29      0       0.2619409       65.70834
2011    29      1       0.2724268       67.8659
2011    29      2       0.2684451       67.01981
2011    29      3       0.274589        68.1679
2011    29      4       0.3108269       75.10194
2011    29      5       0.3888892       88.97437
2011    29      6       0.3902554       89.35082
2011    29      7       0.3906598       89.31831
2011    30      0       0.3836657       87.96573
2011    30      1       0.3782819       86.84142
2011    30      2       0.3688763       85.20945
2011    30      3       0.3602093       83.6257
2011    30      4       0.3287717       77.52962
2011    30      5       0.2709217       66.30678
2011    30      6       0.2393852       60.08414
2011    30      7       0.2231408       56.80852
2012    1       0       0.6330218       128.245
2012    1       1       1.135023        185.3764
2012    1       2       1.239335        194.328
2012    1       3       0.9888704       173.3151
2012    1       4       0.9471923       168.463
2012    1       5       1.083278        181.4277
2012    1       6       1.113599        184.1652
2012    1       7       1.032113        178.3581
2012    2       0       0.9319581       168.0503
2012    2       1       0.9532523       170.3589
2012    2       2       1.06153         181.1543
2012    2       3       0.9899971       173.9067
2012    2       4       0.9448427       169.0605
2012    2       5       0.9376953       168.4303
2012    2       6       0.8628536       160.4273
2012    2       7       0.788006        151.6457
2012    3       0       0.7831234       151.1206
2012    3       1       0.7584644       148.3235
2012    3       2       0.6257647       130.5263
2012    3       3       0.5405086       117.8817
2012    3       4       0.4904086       109.8517
2012    3       5       0.4280422       99.30373
2012    3       6       0.3668092       88.31501
2012    3       7       0.3233049       79.86183
2012    4       0       0.3035026       76.03422
2012    4       1       0.3278393       80.94211
2012    4       2       0.3271014       80.74305
2012    4       3       0.2966003       74.57159
2012    4       4       0.2840742       71.89236
2012    4       5       0.2541003       65.52857
2012    4       6       0.2252671       59.17493
2012    4       7       0.2347216       60.8188
2012    5       0       0.2811881       70.56079
2012    5       1       0.2954507       73.54726
2012    5       2       0.3198756       78.64674
2012    5       3       0.3124846       77.03921
2012    5       4       0.2758868       69.19805
2012    5       5       0.2339417       59.62207
2012    5       6       0.2888001       70.75618
2012    5       7       0.539308        116.5205
2012    6       0       0.7747114       150.4706
2012    6       1       0.8532547       159.457
2012    6       2       0.8535911       159.8973
2012    6       3       0.8219958       156.9014
2012    6       4       0.8270406       157.9305
2012    6       5       0.6955886       140.8533
2012    6       6       0.5440783       118.0483
2012    6       7       0.5882723       124.4622
2012    7       0       0.6415268       133.0828
2012    7       1       0.6011988       128.0739
2012    7       2       0.5289544       116.6584
2012    7       3       0.7424947       147.4246
2012    7       4       0.8288557       157.6343
2012    7       5       0.9214858       167.6251
2012    7       6       0.9040319       165.3769
2012    7       7       1.087358        183.3123
2012    8       0       1.394733        207.1818
2012    8       1       1.125006        186.2875
2012    8       2       0.7701839       149.1582
2012    8       3       0.9063043       163.9408
2012    8       4       1.27097         196.0919
2012    8       5       1.156657        187.9707
2012    8       6       0.5514616       118.0115
2012    8       7       0.3808321       89.64587
2012    9       0       0.1687436       46.46157
2012    9       1       0.1028985       30.93458
2012    9       2       0.09292353      28.3529
2012    9       3       0.08507079      26.20744
2012    9       4       0.1214151       34.84818
2012    9       5       0.155472        42.89882
2012    9       6       0.1773976       47.87755
2012    9       7       0.2696231       67.25064
2012    10      0       0.3468047       82.49681
2012    10      1       0.228625        59.72007
2012    10      2       0.227944        59.70326
2012    10      3       0.2053279       54.73032
2012    10      4       0.255664        65.42724
2012    10      5       0.373067        89.55444
2012    10      6       0.3992898       95.38076
2012    10      7       0.1753752       48.82558
2012    11      0       0.0813317       25.86596
2012    11      1       0.1290495       37.31871
2012    11      2       0.167074        46.24811
2012    11      3       0.1306563       37.76087
2012    11      4       0.1080554       32.27174
2012    11      5       0.1004211       30.42578
2012    11      6       0.08960033      27.86722
2012    11      7       0.0744011       23.7728
2012    12      0       0.06042152      19.8397
2012    12      1       0.05715743      18.93321
2012    12      2       0.07878238      24.24524
2012    12      3       0.09446623      28.08908
2012    12      4       0.1111314       31.76073
2012    12      5       0.1203973       33.74814
2012    12      6       0.1192821       33.34435
2012    12      7       0.1257985       34.79183
2012    13      0       0.1374693       37.40377
2012    13      1       0.1537255       41.09483
2012    13      2       0.144898        39.67777
2012    13      3       0.1454501       40.06126
2012    13      4       0.1321984       37.3596
2012    13      5       0.1423033       39.81814
2012    13      6       0.1665594       45.43191
2012    13      7       0.1819784       49.06221
2012    14      0       0.1785204       48.43956
2012    14      1       0.1606019       44.34107
2012    14      2       0.1416042       39.92652
2012    14      3       0.1288792       36.87537
2012    14      4       0.1188924       34.46027
2012    14      5       0.1101038       32.33269
2012    14      6       0.1061509       31.33637
2012    14      7       0.1048988       31.05458
2012    15      0       0.1207445       34.75511
2012    15      1       0.141214        39.55167
2012    15      2       0.2306845       59.80945
2012    15      3       0.381853        90.11725
2012    15      4       0.5423637       117.4643
2012    15      5       0.6727744       136.4577
2012    15      6       0.936217        168.0128
2012    15      7       1.215079        193.494
2012    16      0       0.9639101       170.6217
2012    16      1       1.113026        184.7203
2012    16      2       0.7193673       141.6453
2012    16      3       1.139181        186.4898
2012    16      4       1.374848        203.9336
2012    16      5       1.132824        184.9426
2012    16      6       1.01009         173.1245
2012    16      7       0.949223        165.3941
2012    17      0       1.107917        180.341
2012    17      1       1.222783        190.5931
2012    17      2       1.281798        195.8132
2012    17      3       1.480105        209.66
2012    17      4       1.278936        195.3077
2012    17      5       1.139934        183.8094
2012    17      6       1.357036        201.6677
2012    17      7       1.741809        224.9925
2012    18      0       1.547564        215.0166
2012    18      1       1.266879        196.9881
2012    18      2       1.140228        187.4303
2012    18      3       0.9959819       174.3288
2012    18      4       1.033734        178.356
2012    18      5       0.7956723       152.2063
2012    18      6       0.7621197       147.8179
2012    18      7       0.6918345       138.5837
2012    19      0       0.665971        134.6276
2012    19      1       0.7092196       140.1416
2012    19      2       0.8157359       153.2209
2012    19      3       0.9451016       167.1476
2012    19      4       0.9192342       163.875
2012    19      5       1.237185        194.2165
2012    19      6       1.126869        185.4202
2012    19      7       1.101952        183.44
2012    20      0       0.8078487       152.315
2012    20      1       0.6963275       138.2807
2012    20      2       1.033544        176.2182
2012    20      3       0.7660257       146.1358
2012    20      4       0.7143101       139.5366
2012    20      5       0.7561048       143.8967
2012    20      6       0.785148        147.0303
2012    20      7       0.7647135       145.2087
2012    21      0       0.7034749       137.9506
2012    21      1       0.7329039       141.5288
2012    21      2       0.8197048       151.58
2012    21      3       1.090064        178.5393
2012    21      4       1.05683         176.1786
2012    21      5       0.968202        168.3895
2012    21      6       0.8730339       158.8795
2012    21      7       0.8426875       155.8981
2012    22      0       0.9305243       165.5683
2012    22      1       1.100444        181.9386
2012    22      2       1.421685        207.402
2012    22      3       1.476333        211.1375
2012    22      4       1.528996        214.5934
2012    22      5       1.064433        180.1027
2012    22      6       0.4609783       103.6476
2012    22      7       0.2675996       67.66999
2012    23      0       0.222534        58.25098
2012    23      1       0.1779135       48.49622
2012    23      2       0.235121        61.00442
2012    23      3       0.2509069       64.26185
2012    23      4       0.1581387       43.54966
2012    23      5       0.1351531       37.9149
2012    23      6       0.1524517       41.74912
2012    23      7       0.1811586       48.07633
2012    24      0       0.2433183       61.04613
2012    24      1       0.4217464       94.97259
2012    24      2       0.6447218       130.2533
2012    24      3       0.6974075       137.579
2012    24      4       0.4489869       100.5766
2012    24      5       0.3974125       91.5139
2012    24      6       0.3913404       90.52078
2012    24      7       0.3813028       89.06031
2012    25      0       0.2040479       53.67729
2012    25      1       0.1439417       39.95811
2012    25      2       0.1226218       35.19965
2012    25      3       0.124578        35.72657
2012    25      4       0.1566576       43.30619
2012    25      5       0.1962722       52.28988
2012    25      6       0.1965955       52.32924
2012    25      7       0.17838         48.26651
2012    26      0       0.190721        51.0118
2012    26      1       0.2459189       62.7483
2012    26      2       0.274683        68.44166
2012    26      3       0.3470015       82.44005
2012    26      4       0.4471649       100.4285
2012    26      5       0.4813618       106.2619
2012    26      6       0.352282        83.58334
2012    26      7       0.2545907       64.48903
2012    27      0       0.2205399       57.37696
2012    27      1       0.2103661       55.25791
2012    27      2       0.2072509       54.69782
2012    27      3       0.1982349       52.84272
2012    27      4       0.1960141       52.40151
2012    27      5       0.1923368       51.66896
2012    27      6       0.1931985       51.95855
2012    27      7       0.2067516       54.97138
2012    28      0       0.2177343       57.41402
2012    28      1       0.2524327       64.84738
2012    28      2       0.3270718       79.79653
2012    28      3       0.3710688       87.95661
2012    28      4       0.4024776       93.50887
2012    28      5       0.4103515       94.373
2012    28      6       0.4334953       98.47311
2012    28      7       0.2903486       71.55047
2012    29      0       0.2791565       69.28751
2012    29      1       0.317368        76.72123
2012    29      2       0.5738842       120.1991
2012    29      3       0.4746614       104.2504
2012    29      4       0.5182046       112.4482
2012    29      5       0.5617724       119.3515
2012    29      6       0.5903821       123.5567
2012    29      7       0.5960651       124.488
2012    30      0       0.8120181       152.0108
2012    30      1       0.6054344       125.7161
2012    30      2       0.6305953       128.7597
2012    30      3       0.616651        126.6798
2012    30      4       0.6258268       128.0889
2012    30      5       0.6234677       127.9952
2012    30      6       0.5386807       115.6389
2012    30      7       0.9650864       169.2199
2013    1       0       0.2824037       70.50331
2013    1       1       0.319363        77.86851
2013    1       2       0.3274333       79.53588
2013    1       3       0.3141424       77.07391
2013    1       4       0.3014108       74.56191
2013    1       5       0.2900244       72.21452
2013    1       6       0.2703796       68.10272
2013    1       7       0.2386043       61.5041
2013    2       0       0.2389263       61.62172
2013    2       1       0.2485124       63.55414
2013    2       2       0.2438715       62.45901
2013    2       3       0.238597        61.45839
2013    2       4       0.2268833       59.10965
2013    2       5       0.2130915       56.17792
2013    2       6       0.2014925       53.65165
2013    2       7       0.1905635       51.23985
2013    3       0       0.1897165       51.02681
2013    3       1       0.1862901       50.24671
2013    3       2       0.1721314       47.08889
2013    3       3       0.1610982       44.60349
2013    3       4       0.1676055       46.05664
2013    3       5       0.1795352       48.71276
2013    3       6       0.1808089       48.93947
2013    3       7       0.1772329       48.11188
2013    4       0       0.179499        48.52947
2013    4       1       0.2005669       53.05502
2013    4       2       0.257629        65.04008
2013    4       3       0.3907252       90.2277
2013    4       4       0.5975614       123.284
2013    4       5       0.8414272       154.82
2013    4       6       0.6330283       128.1285
2013    4       7       0.4846026       105.8077
2013    5       0       0.4340677       97.72426
2013    5       1       0.4405973       99.14448
2013    5       2       0.5274785       113.6354
2013    5       3       0.5764524       121.1544
2013    5       4       0.5136728       111.6055
2013    5       5       0.4448851       100.2948
2013    5       6       0.2949094       72.32929
2013    5       7       0.4223472       95.40234
2013    6       0       0.4367346       97.47033
2013    6       1       0.6310747       127.1962
2013    6       2       0.7932481       148.2534
2013    6       3       0.8985613       160.3856
2013    6       4       1.322361        198.0973
2013    6       5       1.41155         204.6955
2013    6       6       1.336921        199.201
2013    6       7       1.473617        208.6411
2013    7       0       1.460948        209.0492
2013    7       1       1.181085        189.198
2013    7       2       1.105328        183.0607
2013    7       3       1.279648        197.9876
2013    7       4       1.13441         186.7469
2013    7       5       1.06784         180.6236
2013    7       6       1.353423        204.9431
2013    7       7       1.148879        189.6426
2013    8       0       0.3523253       84.36086
2013    8       1       0.3258364       79.21045
2013    8       2       0.4006713       93.52648
2013    8       3       0.3965371       93.13203
2013    8       4       0.3770324       89.65755
2013    8       5       0.3399173       82.72356
2013    8       6       0.2853597       71.89522
2013    8       7       0.2474776       63.96925
2013    9       0       0.2263903       59.45746
2013    9       1       0.216847        57.37756
2013    9       2       0.2165533       57.30607
2013    9       3       0.2104276       55.98437
2013    9       4       0.210379        55.98616
2013    9       5       0.2156963       57.16125
2013    9       6       0.2049742       54.78923
2013    9       7       0.1886477       51.15992
2013    10      0       0.1879285       51.04157
2013    10      1       0.1950954       52.65039
2013    10      2       0.1972632       53.1209
2013    10      3       0.1951407       52.65459
2013    10      4       0.1955953       52.72062
2013    10      5       0.1904341       51.46418
2013    10      6       0.1852509       50.22254
2013    10      7       0.1977963       52.84558
2013    11      0       0.2283239       59.41494
2013    11      1       0.2655658       67.02266
2013    11      2       0.2682814       67.20428
2013    11      3       0.3347912       80.43344
2013    11      4       0.5098887       111.3425
2013    11      5       0.5855512       123.1802
2013    11      6       0.4962008       109.1947
2013    11      7       0.4382169       99.27927
2013    12      0       0.368948        86.3641
2013    12      1       0.4882426       107.9915
2013    12      2       0.703311        140.2114
2013    12      3       0.816553        154.8107
2013    12      4       0.7253665       143.6003
2013    12      5       0.8564698       160.1154
2013    12      6       0.9282899       168.3076
2013    12      7       0.6303648       130.9695
2013    13      0       0.462124        104.579
2013    13      1       0.2470231       63.82999
2013    13      2       0.2181474       57.40921
2013    13      3       0.3798913       89.51354
2013    13      4       0.4427317       100.0518
2013    13      5       0.5028265       109.8943
2013    13      6       0.5026549       109.6564
2013    13      7       0.5043408       109.9575
2013    14      0       0.6253948       127.436
2013    14      1       0.6346836       128.6241
2013    14      2       0.586388        121.9056
2013    14      3       0.5744199       120.076
2013    14      4       0.6067644       124.8783
2013    14      5       0.5328099       113.5528
2013    14      6       0.6254527       127.3352
2013    14      7       0.717673        140.7013
2013    15      0       0.8071124       152.2625
2013    15      1       0.6620993       133.6311
2013    15      2       0.6965665       138.9163
2013    15      3       0.8291          155.6396
2013    15      4       0.9980734       174.2714
2013    15      5       0.8889478       162.6929
2013    15      6       0.7274104       143.1661
2013    15      7       0.6429438       131.5315
2013    16      0       0.5419929       116.6642
2013    16      1       0.5790583       122.1904
2013    16      2       0.751528        145.6551
2013    16      3       1.078911        180.7232
2013    16      4       1.185673        190.2512
2013    16      5       1.027483        175.7598
2013    16      6       0.8719742       159.2676
2013    16      7       0.8159422       152.6172
2013    17      0       0.7591067       145.3892
2013    17      1       0.8815951       159.9848
2013    17      2       0.8068687       151.1245
2013    17      3       0.6017429       124.1392
2013    17      4       0.5222442       112.2058
2013    17      5       0.4668388       103.4498
2013    17      6       0.4043792       92.64701
2013    17      7       0.3239576       77.74882
2013    18      0       0.2821644       69.64155
2013    18      1       0.2629599       66.01219
2013    18      2       0.2485537       63.29146
2013    18      3       0.2302766       59.70222
2013    18      4       0.2320749       60.0262
2013    18      5       0.2407931       61.58905
2013    18      6       0.2443467       62.10623
2013    18      7       0.2626931       65.54528
2013    19      0       0.2648227       66.2148
2013    19      1       0.2661082       66.43108
2013    19      2       0.2907037       71.41931
2013    19      3       0.3967366       91.84091
2013    19      4       0.4747191       105.7239
2013    19      5       0.5132809       111.8849
2013    19      6       0.3773378       88.05109
2013    19      7       0.3431952       81.60358
2013    20      0       0.4046167       92.9777
2013    20      1       0.465044        103.795
2013    20      2       0.4474558       100.3657
2013    20      3       0.6434894       130.9736
2013    20      4       0.5601646       119.9367
2013    20      5       0.3933491       92.4104
2013    20      6       0.345281        83.68535
2013    20      7       0.243815        63.29935
2013    21      0       0.1653746       45.76838
2013    21      1       0.19114         51.21097
2013    21      2       0.2936192       72.81764
2013    21      3       0.4136442       95.79572
2013    21      4       0.7553199       146.3554
2013    21      5       1.464341        211.0435
2013    21      6       0.9131062       164.8485
2013    21      7       0.8758683       160.9772
2013    22      0       1.557921        215.7183
2013    22      1       1.513915        213.9132
2013    22      2       0.7713655       147.7006
2013    22      3       0.8357729       155.6529
2013    22      4       0.59081         124.1506
2013    22      5       0.284893        71.30372
2013    22      6       0.2012088       53.47644
2013    22      7       0.2503157       63.35458
2013    23      0       0.3169654       77.14611
2013    23      1       0.3936049       90.54009
2013    23      2       0.5108026       109.8157
2013    23      3       1.084031        179.8847
2013    23      4       0.8454522       155.5108
2013    23      5       0.3663098       85.48893
2013    23      6       0.3141735       75.88458
2013    23      7       0.3122573       74.45445
2013    24      0       0.455973        99.50222
2013    24      1       0.4639928       100.8494
2013    24      2       0.4360793       96.02745
2013    24      3       0.3914151       88.84581
2013    24      4       0.6429834       128.1401
2013    24      5       0.6217373       126.1064
2013    24      6       0.710295        138.1924
2013    24      7       0.7577224       144.9497
2013    25      0       0.7767892       147.5546
2013    25      1       0.6490511       131.1551
2013    25      2       0.6836915       136.0729
2013    25      3       0.7430386       143.2041
2013    25      4       0.6984951       136.2742
2013    25      5       0.6242363       125.7328
2013    25      6       0.8206208       150.9386
2013    25      7       1.088138        181.2091
2013    26      0       0.5779344       120.9082
2013    26      1       0.5201844       111.7426
2013    26      2       0.6641177       132.6878
2013    26      3       0.7851367       147.9935
2013    26      4       0.6825082       135.3949
2013    26      5       0.4936054       107.983
2013    26      6       0.3897724       90.12499
2013    26      7       0.3442252       81.37953
2013    27      0       0.4660348       102.7552
2013    27      1       0.6427862       129.3961
2013    27      2       0.4282998       96.38092
2013    27      3       0.4372347       97.96107
2013    27      4       0.3647923       85.02083
2013    27      5       0.3366943       79.83904
2013    27      6       0.2643026       65.94034
2013    27      7       0.2199951       57.03064
2013    28      0       0.2043678       53.69739
2013    28      1       0.1824655       48.78047
2013    28      2       0.2615442       65.5662
2013    28      3       0.4410871       99.13798
2013    28      4       0.8682371       158.6779
2013    28      5       0.7963334       150.2995
2013    28      6       0.342989        81.40006
2013    28      7       0.1732876       46.11063
2013    29      0       0.1627575       43.23256
2013    29      1       0.1581925       42.14509
2013    29      2       0.1637197       43.45222
2013    29      3       0.1853795       48.20377
2013    29      4       0.2885186       69.25663
2013    29      5       0.346992        80.63689
2013    29      6       0.3786254       86.74244
2013    29      7       0.4397244       97.76131
2013    30      0       0.5305047       112.6616
2013    30      1       0.5475916       115.6889
2013    30      2       0.6775083       133.6696
2013    30      3       0.8001712       149.5519
2013    30      4       0.7609688       144.8426
2013    30      5       0.7914077       147.9301
2013    30      6       0.9219283       163.5442
2013    30      7       0.9024158       162.7141
2014    1       0       0.7914445       149.715
2014    1       1       0.6023794       124.7307
2014    1       2       0.7387765       143.5091
2014    1       3       1.046566        177.7167
2014    1       4       0.846461        156.4102
2014    1       5       0.7584018       145.9011
2014    1       6       0.5482909       116.3877
2014    1       7       0.4986046       108.5018
2014    2       0       0.5758143       120.77
2014    2       1       0.4669058       103.6958
2014    2       2       0.352463        83.55712
2014    2       3       0.3367437       80.69899
2014    2       4       0.5319131       114.6831
2014    2       5       0.3258252       78.63432
2014    2       6       0.2538787       64.1043
2014    2       7       0.256985        64.64329
2014    3       0       0.2274868       58.47743
2014    3       1       0.2047299       53.5614
2014    3       2       0.199181        52.45504
2014    3       3       0.2096271       54.92932
2014    3       4       0.2429844       62.13484
2014    3       5       0.2876027       71.37575
2014    3       6       0.3021389       74.32648
2014    3       7       0.2997498       73.87129
2014    4       0       0.2881615       71.56551
2014    4       1       0.277628        69.43129
2014    4       2       0.2767259       69.30758
2014    4       3       0.3811713       89.79297
2014    4       4       0.4883332       108.5298
2014    4       5       0.3823179       90.006
2014    4       6       0.2140488       56.22871
2014    4       7       0.2053238       54.21299
2014    5       0       0.1906507       50.77753
2014    5       1       0.1855665       49.38373
2014    5       2       0.197851        51.70583
2014    5       3       0.1688242       44.95496
2014    5       4       0.3504714       83.07408
2014    5       5       0.5891907       123.6164
2014    5       6       0.613431        127.3147
2014    5       7       0.6524884       133.1188
2014    6       0       0.7815128       149.6315
2014    6       1       0.8132051       153.4534
2014    6       2       0.7147859       141.5543
2014    6       3       0.6593185       134.079
2014    6       4       0.6694223       135.4717
2014    6       5       0.6496674       132.8621
2014    6       6       0.5745362       122.1259
2014    6       7       0.5530795       118.8205
2014    7       0       0.6730389       136.2825
2014    7       1       0.7281628       143.5912
2014    7       2       0.6975464       138.979
2014    7       3       0.7028973       139.1618
2014    7       4       0.6811671       136.7133
2014    7       5       0.8008716       150.9164
2014    7       6       0.6395456       130.7917
2014    7       7       0.4511436       101.1087
2014    8       0       0.66624         135.4457
2014    8       1       0.7834937       151.2337
2014    8       2       0.8226897       155.723
2014    8       3       0.7065235       140.9582
2014    8       4       0.600772        125.9309
2014    8       5       0.6290374       129.5934
2014    8       6       0.4913989       107.4811
2014    8       7       0.5384305       115.1371
2014    9       0       0.563414        117.9733
2014    9       1       0.6986371       138.7075
2014    9       2       0.9858069       173.4654
2014    9       3       0.8579423       159.8149
2014    9       4       0.7963545       153.0884
2014    9       5       0.5629903       121.0864
2014    9       6       0.6590932       135.5151
2014    9       7       0.5469391       118.7604
2014    10      0       0.5168087       113.9754
2014    10      1       0.5156873       113.833
2014    10      2       0.4606187       104.7065
2014    10      3       0.5165446       114.3146
2014    10      4       0.6500459       134.7625
2014    10      5       0.7085648       142.8526
2014    10      6       0.6029338       127.5928
2014    10      7       0.5218623       114.835
2014    11      0       0.4440665       101.6702
2014    11      1       0.4244445       98.01833
2014    11      2       0.4393196       100.2718
2014    11      3       0.8686961       162.3514
2014    11      4       0.8097902       155.672
2014    11      5       0.5321555       116.848
2014    11      6       0.3057084       75.79826
2014    11      7       0.2298703       59.68399
2014    12      0       0.2423692       61.37313
2014    12      1       0.2870411       70.76449
2014    12      2       0.3173076       76.93613
2014    12      3       0.5411649       116.9668
2014    12      4       0.7309212       142.8995
2014    12      5       1.038972        176.8189
2014    12      6       0.8770268       161.0653
2014    12      7       0.767625        148.9294
2014    13      0       0.5291873       114.8941
2014    13      1       0.4281051       97.2407
2014    13      2       0.4528266       100.4219
2014    13      3       0.5117164       111.337
2014    13      4       0.5901595       122.8383
2014    13      5       0.5860938       122.734
2014    13      6       0.7762788       148.2721
2014    13      7       0.8787555       160.1481
2014    14      0       0.5848521       122.2835
2014    14      1       0.5825848       120.0396
2014    14      2       0.7615775       144.5845
2014    14      3       0.8919416       160.3773
2014    14      4       0.7248984       140.7149
2014    14      5       0.8090569       150.8243
2014    14      6       0.7637174       145.9111
2014    14      7       0.5976095       123.5345
2014    15      0       0.6311156       127.6229
2014    15      1       0.7905805       148.9229
2014    15      2       1.094528        181.677
2014    15      3       1.217602        192.0647
2014    15      4       1.133335        185.3332
2014    15      5       1.137779        186.2535
2014    15      6       0.9530557       169.2983
2014    15      7       0.717942        142.2492
2014    16      0       0.5985099       125.6508
2014    16      1       0.5689558       120.8503
2014    16      2       0.607137        125.3111
2014    16      3       0.7972959       149.1685
2014    16      4       0.6823442       135.8105
2014    16      5       0.6358131       130.3957
2014    16      6       0.6532905       133.2032
2014    16      7       0.6740024       136.0986
2014    17      0       0.6391357       131.187
2014    17      1       0.6241892       128.9329
2014    17      2       0.6289928       129.5148
2014    17      3       0.5856754       123.133
2014    17      4       0.5081279       110.8173
2014    17      5       0.5382365       115.6412
2014    17      6       0.530189        114.3506
2014    17      7       0.4866923       107.5242
2014    18      0       0.4837415       107.0306
2014    18      1       0.467941        104.7295
2014    18      2       0.4527599       102.1971
2014    18      3       0.4371782       99.30362
2014    18      4       0.4492791       101.4643
2014    18      5       0.4446668       100.5987
2014    18      6       0.401608        93.00928
2014    18      7       0.3434141       82.04586
2014    19      0       0.308604        75.10763
2014    19      1       0.2939395       72.08315
2014    19      2       0.308633        74.68554
2014    19      3       0.5725509       120.4976
2014    19      4       0.7174841       141.3994
2014    19      5       0.4331089       98.27033
2014    19      6       0.4577043       102.6017
2014    19      7       0.4509857       101.6891
2014    20      0       0.4646645       103.3918
2014    20      1       0.4333469       97.52184
2014    20      2       0.3925836       91.01741
2014    20      3       0.358749        84.26181
2014    20      4       0.3855367       89.28809
2014    20      5       0.5099805       111.8241
2014    20      6       0.2846147       70.99573
2014    20      7       0.1718507       46.59322
2014    21      0       0.2839406       70.23976
2014    21      1       0.3722029       87.16625
2014    21      2       0.4348528       98.38868
2014    21      3       0.7539309       145.914
2014    21      4       0.5370472       115.5559
2014    21      5       0.2997243       73.64628
2014    21      6       0.2178525       56.62112
2014    21      7       0.2325862       59.85963
2014    22      0       0.275587        68.74681
2014    22      1       0.2940534       72.42707
2014    22      2       0.1947126       51.52024
2014    22      3       0.1400743       39.08103
2014    22      4       0.1398593       38.94602
2014    22      5       0.1715414       46.09663
2014    22      6       0.3058939       74.47111
2014    22      7       0.3479426       82.62733
2014    23      0       0.5032285       109.8661
2014    23      1       0.4930218       109.8398
2014    23      2       0.4442045       99.91226
2014    23      3       0.3046015       74.46297
2014    23      4       0.325685        78.46937
2014    23      5       0.2583129       65.05783
2014    23      6       0.2170053       56.32275
2014    23      7       0.2359526       60.03879
2014    24      0       0.3088031       74.66332
2014    24      1       0.5259332       113.0339
2014    24      2       0.4169782       95.02618
2014    24      3       0.2060384       53.81393
2014    24      4       0.1747126       46.97237
2014    24      5       0.1689752       45.67198
2014    24      6       0.2311125       59.07757
2014    24      7       0.3142345       75.90152
2014    25      0       0.337444        80.34473
2014    25      1       0.4656738       103.2978
2014    25      2       0.8552527       156.4081
2014    25      3       0.7890233       148.3405
2014    25      4       0.3290388       78.59094
2014    25      5       0.3543906       83.40068
2014    25      6       0.3415438       80.55833
2014    25      7       0.173931        46.1008
2014    26      0       0.1603645       43.00626
2014    26      1       0.1994995       51.54078
2014    26      2       0.2416473       60.45234
2014    26      3       0.3489795       81.83485
2014    26      4       0.4373435       97.941
2014    26      5       0.4769518       104.7717
2014    26      6       0.5627971       118.2467
2014    26      7       0.6302484       128.0868
2014    27      0       0.6243856       127.4626
2014    27      1       0.6387508       129.5578
2014    27      2       0.6998666       138.0453
2014    27      3       0.7152866       140.0386
2014    27      4       0.6576187       131.7673
2014    27      5       0.8504598       156.3858
2014    27      6       1.16629         186.871
2014    27      7       1.442209        208.2125
2014    28      0       0.9959823       172.8504
2014    28      1       1.073431        180.6538
2014    28      2       0.9583334       169.1624
2014    28      3       1.104954        182.9361
2014    28      4       0.9830679       171.3819
2014    28      5       0.8852473       160.7269
2014    28      6       0.6512931       131.706
2014    28      7       0.583992        121.9073
2014    29      0       0.5746707       120.491
2014    29      1       0.5641603       119.0336
2014    29      2       0.5915915       122.7881
2014    29      3       0.5360006       114.4029
2014    29      4       0.5190746       111.7534
2014    29      5       0.5335254       113.8285
2014    29      6       0.5429864       114.926
2014    29      7       0.5415638       114.4389
2014    30      0       0.5850096       120.8854
2014    30      1       0.6316968       127.4004
2014    30      2       0.5733636       119.5199
2014    30      3       0.5571562       117.4931
2014    30      4       0.5277428       112.8291
2014    30      5       0.47194         103.9034
2014    30      6       0.4633685       103.4376
2014    30      7       0.3566652       85.39451
2015    1       0       0.5541655       118.7687
2015    1       1       0.6453153       131.7516
2015    1       2       0.6878266       137.323
2015    1       3       0.8011957       151.0114
2015    1       4       0.9859663       170.4851
2015    1       5       0.9241038       164.2719
2015    1       6       0.8242452       153.5157
2015    1       7       0.775071        147.9933
2015    2       0       0.7499971       145.0971
2015    2       1       0.7470564       144.7212
2015    2       2       0.7236069       141.6721
2015    2       3       0.6815944       136.1421
2015    2       4       0.590327        123.1678
2015    2       5       0.3959183       91.86261
2015    2       6       0.2000109       53.44616
2015    2       7       0.1019819       30.83569
2015    3       0       0.09708997      29.15392
2015    3       1       0.1361399       37.99617
2015    3       2       0.1754922       46.81769
2015    3       3       0.2050961       53.29011
2015    3       4       0.2318826       58.96461
2015    3       5       0.2735268       67.55797
2015    3       6       0.305696        74.23566
2015    3       7       0.3167613       76.5726
2015    4       0       0.2971597       73.01423
2015    4       1       0.2738404       68.36787
2015    4       2       0.2465365       62.87305
2015    4       3       0.2223308       57.89359
2015    4       4       0.2165089       56.61357
2015    4       5       0.225703        58.58125
2015    4       6       0.2311884       59.75922
2015    4       7       0.2260748       58.76259
2015    5       0       0.2306076       59.711
2015    5       1       0.2418779       62.01137
2015    5       2       0.2280685       59.04918
2015    5       3       0.2106996       55.31953
2015    5       4       0.2010296       53.25791
2015    5       5       0.1863071       50.07883
2015    5       6       0.1627856       44.73034
2015    5       7       0.1512577       41.97515
2015    6       0       0.1478992       41.20288
2015    6       1       0.1513812       42.09051
2015    6       2       0.1780486       48.25855
2015    6       3       0.2075692       54.90093
2015    6       4       0.2063898       54.69237
2015    6       5       0.2037544       54.16444
2015    6       6       0.212648        56.13532
2015    6       7       0.2116929       55.91531
2015    7       0       0.2189237       57.46942
2015    7       1       0.2199174       57.65377
2015    7       2       0.2131415       56.26251
2015    7       3       0.2182277       57.45055
2015    7       4       0.2229228       58.51034
2015    7       5       0.2137631       56.5477
2015    7       6       0.1863555       50.53203
2015    7       7       0.1749332       48.02993
2015    8       0       0.1821397       49.63294
2015    8       1       0.1843662       50.07714
2015    8       2       0.1668028       46.00171
2015    8       3       0.1374267       39.18768
2015    8       4       0.1324668       38.07814
2015    8       5       0.1599642       43.9708
2015    8       6       0.1764916       47.92011
2015    8       7       0.19834         52.65579
2015    9       0       0.3018465       74.20161
2015    9       1       0.2065812       54.77811
2015    9       2       0.1270523       36.82856
2015    9       3       0.1454568       41.07143
2015    9       4       0.1751886       47.63763
2015    9       5       0.1446693       39.98072
2015    9       6       0.1192777       34.41111
2015    9       7       0.1003595       29.96094
2015    10      0       0.1069685       31.38371
2015    10      1       0.1575125       43.31464
2015    10      2       0.3281455       79.93144
2015    10      3       0.2992771       74.16448
2015    10      4       0.3926526       92.02451
2015    10      5       0.3827426       90.21624
2015    10      6       0.3443231       82.35625
2015    10      7       0.4518629       101.5778
2015    11      0       0.6528074       133.3569
2015    11      1       0.6781765       137.5131
2015    11      2       0.5488788       119.1284
2015    11      3       0.5056545       112.4656
2015    11      4       0.5293284       116.6442
2015    11      5       0.509488        113.5897
2015    11      6       0.4177349       97.62135
2015    11      7       0.3642131       87.4528
2015    12      0       0.3967273       93.32541
2015    12      1       0.4487095       102.3948
2015    12      2       0.4752336       106.5878
2015    12      3       0.4985648       110.3083
2015    12      4       0.5552463       119.315
2015    12      5       0.5744031       122.0324
2015    12      6       0.4953486       109.4848
2015    12      7       0.3961597       92.55045
2015    13      0       0.3451987       83.31539
2015    13      1       0.329093        80.29867
2015    13      2       0.2908765       72.75817
2015    13      3       0.2860277       71.81402
2015    13      4       0.306855        76.0638
2015    13      5       0.3149753       77.66485
2015    13      6       0.3005579       74.78456
2015    13      7       0.2761098       69.85346
2015    14      0       0.2866238       71.76196
2015    14      1       0.3055148       75.31674
2015    14      2       0.319022        77.78485
2015    14      3       0.3319595       80.05512
2015    14      4       0.3683978       86.58989
2015    14      5       0.4162253       95.02962
2015    14      6       0.5507049       115.6995
2015    14      7       0.5814377       120.9042
2015    15      0       0.4923437       107.7136
2015    15      1       0.5009952       108.8777
2015    15      2       0.533146        113.2175
2015    15      3       0.6156563       127.1914
2015    15      4       0.4050412       92.99658
2015    15      5       0.429091        96.92708
2015    15      6       0.4272093       96.54772
2015    15      7       0.4042078       92.41477
2015    16      0       0.3746872       87.08807
2015    16      1       0.3515134       82.77225
2015    16      2       0.3270315       78.09394
2015    16      3       0.3080262       74.57538
2015    16      4       0.2925153       71.30932
2015    16      5       0.4873062       105.6623
2015    16      6       0.5607614       118.3707
2015    16      7       0.4379628       99.40004
2015    17      0       0.4516172       102.0243
2015    17      1       0.4563359       103.1651
2015    17      2       0.3552095       85.26751
2015    17      3       0.2813147       70.84069
2015    17      4       0.2764599       69.87548
2015    17      5       0.2145611       56.73268
2015    17      6       0.1693953       46.62842
2015    17      7       0.1533918       42.96482
2015    18      0       0.1949126       52.40346
2015    18      1       0.2424792       62.77286
2015    18      2       0.2410709       62.41565
2015    18      3       0.2377338       61.60565
2015    18      4       0.2259319       59.24179
2015    18      5       0.2314155       60.43746
2015    18      6       0.2269357       59.29204
2015    18      7       0.216983        56.93845
2015    19      0       0.2232036       58.26246
2015    19      1       0.2097383       55.33373
2015    19      2       0.1901986       50.8197
2015    19      3       0.1846302       49.47015
2015    19      4       0.2155525       56.25545
2015    19      5       0.2654209       66.77634
2015    19      6       0.2884196       71.51214
2015    19      7       0.273869        68.63821
2015    20      0       0.2777122       69.32319
2015    20      1       0.2821616       70.11803
2015    20      2       0.2598668       65.49918
2015    20      3       0.2457811       62.27091
2015    20      4       0.2882927       70.17687
2015    20      5       0.3026916       72.50587
2015    20      6       0.2680088       66.13687
2015    20      7       0.2815362       69.15021
2015    21      0       0.3070925       74.35044
2015    21      1       0.3058281       74.45532
2015    21      2       0.2833416       70.18185
2015    21      3       0.2772067       69.17436
2015    21      4       0.3503284       83.82612
2015    21      5       0.4625271       104.0964
2015    21      6       0.4788163       107.2384
2015    21      7       0.4957097       110.166
2015    22      0       0.4977136       110.4476
2015    22      1       0.5297964       115.6597
2015    22      2       0.5025908       111.2211
2015    22      3       0.5814943       123.8009
2015    22      4       0.4644819       105.041
2015    22      5       0.440319        100.9536
2015    22      6       0.3610036       86.75958
2015    22      7       0.4050075       94.98913
2015    23      0       0.6985439       140.9577
2015    23      1       0.7811386       151.6445
2015    23      2       0.5125527       113.3863
2015    23      3       0.5318113       116.6248
2015    23      4       0.2969279       74.32282
2015    23      5       0.1756492       48.26689
2015    23      6       0.1240448       36.09036
2015    23      7       0.09835018      29.85333
2015    24      0       0.09495212      29.00998
2015    24      1       0.09908221      30.02697
2015    24      2       0.08850063      27.20451
2015    24      3       0.1197853       33.80065
2015    24      4       0.1654028       43.83469
2015    24      5       0.1680641       44.87775
2015    24      6       0.2588106       63.11557
2015    24      7       0.3250262       75.88941
2015    25      0       0.340981        78.95315
2015    25      1       0.4420242       96.90126
2015    25      2       0.4568349       99.8651
2015    25      3       0.4537543       99.36209
2015    25      4       0.3434078       82.20264
2015    25      5       0.2749          69.50885
2015    25      6       0.3191807       78.17371
2015    25      7       0.778429        149.3441
2015    26      0       0.3308916       80.17405
2015    26      1       0.6679081       135.4833
2015    26      2       0.8371957       156.8125
2015    26      3       0.493415        108.8507
2015    26      4       0.6671852       134.227
2015    26      5       0.8953593       160.666
2015    26      6       1.112707        181.0691
2015    26      7       0.9732019       169.6034
2015    27      0       0.6910952       137.9571
2015    27      1       0.2408358       61.53933
2015    27      2       0.3550911       84.10663
2015    27      3       0.4923155       108.1883
2015    27      4       0.445974        100.5553
2015    27      5       0.595041        124.5056
2015    27      6       0.9542164       169.2367
2015    27      7       0.9640151       170.257
2015    28      0       0.6237743       128.3206
2015    28      1       0.6406628       129.1959
2015    28      2       0.6692585       132.452
2015    28      3       0.3651816       85.53592
2015    28      4       0.6095581       125.5154
2015    28      5       0.5483475       117.0764
2015    28      6       0.341377        81.80284
2015    28      7       0.2579157       65.3974
2015    29      0       0.2501999       63.74301
2015    29      1       0.299252        73.6494
2015    29      2       0.4673013       104.2012
2015    29      3       0.5501458       117.3269
2015    29      4       0.7700629       147.2293
2015    29      5       0.7100621       139.1361
2015    29      6       0.583395        121.2471
2015    29      7       0.7087999       138.3043
2015    30      0       0.5402784       114.7098
2015    30      1       0.9580515       168.2453
2015    30      2       0.3156854       76.32691
2015    30      3       0.1479414       40.59661
2015    30      4       0.1801307       47.77847
2015    30      5       0.1952076       50.83791
2015    30      6       0.1671886       44.89173
2015    30      7       0.1893638       50.07031
2016    1       0       0.3738704       87.28989
2016    1       1       0.3629061       85.75753
2016    1       2       0.2829121       70.38185
2016    1       3       0.2125299       55.79642
2016    1       4       0.1591275       44.03836
2016    1       5       0.1150118       33.70229
2016    1       6       0.09348457      28.30196
2016    1       7       0.2091259       55.5472
2016    2       0       0.226888        59.52847
2016    2       1       0.1809521       49.36483
2016    2       2       0.1534811       42.98948
2016    2       3       0.1509052       42.32334
2016    2       4       0.1612057       44.71112
2016    2       5       0.1819154       49.4772
2016    2       6       0.1853767       50.43411
2016    2       7       0.191469        51.79255
2016    3       0       0.1986995       53.12719
2016    3       1       0.2009147       53.53926
2016    3       2       0.2118373       55.92407
2016    3       3       0.2146615       56.58008
2016    3       4       0.2098316       55.53759
2016    3       5       0.1814956       49.21828
2016    3       6       0.1252133       36.24296
2016    3       7       0.1334126       37.77208
2016    4       0       0.2328595       59.76333
2016    4       1       0.4334522       98.09007
2016    4       2       0.5220232       112.9523
2016    4       3       0.5820632       122.1576
2016    4       4       0.8091614       151.7026
2016    4       5       0.8955797       160.9735
2016    4       6       0.7674151       146.6159
2016    4       7       0.69973         138.6325
2016    5       0       0.6498215       132.4152
2016    5       1       0.6009988       125.8046
2016    5       2       0.543152        117.4912
2016    5       3       0.5403907       117.289
2016    5       4       0.6695898       136.8194
2016    5       5       0.5788359       123.625
2016    5       6       0.3232824       79.5044
2016    5       7       0.1954079       52.66261
2016    6       0       0.1905624       51.3644
2016    6       1       0.1902571       50.84514
2016    6       2       0.1933773       50.95964
2016    6       3       0.1996344       52.28515
2016    6       4       0.1676217       45.11126
2016    6       5       0.2969752       71.04393
2016    6       6       0.3722407       84.7515
2016    6       7       0.2299685       58.38584
2016    7       0       0.418807        92.87385
2016    7       1       0.4154325       93.55365
2016    7       2       0.4693262       103.1211
2016    7       3       0.3963797       91.03584
2016    7       4       0.495467        108.1067
2016    7       5       0.6468828       131.8287
2016    7       6       0.6782584       136.1889
2016    7       7       0.6970114       138.749
2016    8       0       0.6375814       130.9378
2016    8       1       0.6870516       137.9592
2016    8       2       0.6692448       136.1189
2016    8       3       0.5493393       118.8861
2016    8       4       0.4910293       109.8116
2016    8       5       0.4635133       105.6286
2016    8       6       0.4783408       107.7357
2016    8       7       0.5152581       112.9564
2016    9       0       0.4986301       110.3454
2016    9       1       0.4545207       103.1217
2016    9       2       0.5207483       114.1435
2016    9       3       0.4635795       104.3764
2016    9       4       0.3302053       80.34036
2016    9       5       0.7693906       149.0818
2016    9       6       0.5862896       123.6244
2016    9       7       0.156994        43.72504
2016    10      0       0.2163642       57.61375
2016    10      1       0.3144561       77.89788
2016    10      2       0.3634945       86.25301
2016    10      3       0.3917703       92.17373
2016    10      4       0.2456031       63.45611
2016    10      5       0.3538499       85.19253
2016    10      6       0.4194937       96.96586
2016    10      7       0.454771        103.0772
2016    11      0       0.6170372       128.8155
2016    11      1       0.5252546       114.5699
2016    11      2       0.4504165       101.9669
2016    11      3       0.448575        101.7292
2016    11      4       0.4642828       104.4307
2016    11      5       0.4416361       100.7252
2016    11      6       0.4379837       100.1083
2016    11      7       0.5002985       110.5282
2016    12      0       0.5531904       118.9633
2016    12      1       0.7072879       140.7538
2016    12      2       0.7887134       151.2669
2016    12      3       0.6431404       132.3732
2016    12      4       0.5810979       123.4369
2016    12      5       0.5936507       125.6047
2016    12      6       0.4435467       101.31
2016    12      7       0.4532811       102.7664
2016    13      0       0.5132743       112.5759
2016    13      1       0.3850186       90.45194
2016    13      2       0.4090143       95.05903
2016    13      3       1.083323        184.0535
2016    13      4       1.154683        190.3119
2016    13      5       0.4412446       100.0951
2016    13      6       0.2464921       62.18996
2016    13      7       0.215413        55.74189
2016    14      0       0.1946483       51.41152
2016    14      1       0.1920267       50.70523
2016    14      2       0.2058147       53.69231
2016    14      3       0.2527504       63.45224
2016    14      4       0.2787764       68.83144
2016    14      5       0.2864188       70.64231
2016    14      6       0.2165405       56.26741
2016    14      7       0.1549367       42.83751
2016    15      0       0.1864441       49.80034
2016    15      1       0.2482879       63.15005
2016    15      2       0.575292        121.6304
2016    15      3       1.188948        191.2201
2016    15      4       0.9513623       169.2943
2016    15      5       0.381618        89.17251
2016    15      6       0.4128721       94.6266
2016    15      7       0.529877        114.2627
2016    16      0       0.6481202       131.6927
2016    16      1       0.9029487       163.318
2016    16      2       1.279027        197.6918
2016    16      3       1.201076        192.0495
2016    16      4       0.7174286       142.0564
2016    16      5       0.5610077       120.033
2016    16      6       0.3504088       83.96958
2016    16      7       0.3383586       81.60335
2016    17      0       0.2203745       57.70875
2016    17      1       0.2344963       60.73494
2016    17      2       0.2584928       65.82965
2016    17      3       0.1604934       44.32629
2016    17      4       0.16622         45.35069
2016    17      5       0.2511092       63.8727
2016    17      6       0.3711275       87.57916
2016    17      7       0.3735148       88.14085
2016    18      0       0.3422008       82.32893
2016    18      1       0.2987431       73.84395
2016    18      2       0.2836622       70.65118
2016    18      3       0.3090319       75.1341
2016    18      4       0.2985692       73.04508
2016    18      5       0.3112722       75.30991
2016    18      6       0.3352729       79.72101
2016    18      7       0.3579776       84.09359
2016    19      0       0.3812286       88.54419
2016    19      1       0.4299474       97.05695
2016    19      2       0.462601        102.696
2016    19      3       0.490244        107.4775
2016    19      4       0.5075229       110.7114
2016    19      5       0.7068327       140.6701
2016    19      6       0.4265257       97.34509
2016    19      7       0.3556232       84.55845
2016    20      0       0.3096732       75.54022
2016    20      1       0.3160252       76.6612
2016    20      2       0.3320501       79.74703
2016    20      3       0.3398822       81.10788
2016    20      4       0.3330968       79.43184
2016    20      5       0.3227253       77.21812
2016    20      6       0.2865886       70.0622
2016    20      7       0.2378841       60.27173
2016    21      0       0.2374033       60.05525
2016    21      1       0.24247         61.02463
2016    21      2       0.3063151       74.61717
2016    21      3       0.3459694       82.8879
2016    21      4       0.3396953       81.79978
2016    21      5       0.317393        77.5892
2016    21      6       0.3502539       83.85505
2016    21      7       0.391284        91.24516
2016    22      0       0.4134609       94.84192
2016    22      1       0.4422631       99.17369
2016    22      2       0.4482711       100.0806
2016    22      3       0.4755967       104.6864
2016    22      4       0.5334499       114.2943
2016    22      5       0.5292055       113.6411
2016    22      6       0.5307547       113.7053
2016    22      7       0.5579297       117.9028
2016    23      0       0.5170891       111.8386
2016    23      1       0.4683873       103.8392
2016    23      2       0.4361883       98.12081
2016    23      3       0.4172529       94.52302
2016    23      4       0.3701745       85.87355
2016    23      5       0.340318        79.82057
2016    23      6       0.3452289       80.4045
2016    23      7       0.3050615       73.74129
2016    24      0       0.2757607       68.16863
2016    24      1       0.2598095       65.11998
2016    24      2       0.255882        64.49352
2016    24      3       0.2505758       63.60868
2016    24      4       0.2519953       64.07094
2016    24      5       0.2591576       65.47058
2016    24      6       0.2329676       59.94654
2016    24      7       0.1997269       52.77209
2016    25      0       0.1925789       51.11709
2016    25      1       0.2031531       53.40272
2016    25      2       0.2360595       60.40911
2016    25      3       0.2712344       67.61461
2016    25      4       0.2911004       71.36682
2016    25      5       0.3161774       75.87475
2016    25      6       0.3318301       78.71954
2016    25      7       0.3353897       79.36877
2016    26      0       0.3221422       77.0813
2016    26      1       0.3034907       73.73848
2016    26      2       0.3138886       75.80716
2016    26      3       0.3230154       77.58324
2016    26      4       0.3327266       79.24289
2016    26      5       0.3320153       78.89705
2016    26      6       0.2963859       71.72673
2016    26      7       0.2855516       69.22926
2016    27      0       0.4080991       91.3288
2016    27      1       0.4826025       104.6306
2016    27      2       0.4528937       100.1978
2016    27      3       0.4128518       93.84027
2016    27      4       0.4605653       102.0531
2016    27      5       0.4878778       106.6458
2016    27      6       0.6049566       125.2082
2016    27      7       0.6313504       129.0675
2016    28      0       0.5731887       120.8094
2016    28      1       0.6823906       136.2398
2016    28      2       0.5246504       113.6039
2016    28      3       0.7451364       142.0742
2016    28      4       0.6299872       129.8002
2016    28      5       0.5674513       120.7336
2016    28      6       0.57248         121.3645
2016    28      7       0.6490896       131.5114
2016    29      0       0.840076        154.7846
2016    29      1       0.6798418       134.9887
2016    29      2       0.5280344       113.593
2016    29      3       0.5366841       115.0092
2016    29      4       0.595511        123.6712
2016    29      5       0.6112557       125.5137
2016    29      6       0.8281936       153.3465
2016    29      7       1.15608         184.2228
2016    30      0       1.297837        195.8037
2016    30      1       0.9188874       162.0902
2016    30      2       1.10347         181.7394
2016    30      3       0.9626662       167.8776
2016    30      4       1.051851        175.5808
2016    30      5       0.9600331       165.7307
2016    30      6       0.9561951       165.2015
2016    30      7       0.6842221       132.7369
2017    1       0       0.4597161       103.2997
2017    1       1       0.4515735       101.7008
2017    1       2       0.4945063       108.5317
2017    1       3       0.5444685       116.0551
2017    1       4       0.5438916       116.0159
2017    1       5       0.5517449       117.2213
2017    1       6       0.6103087       125.9858
2017    1       7       0.6026379       124.5828
2017    2       0       0.6565277       131.8698
2017    2       1       0.6894781       136.0995
2017    2       2       0.6193776       126.7449
2017    2       3       0.5517615       117.1779
2017    2       4       0.4803924       106.0732
2017    2       5       0.3330187       80.13689
2017    2       6       0.1989214       52.91623
2017    2       7       0.1763238       48.01047
2017    3       0       0.1833818       49.59116
2017    3       1       0.1790886       48.6259
2017    3       2       0.1655542       45.47221
2017    3       3       0.164882        45.02543
2017    3       4       0.2097535       54.38913
2017    3       5       0.2211652       56.97307
2017    3       6       0.2026134       52.82622
2017    3       7       0.2544508       63.63846
2017    4       0       0.5164372       112.2743
2017    4       1       0.8125131       153.7058
2017    4       2       0.9770065       170.7446
2017    4       3       1.246809        194.4266
2017    4       4       0.6726604       135.2806
2017    4       5       0.5187952       112.8672
2017    4       6       1.167816        188.24
2017    4       7       0.6895021       137.1934
2017    5       0       0.3133945       76.41014
2017    5       1       0.2784226       69.66555
2017    5       2       0.2199824       57.56819
2017    5       3       0.4736701       105.7636
2017    5       4       0.4973293       109.6882
2017    5       5       0.2810385       70.28026
2017    5       6       0.2116944       55.70885
2017    5       7       0.2233802       58.17248
2017    6       0       0.2154451       56.37121
2017    6       1       0.1882858       50.45153
2017    6       2       0.1618094       44.49302
2017    6       3       0.1663786       45.47085
2017    6       4       0.1845698       49.384
2017    6       5       0.2222845       57.61955
2017    6       6       0.2349587       60.00998
2017    6       7       0.2486529       62.74835
2017    7       0       0.3282057       78.61499
2017    7       1       0.4156689       94.39644
2017    7       2       0.4426115       99.41513
2017    7       3       0.4434346       99.9743
2017    7       4       0.4290175       97.8122
2017    7       5       0.4049811       93.58284
2017    7       6       0.370726        87.3762
2017    7       7       0.3314614       80.167
2017    8       0       0.3112734       76.34316
2017    8       1       0.2983905       73.79879
2017    8       2       0.2727348       68.76331
2017    8       3       0.3289412       79.06987
2017    8       4       0.3364464       80.61993
2017    8       5       0.3655846       86.02988
2017    8       6       0.3407299       81.57702
2017    8       7       0.2996894       74.00678
2017    9       0       0.2719896       68.62983
2017    9       1       0.2290986       59.7093
2017    9       2       0.1439229       40.60547
2017    9       3       0.1196308       34.71389
2017    9       4       0.1829222       49.3624
2017    9       5       0.3622921       86.02375
2017    9       6       0.7661244       147.8116
2017    9       7       0.8361945       156.1337
2017    10      0       0.5400084       115.9508
2017    10      1       0.3321401       80.00994
2017    10      2       0.5381374       115.9181
2017    10      3       0.5701024       120.6964
2017    10      4       0.4490563       101.1134
2017    10      5       0.3182644       76.80833
2017    10      6       0.2731595       67.19216
2017    10      7       0.2043558       52.86515
2017    11      0       0.2628861       66.04343
2017    11      1       0.3717786       87.3847
2017    11      2       0.4502684       101.1832
2017    11      3       0.5239906       113.3427
2017    11      4       0.5085444       110.7581
2017    11      5       0.5043076       110.1291
2017    11      6       0.4712412       104.5686
2017    11      7       0.4639004       103.1717
2017    12      0       0.389679        90.45675
2017    12      1       0.3198534       77.37802
2017    12      2       0.3068774       74.81903
2017    12      3       0.4424743       97.98384
2017    12      4       0.4613573       101.9231
2017    12      5       0.4329978       97.21286
2017    12      6       0.4279851       96.09786
2017    12      7       0.2751896       67.45049
2017    13      0       0.1919667       50.58025
2017    13      1       0.3495707       83.28335
2017    13      2       1.024917        175.954
2017    13      3       0.522384        110.6557
2017    13      4       0.8885139       155.8364
2017    13      5       0.7287228       141.8473
2017    13      6       0.3149907       77.41734
2017    13      7       0.2116668       56.02106
2017    14      0       0.285848        71.02891
2017    14      1       0.3139304       76.5438
2017    14      2       0.3767826       88.71882
2017    14      3       0.4339451       99.29223
2017    14      4       0.6072453       127.5247
2017    14      5       0.5010837       110.8554
2017    14      6       0.4233458       97.66057
2017    14      7       0.2996922       73.91882
2017    15      0       0.4201867       96.80488
2017    15      1       0.490629        109.0068
2017    15      2       0.7950639       152.4929
2017    15      3       0.9747892       172.9877
2017    15      4       0.2989735       74.20868
2017    15      5       0.3331143       80.58034
2017    15      6       0.395528        91.74252
2017    15      7       0.3904589       90.52806
2017    16      0       0.3841338       89.68183
2017    16      1       0.399357        92.40695
2017    16      2       0.3844176       89.46897
2017    16      3       0.3865285       89.3484
2017    16      4       0.3711971       86.16536
2017    16      5       0.3617478       84.30257
2017    16      6       0.3380949       80.51709
2017    16      7       0.3250531       78.47734
2017    17      0       0.3088395       75.8397
2017    17      1       0.264966        66.88837
2017    17      2       0.2490968       63.34185
2017    17      3       0.2683737       66.92719
2017    17      4       0.1889509       50.3531
2017    17      5       0.1957638       51.83485
2017    17      6       0.2808903       69.67078
2017    17      7       0.3305494       79.45816
2017    18      0       0.4106054       94.11039
2017    18      1       0.5845146       121.5661
2017    18      2       0.6125432       125.0561
2017    18      3       0.6748617       133.856
2017    18      4       0.6410185       128.8494
2017    18      5       0.8021821       149.6702
2017    18      6       0.9514024       166.0608
2017    18      7       0.6601799       131.6442
2017    19      0       0.9144065       164.3652
2017    19      1       0.7226233       142.0066
2017    19      2       0.4364611       98.83075
2017    19      3       0.4276028       96.87608
2017    19      4       0.6137247       126.146
2017    19      5       0.5002768       108.7259
2017    19      6       0.3816719       88.74931
2017    19      7       0.3966245       91.00909
2017    20      0       0.4067814       92.85206
2017    20      1       0.4327066       97.84566
2017    20      2       0.2321375       59.85642
2017    20      3       0.6275325       129.3283
2017    20      4       0.4501999       101.3343
2017    20      5       0.625701        128.5151
2017    20      6       0.3860464       89.69579
2017    20      7       0.5121773       111.8718
2017    21      0       0.08603482      26.02556
2017    21      1       0.1234737       34.54812
2017    21      2       0.1707305       45.03072
2017    21      3       0.1817839       47.76207
2017    21      4       0.1761998       46.74078
2017    21      5       0.2041453       52.80701
2017    21      6       0.2352919       59.40038
2017    21      7       0.2489755       62.33485
2017    22      0       0.2499659       62.73936
2017    22      1       0.246174        62.12114
2017    22      2       0.2335565       59.60694
2017    22      3       0.2288966       58.765
2017    22      4       0.256385        64.42783
2017    22      5       0.2606851       65.27838
2017    22      6       0.2657296       66.17317
2017    22      7       0.267321        66.37763
2017    23      0       0.2636304       65.6041
2017    23      1       0.2558231       64.26695
2017    23      2       0.2341937       60.10416
2017    23      3       0.2065541       54.40436
2017    23      4       0.2177638       56.90216
2017    23      5       0.2349908       60.63707
2017    23      6       0.2086373       54.97176
2017    23      7       0.1778423       48.12236
2017    24      0       0.1515256       42.01357
2017    24      1       0.1544501       42.5654
2017    24      2       0.1719365       46.34511
2017    24      3       0.2200565       56.8429
2017    24      4       0.2019993       52.63274
2017    24      5       0.2181086       55.69635
2017    24      6       0.2439283       60.44637
2017    24      7       0.2243383       56.72208
2017    25      0       0.2551422       62.97513
2017    25      1       0.280415        68.20455
2017    25      2       0.323248        76.58946
2017    25      3       0.620188        126.6422
2017    25      4       0.7992894       150.4139
2017    25      5       0.6021289       124.1762
2017    25      6       0.4792705       105.0317
2017    25      7       0.416137        94.04346
2017    26      0       0.3121648       74.6481
2017    26      1       0.2468838       61.62961
2017    26      2       0.2246536       57.04002
2017    26      3       0.2248938       57.28691
2017    26      4       0.3651032       86.02318
2017    26      5       0.5654159       119.6864
2017    26      6       0.4213776       95.41955
2017    26      7       0.4561433       100.6779
2017    27      0       0.5169155       110.1545
2017    27      1       0.8559073       154.6607
2017    27      2       0.9488045       165.9709
2017    27      3       1.421326        206.278
2017    27      4       1.009533        172.6417
2017    27      5       0.5362873       114.4629
2017    27      6       0.2947398       71.66348
2017    27      7       0.6975295       137.1742
2017    28      0       0.8960796       160.7721
2017    28      1       0.3955188       90.81834
2017    28      2       0.5511983       116.1004
2017    28      3       0.5839036       120.5456
2017    28      4       0.6482804       130.1264
2017    28      5       0.4056544       92.49324
2017    28      6       0.2893659       71.15204
2017    28      7       0.0911604       27.42555
2017    29      0       0.08231862      25.21376
2017    29      1       0.0986682       29.03796
2017    29      2       0.1311795       36.8848
2017    29      3       0.1068947       31.11359
2017    29      4       0.1143329       32.9415
2017    29      5       0.1117199       32.21761
2017    29      6       0.1552731       42.36775
2017    29      7       0.4411919       99.49591
2017    30      0       0.4170351       94.55818
2017    30      1       0.604171        124.657
2017    30      2       0.5244615       112.653
2017    30      3       1.561385        216.6617
2017    30      4       1.056286        179.3687
2017    30      5       0.3959257       91.469
2017    30      6       0.394797        91.04282
2017    30      7       0.4827113       104.9705
2018    1       0       0.7756537       151.2886
2018    1       1       0.6967389       141.7367
2018    1       2       0.5612094       122.041
2018    1       3       0.4812408       109.1538
2018    1       4       0.5374129       118.6112
2018    1       5       0.588256        126.6883
2018    1       6       0.5266511       117.1852
2018    1       7       0.4093722       97.12302
2018    2       0       0.3032526       76.51043
2018    2       1       0.3186578       79.27957
2018    2       2       0.3587554       87.08467
2018    2       3       0.3337376       82.32912
2018    2       4       0.3294174       81.52623
2018    2       5       0.3130827       78.26986
2018    2       6       0.2883793       73.199
2018    2       7       0.2786601       71.12654
2018    3       0       0.2470723       64.33526
2018    3       1       0.2409036       62.60417
2018    3       2       0.2469724       63.83328
2018    3       3       0.2439354       63.19481
2018    3       4       0.2346822       61.14531
2018    3       5       0.2354878       61.31442
2018    3       6       0.2493857       64.3985
2018    3       7       0.2599104       66.62241
2018    4       0       0.2654744       67.75106
2018    4       1       0.2521077       64.99694
2018    4       2       0.2130563       56.80978
2018    4       3       0.2036723       54.65346
2018    4       4       0.2063662       55.00424
2018    4       5       0.1562878       43.60193
2018    4       6       0.1029673       30.77498
2018    4       7       0.09589105      29.06043
2018    5       0       0.08750549      26.95481
2018    5       1       0.09523653      28.69322
2018    5       2       0.1106657       32.43583
2018    5       3       0.1118811       32.67172
2018    5       4       0.1218466       34.65473
2018    5       5       0.1387004       38.57605
2018    5       6       0.1778657       47.91417
2018    5       7       0.2255141       58.77295
2018    6       0       0.2243677       58.51021
2018    6       1       0.2087265       54.9737
2018    6       2       0.2137105       56.01102
2018    6       3       0.2302708       59.53485
2018    6       4       0.2369863       60.95438
2018    6       5       0.2400895       61.70618
2018    6       6       0.249926        63.98116
2018    6       7       0.2545235       65.16344
2018    7       0       0.2394939       62.1034
2018    7       1       0.2239349       58.76124
2018    7       2       0.202243        54.03312
2018    7       3       0.1841498       49.97235
2018    7       4       0.1855433       50.18771
2018    7       5       0.1975014       52.73301
2018    7       6       0.2081143       54.67087
2018    7       7       0.2279081       58.66658
2018    8       0       0.2360035       60.85702
2018    8       1       0.262442        66.28801
2018    8       2       0.3095091       75.69495
2018    8       3       0.4684731       104.5119
2018    8       4       0.7320455       143.0612
2018    8       5       1.10565         182.4873
2018    8       6       1.312446        199.2067
2018    8       7       0.8895444       159.6704
2018    9       0       0.7252079       141.6986
2018    9       1       0.7100571       139.1487
2018    9       2       0.9458369       165.726
2018    9       3       0.9186938       164.4135
2018    9       4       0.7457956       145.192
2018    9       5       0.6733831       135.7729
2018    9       6       0.5480516       117.6675
2018    9       7       0.5603015       119.7768
2018    10      0       0.5595046       119.6039
2018    10      1       0.5223855       113.9253
2018    10      2       0.4853257       107.8935
2018    10      3       0.5262486       114.4376
2018    10      4       0.5778723       122.1088
2018    10      5       0.7605541       147.2134
2018    10      6       0.5837291       123.1725
2018    10      7       0.5601994       119.3872
2018    11      0       0.5460916       117.0625
2018    11      1       0.5094865       111.1521
2018    11      2       0.5255705       113.5762
2018    11      3       0.577044        121.1493
2018    11      4       0.6180289       127.0731
2018    11      5       0.6264231       128.5462
2018    11      6       0.5957642       124.1278
2018    11      7       0.5471039       116.9213
2018    12      0       0.5230586       113.1451
2018    12      1       0.5519563       117.6106
2018    12      2       0.567517        120.2265
2018    12      3       0.8538469       158.4965
2018    12      4       1.044293        178.626
2018    12      5       0.9680807       171.2345
2018    12      6       0.3571251       85.10036
2018    12      7       0.1124816       33.04486
2018    13      0       0.09165222      27.98029
2018    13      1       0.09974554      29.79924
2018    13      2       0.1198088       34.55118
2018    13      3       0.1170226       33.94975
2018    13      4       0.1107768       32.45999
2018    13      5       0.09817367      29.46775
2018    13      6       0.1031966       30.71814
2018    13      7       0.101353        30.29014
2018    14      0       0.1336086       38.0953
2018    14      1       0.09421299      28.66695
2018    14      2       0.09012277      27.62837
2018    14      3       0.1084144       32.04098
2018    14      4       0.1168747       33.81618
2018    14      5       0.2168198       56.16636
2018    14      6       0.2613438       65.9387
2018    14      7       0.2368896       61.20802
2018    15      0       0.1782918       48.50475
2018    15      1       0.2180807       57.28719
2018    15      2       0.2853543       71.6201
2018    15      3       0.2088458       55.29155
2018    15      4       0.1456036       40.69579
2018    15      5       0.4008306       92.64597
2018    15      6       0.7494734       144.883
2018    15      7       0.5818677       121.3397
2018    16      0       0.2803498       68.5716
2018    16      1       0.3681865       85.66104
2018    16      2       0.4230516       94.88349
2018    16      3       0.4776465       103.7729
2018    16      4       0.585192        120.9128
2018    16      5       0.9701229       168.0875
2018    16      6       1.162412        186.6638
2018    16      7       1.26674         194.6039
2018    17      0       1.87148         229.1851
2018    17      1       1.472915        208.2429
2018    17      2       0.7214333       140.6432
2018    17      3       1.001811        173.1079
2018    17      4       0.9418927       166.8706
2018    17      5       0.6622896       132.9651
2018    17      6       0.6206799       127.585
2018    17      7       0.8465162       157.0154
2018    18      0       0.6468409       131.2204
2018    18      1       0.9592777       167.1954
2018    18      2       1.065323        177.5631
2018    18      3       0.8084731       150.4771
2018    18      4       0.6137648       124.1343
2018    18      5       0.5512206       116.0609
2018    18      6       0.5217118       111.7477
2018    18      7       0.5499225       116.031
2018    19      0       0.7241112       141.1131
2018    19      1       0.7573309       148.0633
2018    19      2       0.4086678       94.80916
2018    19      3       0.2378678       60.14511
2018    19      4       0.347258        81.45632
2018    19      5       0.3198633       77.68349
2018    19      6       0.2830184       70.32007
2018    19      7       0.2988888       73.4542
2018    20      0       0.3265167       78.81666
2018    20      1       0.3272352       78.40681
2018    20      2       0.3410515       81.16072
2018    20      3       0.4103372       93.24013
2018    20      4       0.4394569       98.498
2018    20      5       0.4916105       107.4193
2018    20      6       0.5674446       118.6526
2018    20      7       0.9421584       166.392
2018    21      0       1.204218        191.6716
2018    21      1       1.072722        180.2128
2018    21      2       0.6857742       137.6508
2018    21      3       0.2073333       55.13773
2018    21      4       0.149642        41.85581
2018    21      5       0.2220322       57.92213
2018    21      6       0.2143151       56.40706
2018    21      7       0.1743881       47.23997
2018    22      0       0.1798099       48.42582
2018    22      1       0.2408848       61.798
2018    22      2       0.2480502       63.36196
2018    22      3       0.3745605       88.35709
2018    22      4       0.3432263       82.29583
2018    22      5       0.3867439       89.96314
2018    22      6       0.5044387       109.8967
2018    22      7       0.9750798       170.8394
2018    23      0       0.6553841       132.8
2018    23      1       0.6305363       129.4387
2018    23      2       0.5577577       118.7224
2018    23      3       0.5139136       111.9797
2018    23      4       0.2771666       69.36411
2018    23      5       0.2101435       55.2284
2018    23      6       0.1853709       49.75683
2018    23      7       0.1880417       50.42746
2018    24      0       0.2004661       52.89102
2018    24      1       0.2151833       55.55349
2018    24      2       0.2519072       62.8858
2018    24      3       0.284753        69.51245
2018    24      4       0.2909227       70.89118
2018    24      5       0.2815055       69.55806
2018    24      6       0.2906814       71.74995
2018    24      7       0.3583593       84.81576
2018    25      0       0.3849493       89.4007
2018    25      1       0.5189962       110.4122
2018    25      2       0.4296043       96.74532
2018    25      3       0.3808576       88.20827
2018    25      4       0.4099972       93.68492
2018    25      5       0.4634204       103.353
2018    25      6       0.6579503       133.8402
2018    25      7       0.5514686       118.217
2018    26      0       0.6465767       128.6993
2018    26      1       0.9473646       165.7999
2018    26      2       0.8788946       159.85
2018    26      3       1.208754        192.8009
2018    26      4       0.935031        166.6125
2018    26      5       0.8444799       155.6265
2018    26      6       0.4843718       107.2149
2018    26      7       0.4205295       96.12237
2018    27      0       0.417862        95.39718
2018    27      1       0.3974182       91.68304
2018    27      2       0.4091597       93.37883
2018    27      3       0.6235694       126.2076
2018    27      4       0.4822585       105.521
2018    27      5       0.5928562       122.9616
2018    27      6       1.394025        206.9487
2018    27      7       1.587519        218.8812
2018    28      0       1.345226        202.9816
2018    28      1       1.38141         205.3062
2018    28      2       0.6245645       128.4446
2018    28      3       0.5382552       114.6109
2018    28      4       0.8161082       151.8619
2018    28      5       1.018437        175.192
2018    28      6       0.9503846       168.335
2018    28      7       0.8321126       155.2045
2018    29      0       1.067304        178.6853
2018    29      1       0.9729991       168.2981
2018    29      2       1.137271        182.288
2018    29      3       1.257744        191.1085
2018    29      4       1.29509         193.3683
2018    29      5       1.148475        181.619
2018    29      6       1.123228        180.3716
2018    29      7       1.088608        178.2538
2018    30      0       1.220725        190.1891
2018    30      1       1.131393        184.0133
2018    30      2       0.8407689       154.8889
2018    30      3       0.4721593       103.945
2018    30      4       0.4763323       104.7733
2018    30      5       0.4351424       97.85662
2018    30      6       0.3054424       74.44549
2018    30      7       0.2321191       59.82955
