####################################################################################################
# Month: 09Sep                                                                                     #
# Station: KVNYS                                                                                   #
# Frequency: 230 GHz                                                                               #
# Columns are: year    day     segment         tau     Tb (K)                                      #
####################################################################################################
2009    1       0       1.16858         196.8098
2009    1       1       1.540284        224.341
2009    1       2       1.558981        226.4258
2009    1       3       1.586707        228.283
2009    1       4       1.554848        226.1856
2009    1       5       1.524981        224.1785
2009    1       6       1.52893         224.2963
2009    1       7       1.40382         216.1454
2009    2       0       1.282817        206.8388
2009    2       1       1.638681        230.5566
2009    2       2       1.596449        229.1717
2009    2       3       1.54972         226.7315
2009    2       4       1.61616         230.4897
2009    2       5       1.725697        236.0873
2009    2       6       1.822434        240.4483
2009    2       7       1.923428        244.4936
2009    3       0       1.870978        242.139
2009    3       1       1.818153        240.2804
2009    3       2       1.860898        243.0359
2009    3       3       1.97836         248.234
2009    3       4       2.068043        251.0888
2009    3       5       2.153389        253.4534
2009    3       6       2.128804        252.5529
2009    3       7       2.192044        254.1877
2009    4       0       2.116901        251.6309
2009    4       1       2.139055        252.7752
2009    4       2       2.065648        250.9484
2009    4       3       2.019196        249.0037
2009    4       4       2.152939        252.9919
2009    4       5       2.220866        254.4213
2009    4       6       2.643567        264.6346
2009    4       7       2.589177        263.7549
2009    5       0       2.471461        261.5294
2009    5       1       2.605853        265.5899
2009    5       2       2.760723        269.5223
2009    5       3       2.811011        270.8795
2009    5       4       2.931687        272.6526
2009    5       5       3.081375        274.4885
2009    5       6       3.145006        274.8696
2009    5       7       2.881367        271.1309
2009    6       0       2.817408        270.3455
2009    6       1       2.989931        273.5494
2009    6       2       3.035367        273.9177
2009    6       3       3.173065        275.7848
2009    6       4       3.192161        275.9919
2009    6       5       3.359997        277.7158
2009    6       6       3.366289        277.7236
2009    6       7       3.411151        278.2447
2009    7       0       3.87516         281.7137
2009    7       1       3.691344        281.4983
2009    7       2       3.508197        280.7523
2009    7       3       3.445077        279.129
2009    7       4       2.985603        272.2247
2009    7       5       2.52591         262.6731
2009    7       6       1.98113         245.6994
2009    7       7       2.026097        247.0995
2009    8       0       2.053883        247.812
2009    8       1       2.111797        250.5121
2009    8       2       1.975715        246.4444
2009    8       3       1.901055        243.5851
2009    8       4       1.953984        244.7311
2009    8       5       1.87534         241.4505
2009    8       6       1.767545        236.2241
2009    8       7       1.618614        228.4026
2009    9       0       1.557832        224.8263
2009    9       1       1.503187        222.4459
2009    9       2       1.397889        215.8945
2009    9       3       1.336386        210.9087
2009    9       4       1.250727        203.7984
2009    9       5       1.140891        194.6171
2009    9       6       1.142785        193.8084
2009    9       7       1.108364        189.2334
2009    10      0       1.120628        190.3258
2009    10      1       1.326222        207.4369
2009    10      2       1.482558        218.1219
2009    10      3       1.442405        215.1713
2009    10      4       1.317222        206.0482
2009    10      5       1.23522         200.3293
2009    10      6       1.124002        190.6113
2009    10      7       1.023599        180.9375
2009    11      0       0.9823137       177.1019
2009    11      1       1.018062        180.7749
2009    11      2       1.44415         214.6045
2009    11      3       1.662538        227.4612
2009    11      4       1.907868        239.516
2009    11      5       2.168109        249.1064
2009    11      6       2.222872        250.7698
2009    11      7       2.541765        258.4842
2009    12      0       2.756203        263.0136
2009    12      1       2.173596        248.9993
2009    12      2       1.833255        237.1669
2009    12      3       1.743792        233.6369
2009    12      4       1.669637        229.9811
2009    12      5       1.418839        215.5039
2009    12      6       1.319117        208.2564
2009    12      7       1.304348        206.6296
2009    13      0       1.363591        210.3503
2009    13      1       1.581845        224.8688
2009    13      2       1.633216        228.761
2009    13      3       1.601056        227.1441
2009    13      4       1.616648        227.7456
2009    13      5       1.636523        228.8102
2009    13      6       1.703942        231.9749
2009    13      7       1.839289        237.7273
2009    14      0       1.88346         239.5247
2009    14      1       2.32673         254.5094
2009    14      2       2.481402        257.3812
2009    14      3       2.289391        252.3639
2009    14      4       1.841401        237.3652
2009    14      5       1.696511        230.3175
2009    14      6       1.638115        226.8603
2009    14      7       1.849633        237.4346
2009    15      0       1.95602         242.1619
2009    15      1       2.063223        247.4376
2009    15      2       2.105712        249.7487
2009    15      3       2.044414        247.8013
2009    15      4       1.535679        223.2984
2009    15      5       1.104471        190.7215
2009    15      6       0.8514333       163.8644
2009    15      7       0.7144992       146.2338
2009    16      0       0.7705789       153.5401
2009    16      1       1.069566        186.7667
2009    16      2       1.099472        189.8062
2009    16      3       1.102902        190.5098
2009    16      4       1.071171        187.72
2009    16      5       1.065159        187.4544
2009    16      6       1.135814        193.6878
2009    16      7       1.210373        200.0678
2009    17      0       1.166526        196.204
2009    17      1       1.440895        216.4102
2009    17      2       1.598766        226.3121
2009    17      3       1.637251        228.597
2009    17      4       1.631076        228.1449
2009    17      5       1.63995         228.6177
2009    17      6       1.630224        228.2479
2009    17      7       1.718504        233.0741
2009    18      0       1.197165        199.2035
2009    18      1       1.235435        202.6588
2009    18      2       1.22253         202.2187
2009    18      3       1.152896        196.1614
2009    18      4       1.329099        209.8054
2009    18      5       1.069112        187.221
2009    18      6       1.160732        195.1513
2009    18      7       1.260964        203.3992
2009    19      0       1.340229        209.3331
2009    19      1       1.628876        228.4024
2009    19      2       1.691948        232.6278
2009    19      3       1.685015        232.0395
2009    19      4       1.657221        229.4948
2009    19      5       1.293859        206.0579
2009    19      6       1.180427        196.5389
2009    19      7       1.304083        206.1148
2009    20      0       1.403765        213.074
2009    20      1       1.716721        231.0775
2009    20      2       1.94701         241.3359
2009    20      3       2.031311        244.4529
2009    20      4       2.137612        247.7215
2009    20      5       2.304658        252.6421
2009    20      6       2.513902        258.0776
2009    20      7       2.950769        267.165
2009    21      0       3.204083        271.1173
2009    21      1       3.087444        268.903
2009    21      2       2.435576        257.2791
2009    21      3       1.681473        230.0308
2009    21      4       1.080431        187.0604
2009    21      5       0.9245253       170.9519
2009    21      6       1.010771        179.7701
2009    21      7       0.9679523       175.1609
2009    22      0       0.8814464       165.959
2009    22      1       1.108479        189.6912
2009    22      2       1.06538         186.2031
2009    22      3       1.034799        183.3152
2009    22      4       1.077422        187.7013
2009    22      5       1.104503        190.3927
2009    22      6       1.371084        211.9894
2009    22      7       1.5606          223.9928
2009    23      0       1.426989        215.3126
2009    23      1       1.366939        211.5318
2009    23      2       1.284692        205.8517
2009    23      3       1.266849        204.4673
2009    23      4       1.215144        200.0551
2009    23      5       1.109983        190.5191
2009    23      6       1.023405        181.3783
2009    23      7       1.033747        181.2147
2009    24      0       0.9650562       173.8766
2009    24      1       1.114731        188.6709
2009    24      2       1.29522         204.213
2009    24      3       1.219245        198.944
2009    24      4       1.279536        204.2764
2009    24      5       1.439828        216.2846
2009    24      6       1.585564        224.9994
2009    24      7       1.685338        229.9274
2009    25      0       1.846167        236.9073
2009    25      1       2.117716        247.6465
2009    25      2       2.007572        244.3815
2009    25      3       1.773626        234.702
2009    25      4       1.709885        232.012
2009    25      5       1.728059        233.1333
2009    25      6       1.643888        228.8553
2009    25      7       1.633563        227.868
2009    26      0       1.703095        231.204
2009    26      1       2.033879        246.0012
2009    26      2       2.22247         253.0311
2009    26      3       2.182804        251.8645
2009    26      4       2.193083        252.3433
2009    26      5       2.233172        253.5944
2009    26      6       2.050698        247.0468
2009    26      7       1.990479        244.5434
2009    27      0       2.140767        249.0198
2009    27      1       1.813316        235.5345
2009    27      2       2.383691        255.9296
2009    27      3       2.582518        260.4649
2009    27      4       2.520165        258.8372
2009    27      5       2.393628        255.262
2009    27      6       2.213621        250.2057
2009    27      7       1.898434        239.0156
2009    28      0       1.708302        230.9758
2009    28      1       1.960203        242.5716
2009    28      2       1.892016        241.1694
2009    28      3       1.692039        232.4695
2009    28      4       1.350427        211.3325
2009    28      5       1.115724        191.8783
2009    28      6       1.019273        182.3687
2009    28      7       0.9852628       178.6471
2009    29      0       1.025512        182.7029
2009    29      1       1.329472        209.0346
2009    29      2       1.288032        206.3836
2009    29      3       1.376209        213.0504
2009    29      4       1.563626        225.1954
2009    29      5       1.829457        238.7581
2009    29      6       2.129478        250.275
2009    29      7       2.023174        246.4198
2009    30      0       1.872917        240.1248
2009    30      1       1.836485        238.6864
2009    30      2       1.756691        235.6623
2009    30      3       1.719887        233.9839
2009    30      4       1.541233        224.4909
2009    30      5       1.433246        217.4852
2009    30      6       1.514159        222.3497
2009    30      7       1.573613        225.4851
2010    1       0       3.521821        280.3822
2010    1       1       3.546135        280.8851
2010    1       2       3.924247        284.2775
2010    1       3       4.124239        285.6787
2010    1       4       4.34676         286.128
2010    1       5       4.358084        285.5762
2010    1       6       4.419847        285.9841
2010    1       7       4.975275        288.37
2010    2       0       5.391229        290.4755
2010    2       1       5.082999        290.1846
2010    2       2       4.301076        288.0436
2010    2       3       3.552714        282.5178
2010    2       4       3.365091        280.3121
2010    2       5       3.331833        279.448
2010    2       6       3.446028        280.0494
2010    2       7       3.783704        282.0896
2010    3       0       3.814811        281.8417
2010    3       1       4.42962         286.4207
2010    3       2       4.021612        285.9238
2010    3       3       3.271217        279.7472
2010    3       4       2.545459        267.7121
2010    3       5       2.72462         271.3973
2010    3       6       3.403329        280.4586
2010    3       7       3.448722        280.5666
2010    4       0       3.621258        281.9618
2010    4       1       3.352718        279.4758
2010    4       2       3.283217        279.4249
2010    4       3       3.161288        277.8927
2010    4       4       2.933683        274.5491
2010    4       5       2.911274        274.0928
2010    4       6       2.961671        274.2017
2010    4       7       3.220614        276.6975
2010    5       0       3.469993        279.3738
2010    5       1       3.668614        281.9234
2010    5       2       3.655167        282.0491
2010    5       3       3.696           282.1835
2010    5       4       3.503491        280.2046
2010    5       5       3.214169        276.7045
2010    5       6       3.253733        276.9922
2010    5       7       3.521301        279.8458
2010    6       0       3.550843        279.822
2010    6       1       3.909223        282.7903
2010    6       2       3.547097        281.0036
2010    6       3       3.078989        273.2619
2010    6       4       2.028747        248.2196
2010    6       5       1.949691        246.1415
2010    6       6       2.319389        259.4063
2010    6       7       2.454333        262.8745
2010    7       0       2.468652        263.4293
2010    7       1       2.920892        272.2874
2010    7       2       3.06991         274.5241
2010    7       3       2.877751        270.0029
2010    7       4       2.447352        260.6579
2010    7       5       1.633988        229.1436
2010    7       6       1.089363        187.4033
2010    7       7       1.105905        188.3342
2010    8       0       1.327349        206.9456
2010    8       1       2.062311        246.6744
2010    8       2       2.627015        262.7368
2010    8       3       2.258105        253.8873
2010    8       4       1.948344        243.2816
2010    8       5       2.322229        256.5148
2010    8       6       2.573863        263.5923
2010    8       7       2.991979        271.161
2010    9       0       3.110008        273.5943
2010    9       1       3.463108        277.8479
2010    9       2       3.837419        280.7342
2010    9       3       4.511402        284.8802
2010    9       4       5.050304        288.5805
2010    9       5       4.984165        288.6051
2010    9       6       4.832705        287.676
2010    9       7       4.894296        288.3533
2010    10      0       4.927425        288.4485
2010    10      1       5.160507        288.8797
2010    10      2       4.772496        287.4371
2010    10      3       4.12986         283.4744
2010    10      4       3.497586        278.0988
2010    10      5       3.403647        277.0091
2010    10      6       3.990595        281.83
2010    10      7       4.533105        285.3939
2010    11      0       4.653293        286.1025
2010    11      1       4.325323        285.1906
2010    11      2       4.258892        284.7245
2010    11      3       4.287532        284.6482
2010    11      4       4.424168        284.6866
2010    11      5       3.963603        281.9244
2010    11      6       3.498088        278.1678
2010    11      7       3.751235        279.5899
2010    12      0       3.277101        275.1277
2010    12      1       2.587913        264.2187
2010    12      2       2.544725        264.4838
2010    12      3       2.599104        265.7995
2010    12      4       2.839003        270.4092
2010    12      5       2.764814        268.8119
2010    12      6       2.626033        265.4084
2010    12      7       2.250661        255.6292
2010    13      0       2.201608        253.879
2010    13      1       2.365984        259.1116
2010    13      2       2.443927        261.8904
2010    13      3       2.523516        263.8292
2010    13      4       2.47459         262.6637
2010    13      5       2.37668         260.2842
2010    13      6       2.244933        256.2342
2010    13      7       2.113255        251.6121
2010    14      0       1.993904        247.3709
2010    14      1       2.12705         252.4293
2010    14      2       1.959632        246.6244
2010    14      3       1.818123        240.2273
2010    14      4       1.541307        225.1804
2010    14      5       1.281044        206.6308
2010    14      6       1.17411         197.593
2010    14      7       1.131224        193.8189
2010    15      0       1.171297        197.3012
2010    15      1       1.593062        227.7238
2010    15      2       1.73543         236.221
2010    15      3       1.712958        235.3412
2010    15      4       1.605332        229.6067
2010    15      5       1.550991        226.3284
2010    15      6       1.633222        230.5223
2010    15      7       1.666751        231.7802
2010    16      0       1.623545        229.7293
2010    16      1       1.920709        244.666
2010    16      2       2.085137        251.7135
2010    16      3       2.2316          256.565
2010    16      4       2.367636        260.2693
2010    16      5       2.315079        258.489
2010    16      6       2.407277        260.5627
2010    16      7       2.445825        261.1472
2010    17      0       2.239724        255.1154
2010    17      1       2.534981        263.167
2010    17      2       2.69059         267.0351
2010    17      3       2.768373        268.744
2010    17      4       2.609513        265.9962
2010    17      5       2.656998        266.5233
2010    17      6       4.802138        286.5999
2010    17      7       2.374896        259.2595
2010    18      0       2.281297        256.6871
2010    18      1       2.551661        264.4778
2010    18      2       2.42408         262.5032
2010    18      3       2.576956        265.6933
2010    18      4       2.975472        272.281
2010    18      5       3.624333        278.7816
2010    18      6       2.685341        265.6934
2010    18      7       2.886101        269.4208
2010    19      0       3.02149         271.5964
2010    19      1       3.202952        274.3728
2010    19      2       3.729628        279.271
2010    19      3       3.594466        276.9411
2010    19      4       4.146313        281.9898
2010    19      5       4.133573        282.4865
2010    19      6       4.10986         282.4491
2010    19      7       3.736712        279.1476
2010    20      0       3.428751        276.0125
2010    20      1       3.044434        272.1736
2010    20      2       3.05346         272.8697
2010    20      3       3.023389        272.565
2010    20      4       3.504916        277.7181
2010    20      5       3.14715         274.2039
2010    20      6       2.844661        270.0825
2010    20      7       3.677414        280.3826
2010    21      0       4.353709        285.6598
2010    21      1       4.146502        284.9842
2010    21      2       4.590511        287.9598
2010    21      3       3.52043         280.1949
2010    21      4       3.005332        272.75
2010    21      5       2.427071        259.1911
2010    21      6       2.173344        249.6346
2010    21      7       2.022855        243.3981
2010    22      0       1.878382        236.9595
2010    22      1       2.043647        243.6492
2010    22      2       1.821194        234.5477
2010    22      3       1.434297        213.3913
2010    22      4       1.198573        196.2959
2010    22      5       1.169704        193.5338
2010    22      6       1.17999         194.0427
2010    22      7       1.117665        188.5694
2010    23      0       1.127529        189.7426
2010    23      1       1.132337        190.7405
2010    23      2       1.056587        184.5987
2010    23      3       1.017167        180.6978
2010    23      4       0.9298803       171.2478
2010    23      5       0.9118739       169.1788
2010    23      6       0.9447602       172.5322
2010    23      7       0.9846574       176.4358
2010    24      0       1.030305        180.7914
2010    24      1       1.285652        202.98
2010    24      2       1.233417        199.114
2010    24      3       1.210771        197.2845
2010    24      4       1.228189        198.7611
2010    24      5       1.276145        202.5764
2010    24      6       1.296607        203.9514
2010    24      7       1.30584         204.3512
2010    25      0       1.296858        203.3866
2010    25      1       1.354243        207.9871
2010    25      2       1.340337        207.4527
2010    25      3       1.336234        207.483
2010    25      4       1.33051         206.9238
2010    25      5       1.407462        211.8414
2010    25      6       1.562256        221.121
2010    25      7       1.681738        227.322
2010    26      0       1.499342        217.0505
2010    26      1       1.520113        218.9004
2010    26      2       1.495273        218.2926
2010    26      3       1.497112        218.8693
2010    26      4       1.497557        218.9217
2010    26      5       1.582031        223.9
2010    26      6       1.765275        233.4586
2010    26      7       1.908044        239.8736
2010    27      0       1.939866        241.2612
2010    27      1       2.071591        245.9921
2010    27      2       2.196293        250.3027
2010    27      3       2.461529        257.6317
2010    27      4       2.368179        255.2321
2010    27      5       2.536186        259.9215
2010    27      6       0.9892203       176.7469
2010    27      7       0.4324885       100.0549
2010    28      0       0.5869946       125.1169
2010    28      1       0.7323114       145.2196
2010    28      2       0.8105428       155.5184
2010    28      3       0.9145261       168.0436
2010    28      4       0.9565005       172.5219
2010    28      5       0.7900974       153.3819
2010    28      6       0.6182758       129.8227
2010    28      7       0.5843622       124.1991
2010    29      0       0.5714606       121.8902
2010    29      1       0.78093         150.3311
2010    29      2       0.9062526       165.1032
2010    29      3       0.9008926       164.1876
2010    29      4       0.7012318       139.8529
2010    29      5       0.5921525       124.661
2010    29      6       0.6739842       136.8086
2010    29      7       0.7690909       149.51
2010    30      0       0.7453756       146.4916
2010    30      1       0.9374352       169.7807
2010    30      2       1.007307        177.7401
2010    30      3       1.016416        179.0835
2010    30      4       0.9836172       175.9246
2010    30      5       0.9966445       177.0418
2010    30      6       1.048499        181.9473
2010    30      7       0.8522232       161.1901
2011    1       0       2.409043        262.4109
2011    1       1       2.676649        269.2043
2011    1       2       2.785459        272.2452
2011    1       3       2.90192         274.3632
2011    1       4       3.179869        278.1995
2011    1       5       3.192478        278.0678
2011    1       6       2.904397        273.6029
2011    1       7       2.560257        266.5961
2011    2       0       2.56805         266.3727
2011    2       1       3.027896        275.6634
2011    2       2       3.069609        276.9549
2011    2       3       3.09899         276.4262
2011    2       4       2.450902        263.441
2011    2       5       1.861049        243.697
2011    2       6       1.770458        238.8029
2011    2       7       1.778946        239.5385
2011    3       0       2.293866        258.8676
2011    3       1       2.524319        265.3801
2011    3       2       2.201529        256.8017
2011    3       3       1.747494        237.1908
2011    3       4       1.542415        224.9674
2011    3       5       1.541847        224.607
2011    3       6       1.735451        235.1616
2011    3       7       1.727205        233.8561
2011    4       0       2.064141        248.2975
2011    4       1       2.134581        251.9728
2011    4       2       1.975395        246.47
2011    4       3       1.948619        244.7685
2011    4       4       2.040974        247.9544
2011    4       5       2.099189        250.4523
2011    4       6       2.035145        247.6562
2011    4       7       1.587412        226.0817
2011    5       0       1.567931        224.8969
2011    5       1       2.249627        254.7331
2011    5       2       2.233079        255.3159
2011    5       3       1.899175        243.7241
2011    5       4       1.474901        221.3126
2011    5       5       1.324865        210.7939
2011    5       6       1.320189        210.2557
2011    5       7       1.313084        209.5818
2011    6       0       1.314812        209.0591
2011    6       1       1.410218        215.8471
2011    6       2       1.367786        213.2916
2011    6       3       1.29244         207.3722
2011    6       4       1.078492        188.7326
2011    6       5       0.9419056       175.1111
2011    6       6       0.7958003       157.8549
2011    6       7       0.7294737       148.9524
2011    7       0       0.7826859       155.4051
2011    7       1       1.185171        197.3243
2011    7       2       1.414434        214.6207
2011    7       3       1.493851        219.808
2011    7       4       1.822062        236.308
2011    7       5       2.007208        243.2956
2011    7       6       2.119973        247.1844
2011    7       7       2.408786        255.7996
2011    8       0       2.309096        254.6383
2011    8       1       2.100266        249.2158
2011    8       2       1.982072        246.0919
2011    8       3       2.013047        247.4543
2011    8       4       2.093526        250.2262
2011    8       5       2.442866        259.5581
2011    8       6       2.756451        265.4164
2011    8       7       3.141578        270.4604
2011    9       0       2.526876        259.4221
2011    9       1       2.381956        257.0257
2011    9       2       2.390434        258.0251
2011    9       3       2.333313        257.1376
2011    9       4       2.418128        259.5521
2011    9       5       2.365311        257.3214
2011    9       6       2.006899        244.5569
2011    9       7       1.921731        240.4329
2011    10      0       2.162745        249.7196
2011    10      1       2.809368        265.4641
2011    10      2       3.09529         270.58
2011    10      3       2.603906        262.8117
2011    10      4       2.479519        261.1589
2011    10      5       2.523106        261.8773
2011    10      6       2.518456        261.2356
2011    10      7       2.532054        261.543
2011    11      0       2.670512        264.3947
2011    11      1       2.970461        270.0215
2011    11      2       3.297045        274.7551
2011    11      3       3.126199        272.5302
2011    11      4       2.824448        268.6585
2011    11      5       3.135136        273.2924
2011    11      6       3.196562        273.6387
2011    11      7       2.217663        252.3518
2011    12      0       2.125945        249.0677
2011    12      1       2.420337        257.8512
2011    12      2       2.519328        260.3433
2011    12      3       2.436546        258.9991
2011    12      4       2.303669        255.7691
2011    12      5       2.28895         255.6499
2011    12      6       2.524894        261.1497
2011    12      7       2.639544        263.597
2011    13      0       2.430204        259.2246
2011    13      1       2.334976        257.4712
2011    13      2       2.439935        260.6984
2011    13      3       2.357968        258.4927
2011    13      4       2.263959        255.7565
2011    13      5       2.262399        256.2951
2011    13      6       2.385192        260.5718
2011    13      7       2.653719        266.9602
2011    14      0       2.886803        270.9371
2011    14      1       3.592663        279.662
2011    14      2       3.381544        278.476
2011    14      3       3.144403        275.7323
2011    14      4       2.718234        269.1204
2011    14      5       2.541205        265.627
2011    14      6       2.78646         269.9074
2011    14      7       2.928315        272.0696
2011    15      0       3.099713        274.6365
2011    15      1       3.174658        276.0725
2011    15      2       2.994455        274.4787
2011    15      3       2.781994        271.404
2011    15      4       2.582147        267.4386
2011    15      5       2.665904        268.9291
2011    15      6       2.771808        270.4369
2011    15      7       2.755828        269.5404
2011    16      0       3.012712        272.8598
2011    16      1       3.587637        279.391
2011    16      2       3.217003        276.9734
2011    16      3       3.057488        275.2457
2011    16      4       2.864338        272.4839
2011    16      5       2.722629        269.9391
2011    16      6       2.672403        268.7844
2011    16      7       2.924289        272.8385
2011    17      0       3.164415        275.8
2011    17      1       3.55278         280.0382
2011    17      2       3.288358        276.3185
2011    17      3       3.04005         270.4227
2011    17      4       3.002137        268.7744
2011    17      5       2.698562        263.8687
2011    17      6       2.510543        260.0114
2011    17      7       2.350044        255.9962
2011    18      0       2.256305        253.0502
2011    18      1       2.423373        258.1683
2011    18      2       2.123197        248.2768
2011    18      3       1.802635        234.2311
2011    18      4       1.676186        227.2084
2011    18      5       1.689443        227.0466
2011    18      6       1.806998        231.2606
2011    18      7       1.776759        229.4464
2011    19      0       1.749037        228.4424
2011    19      1       1.916656        236.6549
2011    19      2       1.797858        232.6208
2011    19      3       1.584178        221.4617
2011    19      4       1.333187        205.7562
2011    19      5       1.255273        200.1785
2011    19      6       1.075146        184.6329
2011    19      7       1.012318        178.3516
2011    20      0       1.010138        178.1971
2011    20      1       1.206606        196.5443
2011    20      2       1.201774        196.5791
2011    20      3       1.120491        189.1841
2011    20      4       1.12041         188.9229
2011    20      5       1.103093        187.6133
2011    20      6       1.09429         186.6532
2011    20      7       1.079756        185.2822
2011    21      0       1.089513        186.1801
2011    21      1       1.116626        189.0249
2011    21      2       1.064477        184.2695
2011    21      3       0.9919196       176.5988
2011    21      4       0.8216661       157.1467
2011    21      5       0.6183647       129.9543
2011    21      6       0.7881265       153.1049
2011    21      7       0.9793885       174.9465
2011    22      0       0.843123        159.7079
2011    22      1       0.9836808       175.1782
2011    22      2       1.010658        178.238
2011    22      3       0.9646487       173.6323
2011    22      4       0.8462054       160.3314
2011    22      5       0.8511922       161.2932
2011    22      6       0.9491891       172.4781
2011    22      7       0.8640346       162.9254
2011    23      0       0.8603297       162.8484
2011    23      1       1.125524        190.8439
2011    23      2       1.236239        200.9856
2011    23      3       1.245599        201.8242
2011    23      4       1.284383        204.5543
2011    23      5       1.260579        202.3308
2011    23      6       1.391024        211.6318
2011    23      7       1.609868        224.7931
2011    24      0       1.601704        224.0536
2011    24      1       1.575981        222.768
2011    24      2       1.566792        222.4146
2011    24      3       1.639722        226.1417
2011    24      4       1.337458        206.568
2011    24      5       0.9906271       176.2755
2011    24      6       0.9669023       173.6949
2011    24      7       0.9909111       175.9075
2011    25      0       1.012399        178.2634
2011    25      1       1.314524        205.5607
2011    25      2       1.20971         198.2618
2011    25      3       1.241278        200.6748
2011    25      4       1.176596        195.5449
2011    25      5       1.109197        189.7204
2011    25      6       1.137094        191.9464
2011    25      7       1.126412        190.7146
2011    26      0       0.9835458       176.9885
2011    26      1       1.015394        180.3789
2011    26      2       0.9384355       172.9998
2011    26      3       0.8947303       168.5164
2011    26      4       0.8991108       169.1399
2011    26      5       0.9022664       169.4915
2011    26      6       0.9261158       172.0842
2011    26      7       0.9217576       171.4988
2011    27      0       0.8323083       161.1765
2011    27      1       1.05473         185.287
2011    27      2       0.9936775       179.8887
2011    27      3       0.950028        175.3887
2011    27      4       0.9443186       174.6871
2011    27      5       0.7510372       151.4932
2011    27      6       0.5887946       127.8655
2011    27      7       0.8383847       161.4171
2011    28      0       1.049967        183.6912
2011    28      1       1.326957        206.6717
2011    28      2       1.906501        239.4367
2011    28      3       2.035304        244.9273
2011    28      4       2.132331        248.2697
2011    28      5       2.25603         252.4093
2011    28      6       2.468351        257.4698
2011    28      7       2.886451        265.2254
2011    29      0       2.808184        263.7508
2011    29      1       2.982047        266.8748
2011    29      2       2.711468        262.7462
2011    29      3       2.253513        252.2472
2011    29      4       1.914781        240.7498
2011    29      5       1.862755        238.0332
2011    29      6       1.723609        230.5241
2011    29      7       0.5804957       124.1239
2011    30      0       0.4861873       109.1621
2011    30      1       0.7051876       141.861
2011    30      2       0.7702873       150.4361
2011    30      3       0.8248233       156.9504
2011    30      4       0.7772575       151.0081
2011    30      5       0.658009        135.091
2011    30      6       0.6254643       130.3227
2011    30      7       0.6732909       136.6975
2012    1       0       2.388689        260.5377
2012    1       1       2.333645        259.6557
2012    1       2       2.418827        262.7481
2012    1       3       2.693849        268.4547
2012    1       4       2.500076        263.522
2012    1       5       2.407934        261.1426
2012    1       6       2.54301         264.2046
2012    1       7       2.571907        264.7457
2012    2       0       2.586917        264.6259
2012    2       1       2.707597        267.6371
2012    2       2       2.720219        268.604
2012    2       3       2.687798        267.9971
2012    2       4       2.665392        267.347
2012    2       5       2.710839        267.9972
2012    2       6       2.9312          271.4373
2012    2       7       3.479426        277.5445
2012    3       0       2.891987        270.1874
2012    3       1       2.733778        268.5021
2012    3       2       2.487721        264.054
2012    3       3       2.444967        263.0412
2012    3       4       2.431012        262.8568
2012    3       5       2.564067        266.1432
2012    3       6       2.65413         266.8078
2012    3       7       3.140978        274.2572
2012    4       0       3.242908        274.1987
2012    4       1       3.30207         274.818
2012    4       2       4.0208          282.391
2012    4       3       3.371878        278.1196
2012    4       4       3.686315        280.3019
2012    4       5       3.892016        280.875
2012    4       6       3.705316        279.5612
2012    4       7       2.463155        261.1023
2012    5       0       1.872295        240.9923
2012    5       1       1.603747        227.4264
2012    5       2       1.336816        210.0423
2012    5       3       1.336188        209.5911
2012    5       4       1.343912        209.7706
2012    5       5       1.343701        209.8624
2012    5       6       1.258074        203.1822
2012    5       7       1.334974        208.3945
2012    6       0       1.375498        211.5396
2012    6       1       1.531281        222.7725
2012    6       2       1.545978        224.513
2012    6       3       1.588406        227.1289
2012    6       4       1.560498        225.3356
2012    6       5       1.595515        227.0265
2012    6       6       1.692983        231.8228
2012    6       7       1.726343        232.9676
2012    7       0       1.692089        231.6617
2012    7       1       1.916807        242.2998
2012    7       2       2.110878        249.3035
2012    7       3       2.168655        250.8044
2012    7       4       2.290004        254.1243
2012    7       5       2.169496        249.7324
2012    7       6       2.599937        260.4823
2012    7       7       2.976409        269.0389
2012    8       0       3.177555        273.0668
2012    8       1       2.503409        260.7522
2012    8       2       2.34198         257.1427
2012    8       3       2.173212        252.1367
2012    8       4       2.030862        246.1555
2012    8       5       1.929546        241.0902
2012    8       6       1.741523        232.6257
2012    8       7       1.793551        235.0259
2012    9       0       1.814393        236.7596
2012    9       1       2.008674        245.7054
2012    9       2       2.184772        252.745
2012    9       3       2.282457        255.3639
2012    9       4       2.105479        249.5362
2012    9       5       1.817418        238.1884
2012    9       6       1.635672        229.1083
2012    9       7       1.675351        231.499
2012    10      0       1.78411         236.6302
2012    10      1       2.052966        248.0727
2012    10      2       2.079731        250.3288
2012    10      3       2.0016          247.4006
2012    10      4       1.661742        231.6391
2012    10      5       1.422571        217.7095
2012    10      6       1.293162        208.4821
2012    10      7       1.198958        200.6111
2012    11      0       1.234888        202.8337
2012    11      1       1.533453        223.8464
2012    11      2       1.664899        231.9743
2012    11      3       1.69765         234.3282
2012    11      4       1.743949        236.6226
2012    11      5       1.788377        238.5333
2012    11      6       1.971426        245.6331
2012    11      7       2.118156        250.2928
2012    12      0       2.534014        261.2269
2012    12      1       2.79791         266.4684
2012    12      2       2.505661        260.9631
2012    12      3       2.496639        260.17
2012    12      4       2.483551        260.2159
2012    12      5       2.617354        262.8784
2012    12      6       2.764577        265.2634
2012    12      7       2.791645        265.4539
2012    13      0       3.088719        270.4559
2012    13      1       3.773955        277.8847
2012    13      2       3.868091        278.6666
2012    13      3       2.717885        265.209
2012    13      4       2.39872         256.9064
2012    13      5       2.330074        253.3138
2012    13      6       2.001413        241.7544
2012    13      7       1.784177        231.89
2012    14      0       1.844158        234.5271
2012    14      1       1.625295        224.925
2012    14      2       1.687567        227.8774
2012    14      3       1.707361        228.7065
2012    14      4       1.574728        221.9267
2012    14      5       1.588747        222.4931
2012    14      6       1.67763         226.9872
2012    14      7       1.548742        220.4662
2012    15      0       1.470415        216.6259
2012    15      1       1.849997        237.1337
2012    15      2       1.810652        236.2648
2012    15      3       1.687758        229.9338
2012    15      4       1.129797        191.4465
2012    15      5       0.9143678       169.8771
2012    15      6       0.9614823       174.6446
2012    15      7       1.191344        196.5144
2012    16      0       1.504281        219.3511
2012    16      1       1.754226        233.2102
2012    16      2       2.054233        245.771
2012    16      3       2.291275        253.8466
2012    16      4       2.449448        258.0276
2012    16      5       2.647417        262.3442
2012    16      6       2.694253        262.918
2012    16      7       2.900598        266.8421
2012    17      0       2.828307        266.2918
2012    17      1       2.667984        263.6582
2012    17      2       3.018599        271.8223
2012    17      3       3.40145         274.2022
2012    17      4       2.936221        268.0071
2012    17      5       2.265166        254.438
2012    17      6       1.838762        239.0805
2012    17      7       1.610697        227.4573
2012    18      0       1.591277        226.3376
2012    18      1       1.961164        244.3924
2012    18      2       2.062675        248.6871
2012    18      3       2.077637        248.492
2012    18      4       2.10499         248.7567
2012    18      5       2.130446        249.1883
2012    18      6       2.033719        245.3983
2012    18      7       1.767865        234.1249
2012    19      0       1.679288        230.235
2012    19      1       1.689302        231.3884
2012    19      2       1.726584        233.7071
2012    19      3       1.668248        230.4701
2012    19      4       1.549422        223.3196
2012    19      5       1.513986        220.7377
2012    19      6       1.514057        220.3859
2012    19      7       1.537834        221.6179
2012    20      0       1.638754        227.3875
2012    20      1       1.700615        231.3182
2012    20      2       1.696161        231.7315
2012    20      3       1.742337        233.9541
2012    20      4       1.69198         231.3527
2012    20      5       1.636366        228.5113
2012    20      6       1.64646         228.5952
2012    20      7       1.603195        226.3426
2012    21      0       1.661348        229.375
2012    21      1       1.74999         234.0216
2012    21      2       1.802429        236.6432
2012    21      3       1.775053        235.3572
2012    21      4       1.716049        232.5826
2012    21      5       1.711218        231.9915
2012    21      6       1.631504        227.2805
2012    21      7       1.594709        224.7235
2012    22      0       1.616603        226.2147
2012    22      1       1.730668        233.1924
2012    22      2       1.818031        237.3509
2012    22      3       1.907069        240.8435
2012    22      4       1.885532        239.7561
2012    22      5       1.804456        236.1948
2012    22      6       1.804065        235.9338
2012    22      7       1.727614        231.6811
2012    23      0       1.459821        215.7417
2012    23      1       1.416497        212.6562
2012    23      2       1.31831         206.4097
2012    23      3       1.426885        214.4192
2012    23      4       1.498772        219.3682
2012    23      5       1.54536         222.2713
2012    23      6       1.618436        226.2926
2012    23      7       1.640807        227.3658
2012    24      0       1.601685        225.064
2012    24      1       1.647658        227.7138
2012    24      2       1.66569         229.7343
2012    24      3       1.627663        228.2328
2012    24      4       1.557718        224.1332
2012    24      5       1.417547        215.559
2012    24      6       1.281296        205.5556
2012    24      7       1.183212        197.4039
2012    25      0       1.167027        195.7695
2012    25      1       1.421344        215.2368
2012    25      2       1.460339        218.5372
2012    25      3       1.37588         213.182
2012    25      4       1.359148        211.8009
2012    25      5       1.401279        214.6772
2012    25      6       1.522117        221.7239
2012    25      7       1.532295        222.1975
2012    26      0       1.590905        225.1134
2012    26      1       1.679154        229.5017
2012    26      2       1.739519        231.8991
2012    26      3       1.829398        235.9
2012    26      4       1.726915        231.658
2012    26      5       1.652806        227.8791
2012    26      6       1.687015        228.929
2012    26      7       1.685566        228.3417
2012    27      0       1.581444        222.3706
2012    27      1       1.693508        227.9866
2012    27      2       1.89704         237.6481
2012    27      3       1.789048        233.821
2012    27      4       1.712482        230.2534
2012    27      5       1.798474        234.4104
2012    27      6       1.883426        238.5364
2012    27      7       2.00916         243.453
2012    28      0       2.235657        250.8617
2012    28      1       2.578211        259.9442
2012    28      2       2.395381        254.9537
2012    28      3       1.377293        208.899
2012    28      4       1.266162        200.432
2012    28      5       1.257062        199.0892
2012    28      6       1.249232        198.5552
2012    28      7       1.288394        201.0754
2012    29      0       1.322765        203.1513
2012    29      1       1.364276        206.9377
2012    29      2       1.452326        213.817
2012    29      3       1.302198        203.5663
2012    29      4       1.224148        197.4892
2012    29      5       1.221384        197.469
2012    29      6       1.251145        200.0742
2012    29      7       1.111326        188.0801
2012    30      0       1.033273        180.4973
2012    30      1       1.140223        190.7162
2012    30      2       1.225459        198.5506
2012    30      3       1.242338        199.996
2012    30      4       1.201628        196.5129
2012    30      5       1.209635        197.1157
2012    30      6       1.208633        196.9617
2012    30      7       1.205986        196.5356
2013    1       0       1.92613         242.4179
2013    1       1       1.79725         237.5516
2013    1       2       1.712503        233.933
2013    1       3       1.656347        230.9521
2013    1       4       1.601905        227.5596
2013    1       5       1.525243        223.0381
2013    1       6       1.412856        215.5078
2013    1       7       1.266636        204.2187
2013    2       0       1.150259        194.0286
2013    2       1       1.261379        203.017
2013    2       2       1.425048        214.8587
2013    2       3       1.542478        222.3124
2013    2       4       1.429725        215.8793
2013    2       5       1.370742        212.0553
2013    2       6       1.417742        215.08
2013    2       7       1.291478        205.6777
2013    3       0       1.133641        191.4705
2013    3       1       1.021268        180.922
2013    3       2       1.073418        186.9809
2013    3       3       1.156131        194.7655
2013    3       4       1.189705        197.7207
2013    3       5       1.209857        199.4028
2013    3       6       1.260582        203.2221
2013    3       7       1.363216        210.7978
2013    4       0       1.513751        221.1005
2013    4       1       1.520746        222.1377
2013    4       2       1.472385        219.7544
2013    4       3       1.509618        221.8406
2013    4       4       1.396592        214.0195
2013    4       5       1.017358        182.0674
2013    4       6       0.9006121       169.0599
2013    4       7       1.05626         184.6154
2013    5       0       1.183371        195.9803
2013    5       1       1.589237        223.9244
2013    5       2       1.813155        235.0625
2013    5       3       1.985077        242.2066
2013    5       4       2.198297        249.2986
2013    5       5       2.269378        251.3018
2013    5       6       2.244275        251.0283
2013    5       7       2.168771        249.0106
2013    6       0       2.149939        248.5433
2013    6       1       2.305511        253.041
2013    6       2       2.56464         259.7733
2013    6       3       2.430457        256.5026
2013    6       4       2.17781         249.2899
2013    6       5       2.049187        245.1921
2013    6       6       2.085871        246.5916
2013    6       7       2.158385        249.1276
2013    7       0       2.176702        249.8344
2013    7       1       1.973867        243.9533
2013    7       2       1.944221        243.5727
2013    7       3       1.907031        242.1748
2013    7       4       1.851004        239.5659
2013    7       5       1.821829        238.247
2013    7       6       1.748072        234.7112
2013    7       7       1.536839        223.3104
2013    8       0       1.559208        224.4974
2013    8       1       1.955847        244.3351
2013    8       2       2.01938         247.6534
2013    8       3       2.08005         250.0922
2013    8       4       2.068902        249.331
2013    8       5       2.111716        250.5485
2013    8       6       2.207017        253.1493
2013    8       7       2.444316        259.1371
2013    9       0       2.48448         259.7278
2013    9       1       2.493241        259.7828
2013    9       2       2.590756        262.511
2013    9       3       2.780289        266.7228
2013    9       4       2.661747        265.0332
2013    9       5       2.523436        262.4971
2013    9       6       2.555211        262.6717
2013    9       7       2.763222        266.5301
2013    10      0       2.621498        263.4943
2013    10      1       2.476803        260.5468
2013    10      2       2.712985        266.3129
2013    10      3       2.830723        268.6329
2013    10      4       2.788994        267.5792
2013    10      5       2.550782        262.4091
2013    10      6       2.713594        265.7153
2013    10      7       3.164686        272.6951
2013    11      0       3.032049        271.1604
2013    11      1       3.158613        273.285
2013    11      2       3.124617        273.8571
2013    11      3       3.014205        272.7459
2013    11      4       2.833252        269.7515
2013    11      5       2.731081        267.8293
2013    11      6       2.731875        267.5369
2013    11      7       2.694388        266.3519
2013    12      0       2.692062        266.0324
2013    12      1       3.163306        273.4284
2013    12      2       3.213516        274.8664
2013    12      3       3.340955        276.4889
2013    12      4       3.589432        278.2102
2013    12      5       3.745701        278.9559
2013    12      6       3.722503        278.3442
2013    12      7       3.954381        280.2522
2013    13      0       4.054438        282.2627
2013    13      1       4.558088        285.4326
2013    13      2       4.491581        285.8847
2013    13      3       4.423           285.7167
2013    13      4       3.914286        282.6536
2013    13      5       3.980582        282.6327
2013    13      6       3.078393        272.8856
2013    13      7       3.615499        278.8823
2013    14      0       4.148759        282.8197
2013    14      1       4.186294        283.1249
2013    14      2       4.190548        283.4863
2013    14      3       3.78573         280.9772
2013    14      4       3.112264        273.8139
2013    14      5       2.204862        254.808
2013    14      6       2.005624        247.3645
2013    14      7       2.169127        252.0926
2013    15      0       1.728606        234.2215
2013    15      1       1.958831        245.7039
2013    15      2       1.826007        240.8277
2013    15      3       1.671878        232.2088
2013    15      4       0.9738217       178.4792
2013    15      5       0.8307814       162.2823
2013    15      6       0.9630152       177.0936
2013    15      7       0.9324066       173.5016
2013    16      0       1.105608        190.6847
2013    16      1       1.312168        209.031
2013    16      2       1.265138        206.2382
2013    16      3       1.123204        193.5561
2013    16      4       0.9494198       174.8546
2013    16      5       0.8311664       159.4703
2013    16      6       0.8300118       158.0067
2013    16      7       0.9268727       168.3197
2013    17      0       0.9946693       177.5955
2013    17      1       1.077808        187.981
2013    17      2       1.358854        212.1907
2013    17      3       1.418267        216.8425
2013    17      4       1.372735        213.5877
2013    17      5       1.331938        210.5861
2013    17      6       1.382409        213.2848
2013    17      7       1.329264        209.3046
2013    18      0       1.292963        208.1211
2013    18      1       1.715452        235.808
2013    18      2       2.037276        251.1258
2013    18      3       2.172773        255.6654
2013    18      4       1.449214        220.2175
2013    18      5       1.351198        213.0825
2013    18      6       1.53647         225.459
2013    18      7       1.646019        231.7494
2013    19      0       1.665995        232.9358
2013    19      1       2.075943        251.185
2013    19      2       2.208048        256.6857
2013    19      3       2.175181        255.9151
2013    19      4       2.092266        252.8921
2013    19      5       2.038106        250.2717
2013    19      6       1.761184        237.572
2013    19      7       2.075178        250.2941
2013    20      0       3.037484        272.7033
2013    20      1       2.856676        270.7607
2013    20      2       2.839166        270.7408
2013    20      3       2.863046        270.8611
2013    20      4       2.975097        272.5241
2013    20      5       2.890571        271.1075
2013    20      6       2.782737        268.9208
2013    20      7       2.631657        265.6977
2013    21      0       2.554227        263.6781
2013    21      1       2.49331         263.0152
2013    21      2       2.353116        260.0419
2013    21      3       2.087868        250.3681
2013    21      4       1.672443        229.0778
2013    21      5       1.592071        224.0408
2013    21      6       1.973073        242.571
2013    21      7       2.240573        252.4215
2013    22      0       2.251853        253.1056
2013    22      1       2.367625        257.1457
2013    22      2       2.364551        257.8695
2013    22      3       2.186219        251.7521
2013    22      4       1.937949        242.4353
2013    22      5       1.756468        234.3103
2013    22      6       1.733975        233.4469
2013    22      7       1.841485        238.4096
2013    23      0       2.010832        245.4129
2013    23      1       2.324179        256.031
2013    23      2       2.620268        264.6357
2013    23      3       2.866476        269.5654
2013    23      4       2.893202        270.2545
2013    23      5       3.057504        272.7813
2013    23      6       2.876075        269.6006
2013    23      7       3.940222        280.6337
2013    24      0       4.12218         282.5732
2013    24      1       3.953735        281.4981
2013    24      2       3.884424        280.3613
2013    24      3       3.842558        279.1889
2013    24      4       3.223747        272.643
2013    24      5       3.114758        270.9861
2013    24      6       2.649512        263.0971
2013    24      7       2.090845        247.2909
2013    25      0       1.701439        230.329
2013    25      1       1.706145        230.8107
2013    25      2       1.449019        216.1444
2013    25      3       1.108569        189.4537
2013    25      4       0.9844875       176.7435
2013    25      5       0.8545454       161.8612
2013    25      6       0.7151794       143.8692
2013    25      7       0.6550752       135.4865
2013    26      0       0.6763503       138.8602
2013    26      1       0.8284992       159.1368
2013    26      2       0.8557399       163.1127
2013    26      3       0.8543996       162.8586
2013    26      4       0.8186983       158.3421
2013    26      5       0.7889887       154.5906
2013    26      6       0.7411657       148.4255
2013    26      7       0.7823123       153.6899
2013    27      0       1.015883        180.1482
2013    27      1       1.236671        200.5054
2013    27      2       1.310289        206.7782
2013    27      3       1.46991         217.888
2013    27      4       1.591459        224.5201
2013    27      5       1.720065        230.5594
2013    27      6       1.956677        240.4186
2013    27      7       2.241722        249.6341
2013    28      0       2.436621        254.6729
2013    28      1       2.258003        249.9178
2013    28      2       1.932105        237.9854
2013    28      3       1.876721        235.1792
2013    28      4       1.95377         239.4156
2013    28      5       2.164344        248.1435
2013    28      6       2.367389        254.4841
2013    28      7       2.359486        254.6795
2013    29      0       2.620229        260.9354
2013    29      1       3.111761        270.0333
2013    29      2       2.606857        262.8632
2013    29      3       2.748705        265.2239
2013    29      4       2.543379        260.7232
2013    29      5       2.222004        252.1838
2013    29      6       2.198901        251.45
2013    29      7       2.083952        247.399
2013    30      0       1.975662        243.5253
2013    30      1       2.174263        250.7461
2013    30      2       2.192037        252.5513
2013    30      3       1.960053        243.7983
2013    30      4       1.684052        231.2658
2013    30      5       1.552213        224.7354
2013    30      6       1.652201        230.4604
2013    30      7       1.756607        235.718
2014    1       0       2.294688        255.5553
2014    1       1       2.264229        255.8054
2014    1       2       2.252019        256.2629
2014    1       3       2.190837        254.6573
2014    1       4       2.203694        255.0851
2014    1       5       2.186886        254.5591
2014    1       6       2.246088        255.8291
2014    1       7       2.308685        257.1799
2014    2       0       2.164196        252.3051
2014    2       1       2.359347        257.3786
2014    2       2       2.920402        269.1797
2014    2       3       3.217707        273.4958
2014    2       4       3.267055        274.2281
2014    2       5       2.94606         268.9674
2014    2       6       2.910479        267.8293
2014    2       7       3.636389        276.9421
2014    3       0       3.6575          278.082
2014    3       1       3.826459        280.7816
2014    3       2       3.885953        281.8815
2014    3       3       3.360094        276.405
2014    3       4       2.786213        267.529
2014    3       5       2.283334        255.1212
2014    3       6       2.248122        253.6921
2014    3       7       2.27768         254.7262
2014    4       0       2.114652        250.2098
2014    4       1       2.092389        250.512
2014    4       2       1.974907        246.538
2014    4       3       2.107104        250.6983
2014    4       4       1.95503         245.0031
2014    4       5       1.580496        227.0733
2014    4       6       1.393515        215.0395
2014    4       7       1.30753         208.8476
2014    5       0       1.457755        219.9738
2014    5       1       1.960878        246.7003
2014    5       2       2.063054        251.2137
2014    5       3       1.942146        246.5282
2014    5       4       1.717707        236.0749
2014    5       5       1.587568        227.9931
2014    5       6       1.401461        214.5339
2014    5       7       1.059083        185.1937
2014    6       0       0.9169362       170.74
2014    6       1       1.695468        233.3977
2014    6       2       1.687956        234.2759
2014    6       3       1.625287        231.2342
2014    6       4       1.59531         229.3916
2014    6       5       1.687362        234.1774
2014    6       6       1.722778        236.1623
2014    6       7       1.494419        222.598
2014    7       0       1.387104        215.0483
2014    7       1       1.843375        241.4497
2014    7       2       1.923087        245.1195
2014    7       3       1.868672        242.8374
2014    7       4       1.800599        240.3049
2014    7       5       1.798937        240.1217
2014    7       6       1.919684        244.9524
2014    7       7       1.977045        246.7938
2014    8       0       2.140991        252.5326
2014    8       1       2.389341        260.8828
2014    8       2       2.159617        255.0997
2014    8       3       1.901102        246.2029
2014    8       4       1.866743        244.6065
2014    8       5       1.873276        243.706
2014    8       6       1.263345        205.8429
2014    8       7       1.106957        191.6908
2014    9       0       1.394074        214.4336
2014    9       1       1.339074        210.983
2014    9       2       1.180483        198.7005
2014    9       3       0.9196101       173.3604
2014    9       4       0.8245352       161.8554
2014    9       5       0.9079223       171.0772
2014    9       6       1.044893        184.9557
2014    9       7       1.122277        191.9574
2014    10      0       1.217158        199.9356
2014    10      1       1.277223        205.1911
2014    10      2       1.236448        202.8111
2014    10      3       1.15476         196.4097
2014    10      4       1.122546        193.3467
2014    10      5       1.209421        200.8171
2014    10      6       1.332126        210.4856
2014    10      7       1.437033        217.5352
2014    11      0       1.519428        222.4924
2014    11      1       1.593328        227.7297
2014    11      2       1.501012        222.7544
2014    11      3       1.450043        219.4043
2014    11      4       1.45384         219.3707
2014    11      5       1.419614        216.5102
2014    11      6       1.335826        210.2895
2014    11      7       1.426179        216.0032
2014    12      0       1.665971        230.2211
2014    12      1       2.036027        246.3417
2014    12      2       2.079265        248.4651
2014    12      3       2.085393        248.7928
2014    12      4       1.979706        244.9381
2014    12      5       1.937556        243.0395
2014    12      6       1.950149        243.6961
2014    12      7       1.91598         242.3007
2014    13      0       1.918845        241.8986
2014    13      1       1.749593        234.7334
2014    13      2       1.658417        230.8117
2014    13      3       1.629821        229.7992
2014    13      4       1.608933        228.3938
2014    13      5       1.533549        223.7147
2014    13      6       1.485708        220.3503
2014    13      7       1.521477        222.0718
2014    14      0       1.534124        222.3702
2014    14      1       1.713253        232.4193
2014    14      2       1.825725        238.0541
2014    14      3       1.977924        244.2668
2014    14      4       2.037497        245.9857
2014    14      5       2.008679        244.7214
2014    14      6       2.126207        248.64
2014    14      7       2.176421        250.3459
2014    15      0       1.924603        241.0252
2014    15      1       1.746147        234.5527
2014    15      2       1.664943        231.9123
2014    15      3       1.201901        199.3581
2014    15      4       0.8311615       161.0003
2014    15      5       0.8760448       166.5794
2014    15      6       0.8109261       158.8292
2014    15      7       0.7053403       144.7868
2014    16      0       0.8241369       159.6864
2014    16      1       0.9968746       179.148
2014    16      2       1.096873        189.3848
2014    16      3       1.166515        196.0351
2014    16      4       1.191852        196.7659
2014    16      5       1.181128        194.1541
2014    16      6       1.331347        204.9854
2014    16      7       1.498365        216.6922
2014    17      0       1.698647        227.8131
2014    17      1       1.608795        223.5481
2014    17      2       1.459976        215.4277
2014    17      3       1.564645        222.463
2014    17      4       1.869853        237.8955
2014    17      5       1.827363        235.6176
2014    17      6       1.594297        224.2221
2014    17      7       1.143944        192.3121
2014    18      0       0.8726035       165.1316
2014    18      1       0.9196906       171.3608
2014    18      2       0.90442         170.3769
2014    18      3       0.9264892       172.917
2014    18      4       0.933727        173.5568
2014    18      5       0.9517028       175.3294
2014    18      6       1.001782        180.1783
2014    18      7       0.9805972       177.7956
2014    19      0       1.088845        188.3229
2014    19      1       1.112491        191.1499
2014    19      2       1.145187        194.5551
2014    19      3       1.209462        199.9459
2014    19      4       1.190792        197.959
2014    19      5       1.171627        195.9213
2014    19      6       1.245664        201.7189
2014    19      7       1.317301        206.7992
2014    20      0       1.344865        208.5566
2014    20      1       1.231103        200.5645
2014    20      2       1.178494        196.4897
2014    20      3       1.157423        194.7276
2014    20      4       1.199435        198.032
2014    20      5       1.31444         206.6959
2014    20      6       1.604034        225.0951
2014    20      7       1.667843        228.062
2014    21      0       1.603321        224.8337
2014    21      1       1.681268        229.0344
2014    21      2       1.80697         235.2905
2014    21      3       1.6707          229.4035
2014    21      4       1.558206        224.0305
2014    21      5       1.56116         224.365
2014    21      6       1.533128        222.5203
2014    21      7       1.511153        221.071
2014    22      0       1.499431        220.8302
2014    22      1       1.411684        216.0906
2014    22      2       1.316516        210.1404
2014    22      3       1.324278        210.6265
2014    22      4       1.464556        220.4543
2014    22      5       1.568111        226.7057
2014    22      6       1.661856        231.0779
2014    22      7       1.543729        223.839
2014    23      0       1.41419         215.1319
2014    23      1       1.41076         215.2301
2014    23      2       1.342268        210.988
2014    23      3       1.299427        208.4808
2014    23      4       1.269589        205.0205
2014    23      5       1.87142         239.8733
2014    23      6       2.411741        257.0691
2014    23      7       2.329653        254.5612
2014    24      0       2.222811        250.9281
2014    24      1       2.560109        260.1523
2014    24      2       2.424392        257.9299
2014    24      3       2.056141        247.3184
2014    24      4       1.828347        237.1372
2014    24      5       1.545638        223.0303
2014    24      6       1.578656        225.1458
2014    24      7       1.488572        220.3258
2014    25      0       1.487922        220.0419
2014    25      1       1.628134        229.2137
2014    25      2       1.583673        227.5436
2014    25      3       1.63898         230.3131
2014    25      4       1.781283        237.0637
2014    25      5       1.912285        242.4344
2014    25      6       1.944517        243.2594
2014    25      7       1.988224        244.2657
2014    26      0       1.946234        242.1067
2014    26      1       1.933457        241.1885
2014    26      2       1.978934        243.9908
2014    26      3       2.069354        247.6622
2014    26      4       2.017717        246.0744
2014    26      5       2.094186        248.6104
2014    26      6       2.159946        250.4159
2014    26      7       1.859492        238.7123
2014    27      0       2.131513        249.2732
2014    27      1       1.998119        244.8791
2014    27      2       2.110476        249.9307
2014    27      3       2.271208        255.177
2014    27      4       2.083643        249.6697
2014    27      5       2.061553        248.7017
2014    27      6       2.297057        255.9576
2014    27      7       2.228318        253.597
2014    28      0       2.147669        250.6305
2014    28      1       2.537101        261.7045
2014    28      2       2.510296        261.6133
2014    28      3       2.688587        264.5937
2014    28      4       2.890421        267.4133
2014    28      5       2.963158        268.2598
2014    28      6       2.948571        267.5735
2014    28      7       2.554381        259.7779
2014    29      0       2.500729        257.6685
2014    29      1       2.383659        255.7713
2014    29      2       2.246548        253.2185
2014    29      3       1.894829        241.9103
2014    29      4       1.477047        220.0191
2014    29      5       1.228571        201.6844
2014    29      6       1.25356         203.68
2014    29      7       1.529926        221.8871
2014    30      0       1.387226        211.4698
2014    30      1       1.276373        203.7438
2014    30      2       1.282841        204.9216
2014    30      3       1.327187        207.9635
2014    30      4       1.328909        207.5898
2014    30      5       1.40416         213.1861
2014    30      6       1.512299        220.1048
2014    30      7       1.592507        224.5706
2015    1       0       2.058246        248.4473
2015    1       1       2.491099        262.0173
2015    1       2       2.597772        264.8391
2015    1       3       2.599724        264.2936
2015    1       4       2.420917        259.886
2015    1       5       2.302637        256.664
2015    1       6       2.306954        256.518
2015    1       7       2.644319        264.4217
2015    2       0       2.668533        264.5457
2015    2       1       3.009446        270.4513
2015    2       2       2.953156        269.6993
2015    2       3       2.999576        269.6349
2015    2       4       2.74555         265.2314
2015    2       5       2.724805        265.0656
2015    2       6       2.803608        266.5419
2015    2       7       2.718609        264.7638
2015    3       0       2.614345        262.6098
2015    3       1       2.852102        268.5333
2015    3       2       2.787497        268.8949
2015    3       3       2.643452        267.0276
2015    3       4       2.385689        260.9689
2015    3       5       2.233681        256.7241
2015    3       6       2.02148         249.6431
2015    3       7       1.885954        244.1413
2015    4       0       2.104555        252.1529
2015    4       1       2.237323        257.1659
2015    4       2       2.115553        253.8253
2015    4       3       2.11736         253.8396
2015    4       4       2.096672        252.3392
2015    4       5       2.054829        249.6457
2015    4       6       2.279602        256.4682
2015    4       7       2.701327        265.6839
2015    5       0       3.121433        271.0206
2015    5       1       3.295364        272.4417
2015    5       2       2.603944        262.2879
2015    5       3       2.440117        258.745
2015    5       4       2.286955        255.1668
2015    5       5       2.091087        248.8228
2015    5       6       2.342651        256.0321
2015    5       7       2.463216        258.4807
2015    6       0       2.276667        253.305
2015    6       1       2.362755        256.7177
2015    6       2       2.161603        250.6487
2015    6       3       1.98701         243.3997
2015    6       4       1.689003        230.3915
2015    6       5       1.425498        215.6206
2015    6       6       1.357422        210.7719
2015    6       7       1.314873        207.537
2015    7       0       1.384602        212.7176
2015    7       1       1.667648        230.7634
2015    7       2       1.704239        233.8278
2015    7       3       1.709995        234.3335
2015    7       4       1.706256        233.727
2015    7       5       1.60288         227.8569
2015    7       6       1.488427        220.6063
2015    7       7       1.341026        210.2291
2015    8       0       1.130414        192.7176
2015    8       1       1.127374        192.4794
2015    8       2       1.041527        185.0279
2015    8       3       0.9783333       178.2027
2015    8       4       0.4904678       112.3315
2015    8       5       0.4368351       103.0472
2015    8       6       0.6467099       137.1707
2015    8       7       0.7488346       150.9232
2015    9       0       1.012401        181.7099
2015    9       1       1.578906        226.0123
2015    9       2       1.482078        220.3376
2015    9       3       1.505942        220.9575
2015    9       4       1.242121        201.5707
2015    9       5       1.121216        191.029
2015    9       6       1.585022        225.1827
2015    9       7       1.399596        212.9372
2015    10      0       1.623245        227.3848
2015    10      1       2.018827        246.3449
2015    10      2       2.219077        254.747
2015    10      3       2.334484        258.3854
2015    10      4       2.331947        258.1019
2015    10      5       2.298295        257.0072
2015    10      6       2.439455        259.8852
2015    10      7       2.509716        260.6821
2015    11      0       2.692704        263.8061
2015    11      1       2.728723        263.8433
2015    11      2       2.592338        260.9767
2015    11      3       2.476084        258.0267
2015    11      4       1.999765        241.3925
2015    11      5       1.620247        223.801
2015    11      6       1.364222        207.4538
2015    11      7       1.126319        188.2486
2015    12      0       0.8946513       164.5796
2015    12      1       1.014257        176.4669
2015    12      2       1.089513        184.0653
2015    12      3       1.270486        198.7307
2015    12      4       1.437787        211.7924
2015    12      5       1.206888        195.266
2015    12      6       0.9761887       174.1838
2015    12      7       1.011951        177.3349
2015    13      0       0.9316868       169.7488
2015    13      1       1.002252        178.0702
2015    13      2       1.116414        189.5933
2015    13      3       1.247575        200.9873
2015    13      4       1.438316        213.5914
2015    13      5       1.566581        221.6279
2015    13      6       1.513129        218.249
2015    13      7       1.349914        207.3119
2015    14      0       1.142221        191.2891
2015    14      1       1.321033        205.9456
2015    14      2       1.517514        219.5572
2015    14      3       1.627254        226.1879
2015    14      4       1.563879        222.6944
2015    14      5       1.561023        224.9745
2015    14      6       1.660113        230.0794
2015    14      7       1.637887        228.1941
2015    15      0       1.326351        207.6951
2015    15      1       1.451642        216.7459
2015    15      2       1.410643        214.6758
2015    15      3       1.320663        208.0761
2015    15      4       1.161712        194.7175
2015    15      5       1.042078        183.438
2015    15      6       0.9990555       178.5389
2015    15      7       1.003858        178.6433
2015    16      0       1.041164        182.1119
2015    16      1       1.236766        200.0252
2015    16      2       1.31015         206.5698
2015    16      3       1.349318        209.7484
2015    16      4       1.307846        206.5285
2015    16      5       1.122713        190.8415
2015    16      6       0.9187461       169.8957
2015    16      7       0.8283544       159.3056
2015    17      0       0.881042        165.8133
2015    17      1       1.411886        213.9528
2015    17      2       1.457697        217.7473
2015    17      3       1.600153        226.2119
2015    17      4       1.693133        230.6865
2015    17      5       1.624326        226.7366
2015    17      6       1.618657        225.9267
2015    17      7       1.5427          221.2662
2015    18      0       1.447352        215.5539
2015    18      1       1.55001         222.8667
2015    18      2       1.516063        221.7887
2015    18      3       1.562049        224.7102
2015    18      4       1.612223        227.1394
2015    18      5       1.561319        223.834
2015    18      6       1.592995        225.514
2015    18      7       1.662332        229.5618
2015    19      0       1.66405         229.1749
2015    19      1       1.644648        228.1503
2015    19      2       1.668107        230.3754
2015    19      3       1.731287        233.9236
2015    19      4       1.708873        232.9217
2015    19      5       1.695005        232.4096
2015    19      6       1.669284        230.9115
2015    19      7       1.643049        229.4007
2015    20      0       1.589062        226.2601
2015    20      1       1.732614        233.8784
2015    20      2       1.74811         235.4136
2015    20      3       1.816304        239.1515
2015    20      4       1.742515        235.4445
2015    20      5       1.676304        231.6961
2015    20      6       1.550289        224.2876
2015    20      7       1.426205        216.1971
2015    21      0       1.409188        215.0094
2015    21      1       1.367922        212.3988
2015    21      2       1.277657        206.3983
2015    21      3       1.237884        203.6896
2015    21      4       1.200126        200.8648
2015    21      5       1.170429        198.3723
2015    21      6       1.191054        200.0372
2015    21      7       1.257581        205.5957
2015    22      0       1.268273        206.3383
2015    22      1       1.478442        221.5124
2015    22      2       1.447561        220.2238
2015    22      3       1.37753         215.6611
2015    22      4       1.319055        211.0727
2015    22      5       1.303953        209.0868
2015    22      6       1.46694         219.3131
2015    22      7       1.624201        227.4312
2015    23      0       1.774869        234.5287
2015    23      1       2.003767        244.4158
2015    23      2       1.987616        243.9785
2015    23      3       1.832976        237.8549
2015    23      4       1.76674         234.8642
2015    23      5       1.543245        223.4491
2015    23      6       1.468371        218.8368
2015    23      7       1.538046        222.9416
2015    24      0       1.544795        223.5917
2015    24      1       1.803944        238.1762
2015    24      2       1.902492        243.2721
2015    24      3       1.988034        246.5441
2015    24      4       1.92327         243.8522
2015    24      5       1.785526        237.7087
2015    24      6       1.782893        236.8916
2015    24      7       1.747521        234.2031
2015    25      0       1.600561        226.4661
2015    25      1       1.904194        241.9315
2015    25      2       2.027621        247.5226
2015    25      3       2.106428        250.3042
2015    25      4       2.088688        249.6287
2015    25      5       2.010297        246.843
2015    25      6       1.740368        235.1112
2015    25      7       1.432774        217.4139
2015    26      0       1.376008        212.7224
2015    26      1       1.455812        218.2211
2015    26      2       1.349907        211.0965
2015    26      3       1.219237        200.587
2015    26      4       1.082938        188.5837
2015    26      5       1.073734        187.6161
2015    26      6       1.058714        185.8112
2015    26      7       1.026995        182.3915
2015    27      0       0.9722271       176.4753
2015    27      1       1.118469        190.9919
2015    27      2       1.126246        192.1026
2015    27      3       0.9936322       179.6786
2015    27      4       0.917998        171.4743
2015    27      5       0.9184941       171.3119
2015    27      6       0.7295784       146.6981
2015    27      7       0.9412422       172.2346
2015    28      0       1.029738        180.5201
2015    28      1       1.1565          192.7155
2015    28      2       1.468476        215.9904
2015    28      3       1.494659        217.3545
2015    28      4       1.322099        204.9045
2015    28      5       1.249782        200.524
2015    28      6       1.028416        180.9505
2015    28      7       0.8144711       157.4084
2015    29      0       0.7961549       154.9897
2015    29      1       1.091249        187.5179
2015    29      2       1.097023        188.0664
2015    29      3       1.073291        184.9814
2015    29      4       1.016412        179.0987
2015    29      5       1.061333        183.7067
2015    29      6       1.260424        198.7436
2015    29      7       1.103845        183.591
2015    30      0       1.307029        201.146
2015    30      1       1.642454        225.2464
2015    30      2       1.562857        223.0268
2015    30      3       1.422836        215.0668
2015    30      4       1.361111        210.911
2015    30      5       1.584602        224.8686
2015    30      6       2.414655        255.9652
2015    30      7       2.555461        258.8727
2016    1       0       1.451443        218.1555
2016    1       1       2.48569         261.2639
2016    1       2       2.434107        260.5025
2016    1       3       1.976495        245.8309
2016    1       4       1.841881        240.2028
2016    1       5       1.83485         240.1274
2016    1       6       2.103685        250.3623
2016    1       7       2.393799        258.1258
2016    2       0       1.84064         239.0428
2016    2       1       2.09678         250.4557
2016    2       2       2.290928        257.9087
2016    2       3       2.349626        259.4746
2016    2       4       2.465022        261.416
2016    2       5       2.425617        259.8201
2016    2       6       2.731671        266.2793
2016    2       7       2.719898        266.52
2016    3       0       2.595035        265.0128
2016    3       1       2.962252        271.3579
2016    3       2       2.875361        270.753
2016    3       3       3.054375        273.3726
2016    3       4       2.96317         272.3581
2016    3       5       2.722145        268.3863
2016    3       6       2.681968        267.0114
2016    3       7       2.685431        266.6262
2016    4       0       2.476301        262.4762
2016    4       1       2.791502        268.8354
2016    4       2       2.893186        271.1571
2016    4       3       2.952738        272.2511
2016    4       4       2.979381        272.4058
2016    4       5       2.869487        270.6582
2016    4       6       2.796778        269.3761
2016    4       7       2.617985        266.1693
2016    5       0       2.601653        265.0193
2016    5       1       2.373291        260.1988
2016    5       2       2.435657        262.3792
2016    5       3       2.419572        261.8521
2016    5       4       2.162336        254.1393
2016    5       5       1.929628        245.2175
2016    5       6       1.786           238.103
2016    5       7       1.754878        236.6663
2016    6       0       1.932927        245.0241
2016    6       1       2.122409        252.7784
2016    6       2       2.258627        257.5814
2016    6       3       2.29364         258.4564
2016    6       4       2.227713        256.2462
2016    6       5       1.946466        245.9706
2016    6       6       1.638809        230.6417
2016    6       7       1.871858        241.7655
2016    7       0       2.069143        249.4266
2016    7       1       2.120386        251.9142
2016    7       2       2.018534        249.1073
2016    7       3       1.976297        247.3983
2016    7       4       2.144           252.7236
2016    7       5       2.330166        257.5227
2016    7       6       2.498502        260.7995
2016    7       7       2.744344        264.7122
2016    8       0       2.994586        268.3822
2016    8       1       2.805979        266.3607
2016    8       2       2.801818        267.3487
2016    8       3       2.51724         262.1851
2016    8       4       2.329553        256.624
2016    8       5       2.172259        251.2922
2016    8       6       2.075137        247.8159
2016    8       7       1.889578        238.5972
2016    9       0       2.134379        247.7848
2016    9       1       2.51556         258.5516
2016    9       2       2.152918        249.5919
2016    9       3       1.904341        241.0673
2016    9       4       1.784848        235.4344
2016    9       5       1.744658        233.2161
2016    9       6       1.7461          232.9909
2016    9       7       1.781442        234.2811
2016    10      0       1.826744        236.0498
2016    10      1       2.091671        246.1873
2016    10      2       2.065772        245.3775
2016    10      3       2.073958        245.6201
2016    10      4       2.216265        249.7524
2016    10      5       2.317864        252.6509
2016    10      6       2.28299         252.271
2016    10      7       2.053966        247.544
2016    11      0       1.906466        241.3665
2016    11      1       2.208953        252.9225
2016    11      2       1.969494        245.4783
2016    11      3       1.912999        243.2983
2016    11      4       2.008237        246.6303
2016    11      5       2.109516        249.7654
2016    11      6       2.291016        255.1319
2016    11      7       2.340091        256.548
2016    12      0       2.444497        258.8462
2016    12      1       2.391339        257.8552
2016    12      2       2.247145        254.7243
2016    12      3       2.114107        251.1655
2016    12      4       2.140017        251.629
2016    12      5       2.156116        251.6533
2016    12      6       2.125977        251.1364
2016    12      7       2.192928        253.1089
2016    13      0       2.194804        252.7409
2016    13      1       2.22769         254.0376
2016    13      2       2.188443        253.3724
2016    13      3       2.190545        253.3938
2016    13      4       2.202832        253.3979
2016    13      5       2.203294        252.7557
2016    13      6       2.112073        249.7156
2016    13      7       2.018437        246.5373
2016    14      0       2.113565        249.84
2016    14      1       2.349699        257.4432
2016    14      2       2.118037        250.9627
2016    14      3       1.924579        243.9962
2016    14      4       1.831119        239.9801
2016    14      5       1.752783        236.1669
2016    14      6       1.604394        227.9821
2016    14      7       1.459642        218.8512
2016    15      0       1.527188        223.0067
2016    15      1       1.578122        226.6895
2016    15      2       1.559044        225.5359
2016    15      3       1.507628        222.2447
2016    15      4       1.537818        224.8044
2016    15      5       1.558233        226.1515
2016    15      6       1.590506        227.8701
2016    15      7       1.562383        226.1858
2016    16      0       1.468652        219.9766
2016    16      1       1.67569         231.6558
2016    16      2       1.58963         227.1967
2016    16      3       1.510757        222.475
2016    16      4       1.677904        232.1684
2016    16      5       1.923283        243.7372
2016    16      6       2.057672        248.1929
2016    16      7       2.032122        247.1664
2016    17      0       1.643545        230.2134
2016    17      1       1.708119        233.471
2016    17      2       1.82953         240.5529
2016    17      3       2.093685        251.2427
2016    17      4       2.401444        259.8489
2016    17      5       2.280351        256.1703
2016    17      6       2.142238        251.3163
2016    17      7       1.962501        244.6668
2016    18      0       1.910009        241.9511
2016    18      1       1.854339        239.9813
2016    18      2       1.825933        238.2136
2016    18      3       1.848845        238.485
2016    18      4       1.707406        231.437
2016    18      5       1.719633        231.4529
2016    18      6       1.692011        229.7602
2016    18      7       1.749647        232.3626
2016    19      0       1.733377        231.5021
2016    19      1       1.72933         231.4687
2016    19      2       1.82259         236.0104
2016    19      3       1.72031         230.4962
2016    19      4       1.399427        211.6525
2016    19      5       0.9429759       172.355
2016    19      6       0.7806732       153.5686
2016    19      7       0.7816473       153.6826
2016    20      0       0.9342573       171.6195
2016    20      1       1.009695        180.1666
2016    20      2       0.9974592       179.3331
2016    20      3       1.010805        180.5512
2016    20      4       0.8575255       163.3999
2016    20      5       0.7003074       143.2849
2016    20      6       0.7650534       151.7635
2016    20      7       0.8620162       163.6696
2016    21      0       0.9430343       172.8787
2016    21      1       1.049934        184.335
2016    21      2       1.131603        192.2377
2016    21      3       1.265865        202.8069
2016    21      4       1.293475        205.0078
2016    21      5       1.257848        201.3649
2016    21      6       1.294277        204.0273
2016    21      7       1.324644        206.3621
2016    22      0       1.376656        210.2464
2016    22      1       1.334364        207.9894
2016    22      2       1.287427        205.0611
2016    22      3       1.270872        204.131
2016    22      4       1.330625        208.4804
2016    22      5       1.416465        214.0067
2016    22      6       1.409768        213.5939
2016    22      7       1.385009        211.874
2016    23      0       1.456791        216.3051
2016    23      1       1.401204        213.1909
2016    23      2       1.378161        212.589
2016    23      3       1.410142        215.0761
2016    23      4       1.454354        217.4988
2016    23      5       1.520266        220.7858
2016    23      6       1.560372        223.0824
2016    23      7       1.619352        226.4094
2016    24      0       1.571242        223.9473
2016    24      1       1.568096        224.6964
2016    24      2       1.563041        225.2357
2016    24      3       1.50543         222.1447
2016    24      4       1.512662        222.7185
2016    24      5       1.546932        224.3188
2016    24      6       1.565885        224.4697
2016    24      7       1.572746        224.0426
2016    25      0       1.535619        221.9481
2016    25      1       1.55872         224.0909
2016    25      2       1.535644        223.8138
2016    25      3       1.537556        223.7428
2016    25      4       1.536542        223.7104
2016    25      5       1.610063        227.3863
2016    25      6       1.642616        228.9951
2016    25      7       1.733582        233.4865
2016    26      0       1.727548        232.8056
2016    26      1       1.99119         244.0345
2016    26      2       1.660217        230.9786
2016    26      3       1.847316        241.3007
2016    26      4       2.332336        258.9176
2016    26      5       2.713476        267.4206
2016    26      6       3.06096         273.1918
2016    26      7       3.530132        277.6487
2016    27      0       3.354494        275.8686
2016    27      1       2.996355        269.8952
2016    27      2       3.140502        271.4981
2016    27      3       3.145227        271.2883
2016    27      4       3.012515        269.5179
2016    27      5       2.972107        268.8464
2016    27      6       2.799361        265.9124
2016    27      7       2.569687        261.5047
2016    28      0       2.386806        257.0387
2016    28      1       2.371151        256.8585
2016    28      2       2.3897          257.3672
2016    28      3       2.449472        258.1601
2016    28      4       2.1154          247.8914
2016    28      5       1.806914        235.3296
2016    28      6       1.555704        222.5724
2016    28      7       1.367842        211.3173
2016    29      0       1.184703        196.8597
2016    29      1       1.301786        206.7818
2016    29      2       1.487507        220.6833
2016    29      3       1.61096         228.231
2016    29      4       1.669642        231.182
2016    29      5       1.573837        224.7387
2016    29      6       1.510891        220.8425
2016    29      7       1.664679        229.872
2016    30      0       1.92014         241.0639
2016    30      1       1.907383        240.2057
2016    30      2       1.78313         235.648
2016    30      3       1.750256        234.4278
2016    30      4       1.823408        237.5638
2016    30      5       1.793055        236.4214
2016    30      6       1.868747        239.6673
2016    30      7       1.728381        233.2142
2017    1       0       1.284753        205.9582
2017    1       1       1.505007        221.4643
2017    1       2       1.530408        223.6718
2017    1       3       1.585308        227.1869
2017    1       4       1.668632        231.2094
2017    1       5       1.817757        237.6159
2017    1       6       1.888844        240.6412
2017    1       7       1.829396        237.9969
2017    2       0       1.647141        228.8232
2017    2       1       1.710303        232.424
2017    2       2       1.703787        233.3611
2017    2       3       1.68018         232.6894
2017    2       4       1.66654         231.8586
2017    2       5       1.657997        230.972
2017    2       6       1.642753        230.1613
2017    2       7       1.656045        230.7684
2017    3       0       1.668317        231.3946
2017    3       1       1.638384        230.2638
2017    3       2       1.640435        231.05
2017    3       3       1.701147        234.5046
2017    3       4       1.691292        233.701
2017    3       5       1.629253        229.8279
2017    3       6       1.545559        224.5394
2017    3       7       1.457061        218.4117
2017    4       0       1.499284        220.9881
2017    4       1       1.81877         239.0056
2017    4       2       1.687629        233.2238
2017    4       3       1.516868        223.5843
2017    4       4       1.518334        223.2068
2017    4       5       1.593213        227.2039
2017    4       6       1.560087        224.67
2017    4       7       1.508386        220.8088
2017    5       0       1.755115        233.8018
2017    5       1       2.23316         253.1505
2017    5       2       2.299089        255.7784
2017    5       3       2.247463        254.9837
2017    5       4       2.171126        252.1097
2017    5       5       2.237301        253.2896
2017    5       6       2.276373        254.4875
2017    5       7       2.398055        257.2804
2017    6       0       2.434961        258.0309
2017    6       1       2.672061        263.2455
2017    6       2       2.817497        266.3375
2017    6       3       2.985731        269.1048
2017    6       4       2.955444        269.0978
2017    6       5       3.141725        272.0267
2017    6       6       3.084841        271.5621
2017    6       7       2.7107          265.8437
2017    7       0       3.066547        271.8721
2017    7       1       2.622282        265.1359
2017    7       2       2.589043        265.4344
2017    7       3       2.439184        262.7703
2017    7       4       2.272409        258.1774
2017    7       5       2.123642        253.2995
2017    7       6       1.939043        245.9183
2017    7       7       1.861605        242.1025
2017    8       0       1.934044        244.6614
2017    8       1       2.029776        249.1799
2017    8       2       2.059435        251.187
2017    8       3       2.052439        251.167
2017    8       4       2.021604        250.1208
2017    8       5       1.957458        247.1852
2017    8       6       1.886545        243.4091
2017    8       7       1.691869        233.5545
2017    9       0       1.588546        227.666
2017    9       1       1.908296        243.7814
2017    9       2       2.090581        251.2846
2017    9       3       2.126329        252.4084
2017    9       4       2.032367        249.4642
2017    9       5       1.980981        247.5871
2017    9       6       2.013995        248.493
2017    9       7       2.022181        248.7294
2017    10      0       2.050742        249.2699
2017    10      1       2.295343        256.534
2017    10      2       2.450782        260.4246
2017    10      3       2.705447        264.6167
2017    10      4       2.214161        251.0201
2017    10      5       2.962163        269.0956
2017    10      6       3.333921        273.8527
2017    10      7       2.532407        258.9103
2017    11      0       2.543573        259.8898
2017    11      1       2.473792        258.9274
2017    11      2       2.152632        251.5152
2017    11      3       1.999954        247.2877
2017    11      4       1.905822        242.8997
2017    11      5       1.698812        233.4419
2017    11      6       1.807752        239.051
2017    11      7       1.695581        233.5401
2017    12      0       1.357206        211.9644
2017    12      1       1.47527         219.3467
2017    12      2       1.325078        209.4388
2017    12      3       1.10227         190.4746
2017    12      4       1.124624        192.3259
2017    12      5       1.120818        191.9936
2017    12      6       0.9604794       175.8365
2017    12      7       0.9269132       172.0338
2017    13      0       0.8309929       160.9034
2017    13      1       0.9506661       174.7945
2017    13      2       1.091221        189.311
2017    13      3       1.154699        195.0479
2017    13      4       1.118424        191.878
2017    13      5       1.097575        190.0732
2017    13      6       1.055591        185.706
2017    13      7       0.9609998       175.5248
2017    14      0       0.9326823       172.6968
2017    14      1       1.285052        205.6137
2017    14      2       1.537222        222.4348
2017    14      3       1.451506        217.1821
2017    14      4       1.317621        208.2958
2017    14      5       1.03919         183.4672
2017    14      6       0.9057044       169.1014
2017    14      7       1.254696        202.5336
2017    15      0       1.502541        219.431
2017    15      1       1.737264        232.7775
2017    15      2       1.659783        228.8762
2017    15      3       1.585504        224.2431
2017    15      4       1.43706         213.9896
2017    15      5       1.226924        198.2966
2017    15      6       1.388457        210.943
2017    15      7       1.498576        218.4086
2017    16      0       1.649751        227.4956
2017    16      1       1.878919        239.912
2017    16      2       1.88109         240.7363
2017    16      3       1.874938        239.8658
2017    16      4       1.76413         234.1412
2017    16      5       1.82371         236.5537
2017    16      6       1.731117        231.9809
2017    16      7       1.777412        234.1903
2017    17      0       1.803357        236.0632
2017    17      1       2.03211         246.2882
2017    17      2       1.809731        238.1496
2017    17      3       1.575756        226.5491
2017    17      4       1.536973        223.7521
2017    17      5       1.446726        217.2872
2017    17      6       1.670067        230.5233
2017    17      7       1.823491        238.1097
2017    18      0       1.778434        235.7567
2017    18      1       1.850257        239.3244
2017    18      2       1.904664        242.2625
2017    18      3       1.908446        242.5065
2017    18      4       1.87195         240.4712
2017    18      5       1.787976        236.0809
2017    18      6       1.901544        240.4682
2017    18      7       1.527552        220.9164
2017    19      0       1.201631        197.9653
2017    19      1       2.06841         247.8642
2017    19      2       2.6352          264.5543
2017    19      3       2.217319        253.874
2017    19      4       1.788229        235.5939
2017    19      5       0.8182463       159.0927
2017    19      6       0.7895305       154.6872
2017    19      7       0.7121182       144.3847
2017    20      0       0.7133972       144.7129
2017    20      1       0.9762119       176.0267
2017    20      2       1.099153        188.9094
2017    20      3       1.159172        194.4356
2017    20      4       1.151582        193.7221
2017    20      5       1.144098        193.0989
2017    20      6       1.109039        189.7037
2017    20      7       1.068659        185.8175
2017    21      0       1.023411        181.4694
2017    21      1       1.143277        193.1736
2017    21      2       1.157776        195.1304
2017    21      3       1.116226        191.6734
2017    21      4       1.136498        193.4665
2017    21      5       1.237694        202.0587
2017    21      6       1.289781        205.8497
2017    21      7       1.292092        205.5764
2017    22      0       1.280491        204.5827
2017    22      1       1.540188        222.2774
2017    22      2       1.606148        226.3664
2017    22      3       1.476317        219.0559
2017    22      4       1.187785        197.6972
2017    22      5       1.013483        181.8492
2017    22      6       2.703515        265.4047
2017    22      7       2.392696        257.7237
2017    23      0       1.668866        230.2612
2017    23      1       1.622971        228.347
2017    23      2       1.438768        217.4432
2017    23      3       1.311762        208.3086
2017    23      4       1.180169        197.4511
2017    23      5       0.9832588       178.1085
2017    23      6       1.247497        201.9711
2017    23      7       2.47023         259.1202
2017    24      0       2.662657        263.2648
2017    24      1       2.913871        268.6163
2017    24      2       2.699751        264.8781
2017    24      3       2.418659        258.5323
2017    24      4       2.077402        248.4865
2017    24      5       1.750024        234.704
2017    24      6       1.648877        229.3492
2017    24      7       1.741953        233.9947
2017    25      0       1.718116        232.8453
2017    25      1       2.048253        247.1565
2017    25      2       2.203364        253.0922
2017    25      3       2.185771        252.8366
2017    25      4       2.10125         250.0614
2017    25      5       2.016603        247.0553
2017    25      6       2.016075        247.3151
2017    25      7       2.103904        250.3076
2017    26      0       2.079018        249.3812
2017    26      1       2.232086        254.6823
2017    26      2       2.383699        259.8241
2017    26      3       2.639152        265.5539
2017    26      4       2.884348        269.0272
2017    26      5       1.844833        238.6703
2017    26      6       1.746838        234.5002
2017    26      7       2.262489        254.715
2017    27      0       2.632825        263.4472
2017    27      1       2.64389         263.2915
2017    27      2       2.398616        258.1217
2017    27      3       2.075822        247.0625
2017    27      4       1.872457        238.3198
2017    27      5       1.685711        228.6712
2017    27      6       1.510919        218.4821
2017    27      7       1.044417        181.8317
2017    28      0       0.7698478       150.6183
2017    28      1       0.8201635       156.8609
2017    28      2       1.098688        187.6644
2017    28      3       0.7376861       147.1333
2017    28      4       0.5967671       127.1144
2017    28      5       0.5491216       119.3324
2017    28      6       0.5502682       119.1754
2017    28      7       0.3855113       90.81883
2017    29      0       0.5014372       110.7852
2017    29      1       0.8398727       158.2846
2017    29      2       0.9731498       173.6978
2017    29      3       1.009514        177.5899
2017    29      4       1.052916        181.7973
2017    29      5       1.207508        195.3277
2017    29      6       1.536622        219.5674
2017    29      7       1.91224         239.0965
2017    30      0       2.058232        245.5341
2017    30      1       2.32788         254.501
2017    30      2       2.124972        249.8015
2017    30      3       1.720616        233.6586
2017    30      4       1.062828        187.3112
2017    30      5       0.8260165       161.3865
2017    30      6       0.7987356       157.1184
2017    30      7       0.6752301       138.3509
2018    1       0       1.704754        234.289
2018    1       1       2.189387        254.769
2018    1       2       2.239311        257.5179
2018    1       3       2.174392        255.8656
2018    1       4       1.974529        247.9529
2018    1       5       1.660797        233.5938
2018    1       6       1.436724        219.5111
2018    1       7       1.313602        210.4785
2018    2       0       1.352446        212.6671
2018    2       1       1.747078        236.5213
2018    2       2       1.926403        245.9115
2018    2       3       2.07912         252.1237
2018    2       4       2.628138        266.889
2018    2       5       3.347415        277.0211
2018    2       6       3.909565        281.4451
2018    2       7       4.444233        284.6243
2018    3       0       4.251338        283.8597
2018    3       1       4.824236        286.2718
2018    3       2       4.520219        285.5691
2018    3       3       4.249712        283.8986
2018    3       4       3.940134        281.8831
2018    3       5       3.572681        278.999
2018    3       6       2.624693        266.5903
2018    3       7       2.241665        256.745
2018    4       0       1.925371        244.634
2018    4       1       2.037115        249.5538
2018    4       2       2.094295        252.852
2018    4       3       1.818958        241.4032
2018    4       4       1.787247        239.341
2018    4       5       1.712996        235.5953
2018    4       6       1.54226         225.498
2018    4       7       1.545578        225.5462
2018    5       0       1.499114        222.484
2018    5       1       1.911446        244.5145
2018    5       2       1.976251        247.6189
2018    5       3       1.956776        246.6625
2018    5       4       1.537686        225.5291
2018    5       5       1.383432        215.2512
2018    5       6       1.543582        224.8397
2018    5       7       1.6505          229.8733
2018    6       0       1.720571        232.7796
2018    6       1       2.503199        261.9965
2018    6       2       2.814304        268.5857
2018    6       3       2.182284        253.1206
2018    6       4       1.684353        231.7935
2018    6       5       2.2287          254.9719
2018    6       6       2.872891        269.5989
2018    6       7       1.544533        224.0974
2018    7       0       1.187509        197.4637
2018    7       1       1.557514        223.7541
2018    7       2       1.549193        223.9818
2018    7       3       1.25398         203.0559
2018    7       4       1.202587        198.7341
2018    7       5       1.110821        190.4424
2018    7       6       1.004032        179.9335
2018    7       7       0.9674616       176.0964
2018    8       0       0.9642809       175.6292
2018    8       1       1.201715        198.0615
2018    8       2       1.381038        212.5275
2018    8       3       1.434366        216.2989
2018    8       4       1.312178        207.1447
2018    8       5       1.243755        201.5543
2018    8       6       1.168211        195.0022
2018    8       7       1.119779        190.6301
2018    9       0       1.131417        191.6082
2018    9       1       1.318274        207.106
2018    9       2       1.429459        215.5832
2018    9       3       1.676991        230.1998
2018    9       4       1.757061        234.0073
2018    9       5       1.710909        231.4847
2018    9       6       1.718907        231.6088
2018    9       7       1.708144        230.8724
2018    10      0       1.645455        227.6067
2018    10      1       1.696371        231.0962
2018    10      2       1.547513        223.8412
2018    10      3       1.482301        220.1045
2018    10      4       1.381182        212.8054
2018    10      5       1.228526        200.8654
2018    10      6       1.086151        188.1764
2018    10      7       1.059212        185.2348
2018    11      0       1.193717        197.1278
2018    11      1       1.716379        230.9824
2018    11      2       1.798048        235.3591
2018    11      3       1.694135        230.6952
2018    11      4       1.733409        231.4509
2018    11      5       1.600428        224.1206
2018    11      6       1.52665         219.6172
2018    11      7       1.412579        212.6865
2018    12      0       1.369891        210.1989
2018    12      1       1.553257        223.0209
2018    12      2       1.692632        231.9201
2018    12      3       1.73843         234.8578
2018    12      4       1.763887        236.3529
2018    12      5       1.867088        241.0828
2018    12      6       2.224245        253.7572
2018    12      7       2.504708        260.7536
2018    13      0       2.38958         257.4639
2018    13      1       2.347569        256.1007
2018    13      2       2.219735        254.2414
2018    13      3       2.178289        253.6488
2018    13      4       2.193375        254.1583
2018    13      5       2.367836        258.9686
2018    13      6       2.439427        260.1132
2018    13      7       2.387452        258.8784
2018    14      0       2.258228        254.6802
2018    14      1       2.640914        264.3795
2018    14      2       3.093491        272.5267
2018    14      3       3.296805        275.0368
2018    14      4       3.174796        273.451
2018    14      5       2.345458        258.1785
2018    14      6       2.164321        252.4815
2018    14      7       2.051128        248.4865
2018    15      0       2.107289        250.0298
2018    15      1       2.785648        267.1099
2018    15      2       3.408467        275.3753
2018    15      3       3.349661        275.3051
2018    15      4       2.78713         267.8584
2018    15      5       2.899657        269.0892
2018    15      6       2.653793        264.2274
2018    15      7       2.902958        268.2218
2018    16      0       2.744859        265.1367
2018    16      1       2.907989        268.4621
2018    16      2       3.457528        275.8442
2018    16      3       3.721297        278.0385
2018    16      4       3.121541        271.7006
2018    16      5       2.302949        255.2072
2018    16      6       1.56114         223.0438
2018    16      7       1.283431        203.839
2018    17      0       0.9735184       176.1947
2018    17      1       0.9954276       179.7068
2018    17      2       1.04983         186.0759
2018    17      3       1.087112        189.7474
2018    17      4       1.147329        194.9128
2018    17      5       1.187719        198.265
2018    17      6       1.173312        196.0853
2018    17      7       1.224197        199.4552
2018    18      0       1.492985        218.1004
2018    18      1       1.825677        236.001
2018    18      2       1.778271        235.0456
2018    18      3       1.7691          234.9057
2018    18      4       1.772853        234.9569
2018    18      5       1.690919        231.2655
2018    18      6       1.643654        228.7023
2018    18      7       1.583675        224.5556
2018    19      0       1.485272        218.722
2018    19      1       1.959805        243.1457
2018    19      2       2.263881        253.428
2018    19      3       2.416063        257.2292
2018    19      4       2.493676        259.0764
2018    19      5       2.465053        258.8914
2018    19      6       2.647756        262.9285
2018    19      7       2.94677         267.8233
2018    20      0       3.020012        268.6078
2018    20      1       2.766721        264.9982
2018    20      2       2.575939        262.1776
2018    20      3       2.484258        260.2037
2018    20      4       2.427168        259.0113
2018    20      5       2.506794        260.2138
2018    20      6       2.796536        264.767
2018    20      7       2.77817         263.9884
2018    21      0       2.801717        263.9993
2018    21      1       2.671184        262.3468
2018    21      2       2.318159        256.1327
2018    21      3       2.096643        250.0996
2018    21      4       2.12381         250.2319
2018    21      5       2.227016        253.2713
2018    21      6       2.432127        258.4113
2018    21      7       1.35971         210.8244
2018    22      0       0.7709699       153.1571
2018    22      1       1.112796        190.2245
2018    22      2       1.143934        193.2528
2018    22      3       1.0465          184.0864
2018    22      4       0.9537709       174.539
2018    22      5       0.8836249       166.6701
2018    22      6       1.189563        195.2157
2018    22      7       1.750807        229.692
2018    23      0       1.820828        233.0512
2018    23      1       1.525982        219.7042
2018    23      2       1.379531        211.163
2018    23      3       1.11792         190.5859
2018    23      4       1.002438        178.4674
2018    23      5       0.9876175       176.8129
2018    23      6       0.941636        171.9391
2018    23      7       0.8233929       157.6574
2018    24      0       0.7766239       151.6226
2018    24      1       0.9289649       169.7809
2018    24      2       0.9749085       174.868
2018    24      3       0.9734969       174.6669
2018    24      4       0.9331124       170.2559
2018    24      5       0.9241584       169.1701
2018    24      6       0.9161576       168.3213
2018    24      7       0.8967854       166.0216
2018    25      0       0.9073706       167.1965
2018    25      1       1.110041        187.8449
2018    25      2       1.159382        192.9308
2018    25      3       1.167176        193.6059
2018    25      4       1.213815        196.8996
2018    25      5       1.307519        203.7121
2018    25      6       1.555399        219.0227
2018    25      7       1.623291        222.78
2018    26      0       1.47393         214.5528
2018    26      1       1.394032        209.9561
2018    26      2       1.33088         205.3732
2018    26      3       1.328783        204.7032
2018    26      4       1.208005        195.168
2018    26      5       1.074795        183.7232
2018    26      6       1.041438        180.8486
2018    26      7       1.039503        180.6955
2018    27      0       1.093878        186.1302
2018    27      1       1.201038        196.1872
2018    27      2       1.175312        194.628
2018    27      3       1.171916        194.6288
2018    27      4       1.172786        194.3957
2018    27      5       1.070689        184.877
2018    27      6       1.0192          179.4843
2018    27      7       1.10651         186.4266
2018    28      0       1.209616        194.4414
2018    28      1       1.473072        213.6035
2018    28      2       1.533069        218.7009
2018    28      3       1.536817        219.5545
2018    28      4       1.604034        223.6604
2018    28      5       1.577358        222.4736
2018    28      6       1.481466        216.786
2018    28      7       1.419892        213.0555
2018    29      0       1.35498         208.8075
2018    29      1       1.506008        218.7682
2018    29      2       1.464467        216.8461
2018    29      3       1.323753        208.0623
2018    29      4       1.349025        210.0107
2018    29      5       1.400152        213.4331
2018    29      6       1.382113        211.9373
2018    29      7       1.426662        214.2487
2018    30      0       1.602769        224.9866
2018    30      1       1.466293        216.5145
2018    30      2       0.8424642       161.0465
2018    30      3       0.6747285       138.456
2018    30      4       0.7084663       142.2024
2018    30      5       0.7701829       149.982
2018    30      6       0.8443836       157.6206
2018    30      7       0.8836228       161.4047
