####################################################################################################
# Month: 09Sep                                                                                     #
# Station: SPX                                                                                     #
# Frequency: 345 GHz                                                                               #
# Columns are: year    day     tau     Tb (K)                                                      #
####################################################################################################
2009    1       0.65345191      124.31841
2009    2       1.07349414      173.346725
2009    3       1.1113595       176.7362
2009    4       0.47985869      100.929355
2009    5       0.25222098      62.4479975
2009    6       0.32070369      75.71324625
2009    7       0.3422371       79.53714375
2009    8       0.32889661      78.1177725
2009    9       0.25746039      63.45682125
2009    10      0.3554217       80.5599175
2009    11      0.46970522      101.70483
2009    12      0.51404491      108.75529125
2009    13      0.36603711      83.78493
2009    14      0.32200476      75.04502625
2009    15      0.83889974      147.935575
2009    16      1.3840805       198.1710625
2009    17      1.01507213      166.13536125
2009    18      0.51372687      106.96101625
2009    19      1.1279381       177.3065875
2009    20      0.87217439      151.8454125
2009    21      0.7114657       135.6674125
2009    22      0.32992128      77.84522
2009    23      0.64156015      127.8295375
2009    24      0.67254299      127.81424375
2009    25      0.5792915       117.97540625
2009    26      0.59806885      118.483475
2009    27      0.92616425      159.2925125
2009    28      0.40150528      88.22218
2009    29      0.54812456      114.118035
2009    30      0.51866714      110.3845875
2010    1       0.5747232       118.2778625
2010    2       0.73636994      138.4952625
2010    3       0.48780276      96.3842325
2010    4       0.29052479      69.47264875
2010    5       0.48425335      101.6101
2010    6       0.95714625      159.08595
2010    7       1.2319819       186.4658875
2010    8       0.8025359       142.3963075
2010    9       0.39321472      86.71839625
2010    10      0.48002111      100.35350375
2010    11      0.48873286      105.023885
2010    12      0.69571929      128.19368375
2010    13      0.37418075      80.65239375
2010    14      0.86998225      153.6627625
2010    15      0.82564556      146.97135
2010    16      0.41445618      90.53063375
2010    17      0.65195561      126.19514125
2010    18      0.15026913      40.51870875
2010    19      0.46487686      98.73713375
2010    20      0.57957771      118.304875
2010    21      0.53296501      112.0294125
2010    22      0.44045352      96.80001875
2010    23      0.56439642      115.54598125
2010    24      0.93409991      159.0114375
2010    25      0.66896251      126.04923
2010    26      0.22264386      55.825405
2010    27      0.49901171      104.421045
2010    28      0.547728        106.33214875
2010    29      0.30998852      71.29313625
2010    30      0.82054496      146.11315
2011    1       1.44214712      200.9177875
2011    2       1.10382852      174.04395
2011    3       1.24923307      177.1221
2011    4       1.89234238      226.39985
2011    5       0.65997971      112.45119
2011    6       0.49283839      105.3360975
2011    7       1.06126219      171.6526875
2011    8       0.85591131      152.833075
2011    9       0.63500616      128.922275
2011    10      0.40003579      91.318765
2011    11      0.86333286      146.878575
2011    12      0.52458046      105.4012025
2011    13      0.33784471      78.81386
2011    14      0.28868956      68.4232025
2011    15      0.236759        59.57072875
2011    16      0.76953599      136.7059325
2011    17      0.91374248      157.8236875
2011    18      0.71895816      127.28195875
2011    19      0.29046671      67.71731125
2011    20      0.28533789      69.09379625
2011    21      0.48218478      101.55994125
2011    22      0.51334442      105.47253
2011    23      0.34958501      81.23257625
2011    24      0.41267731      90.9213
2011    25      0.74293437      140.0034375
2011    26      0.51480994      109.11743875
2011    27      0.45492216      98.73319875
2011    28      0.34189171      80.66358125
2011    29      0.32546582      76.77897375
2011    30      0.51900426      109.97427875
2012    1       0.73038622      135.6604875
2012    2       0.74890222      139.36135
2012    3       0.9365688       162.149075
2012    4       0.58326945      114.36876625
2012    5       0.7373018       138.8262375
2012    6       0.34075612      75.77237
2012    7       0.37102021      85.112915
2012    8       0.30954054      74.198095
2012    9       0.58675331      117.06022375
2012    10      0.72534852      136.1668875
2012    11      1.1280098       175.188375
2012    12      0.96688846      157.56755
2012    13      0.26674788      64.2328625
2012    14      0.50315979      105.48292875
2012    15      0.48945718      106.59073625
2012    16      0.42937628      96.05951625
2012    17      0.56761388      115.3873775
2012    18      0.91868141      152.7333125
2012    19      0.33372359      63.79423375
2012    20      0.36143625      80.43953625
2012    21      0.62261885      119.8069875
2012    22      1.19358256      184.105
2012    23      0.7480052       141.318375
2012    24      0.69603351      121.3717075
2012    25      0.6194652       120.5560575
2012    26      0.93698035      156.68715
2012    27      0.36342055      80.939785
2012    28      0.35758622      80.10226375
2012    29      1.28084225      190.563225
2012    30      1.0030842       166.9897125
2013    1       0.49386761      103.23098625
2013    2       0.97138274      162.6027
2013    3       0.46627906      102.4046975
2013    4       0.52128562      111.52285
2013    5       0.48983691      106.5227625
2013    6       0.74989525      139.5466
2013    7       1.15709101      179.027875
2013    8       1.3458547       194.4145375
2013    9       0.44080139      94.623365
2013    10      0.4644597       97.96323375
2013    11      0.42658065      90.19658125
2013    12      0.56946258      115.2327775
2013    13      0.46722978      95.9769225
2013    14      1.10261736      176.0913
2013    15      1.02047311      167.1506375
2013    16      0.83784528      145.94562125
2013    17      0.54463174      104.63873625
2013    18      0.85091969      151.9002875
2013    19      0.66858729      122.14421375
2013    20      0.36065118      82.09023625
2013    21      0.43671179      95.6589675
2013    22      0.54526002      106.53570625
2013    23      0.18396931      49.8122425
2013    24      0.21472634      56.35780375
2013    25      0.54714489      102.67353
2013    26      1.42816275      201.4468125
2013    27      1.09289054      176.4765
2013    28      1.222943        186.0338875
2013    29      1.37657288      197.55095
2013    30      1.10319415      176.716375
2014    1       0.26015398      63.26448375
2014    2       0.36254812      84.4947975
2014    3       0.88642731      150.2180525
2014    4       1.11823104      175.9060375
2014    5       1.27296825      190.8127625
2014    6       0.76650982      142.7735375
2014    7       0.90937346      157.930675
2014    8       1.01603819      169.4812625
2014    9       1.22239764      185.417025
2014    10      0.73813896      139.463075
2014    11      0.29660886      72.0460125
2014    12      0.8417261       143.24522375
2014    13      0.52700819      108.42830625
2014    14      0.27783589      69.23229625
2014    15      0.51142384      98.97965875
2014    16      0.91443982      157.36165
2014    17      1.15251776      177.4619625
2014    18      1.38233912      198.2767
2014    19      1.03791025      170.5778625
2014    20      1.16717535      179.872025
2014    21      1.37167862      195.6831375
2014    22      0.15658048      42.49448125
2014    23      0.53234499      110.5131675
2014    24      0.74646452      138.386325
2014    25      0.33739254      76.1674325
2014    26      0.545258        108.8045425
2014    27      0.4281326       96.19438625
2014    28      0.34050989      80.84004875
2014    29      0.83050631      140.2760825
2014    30      1.54041438      208.55225
2015    1       1.25813339      186.548575
2015    2       0.3185636       74.47429
2015    3       0.55957296      114.32458875
2015    4       0.27338706      66.79341875
2015    5       0.46415812      97.12790375
2015    6       0.40765265      90.76912625
2015    7       0.27871616      67.69311375
2015    8       0.14674508      40.67214625
2015    9       0.18530396      49.17863875
2015    10      0.27083814      65.0315475
2015    11      0.33678922      77.334115
2015    12      0.64037398      124.45158125
2015    13      1.02815798      167.8443625
2015    14      0.67090685      124.624105
2015    15      0.85310102      146.2926875
2015    16      1.00218935      163.5655
2015    17      0.90630071      149.7387625
2015    18      0.58758193      114.82233375
2015    19      0.32555974      73.27499875
2015    20      0.2885621       68.1444575
2015    21      0.44183519      97.53884125
2015    22      0.90073968      156.135675
2015    23      0.41126866      88.41346
2015    24      0.26284789      64.343895
2015    25      0.33654048      78.957985
2015    26      0.20181756      52.63553625
2015    27      0.18451585      48.71464625
2015    28      0.08177143      26.11347625
2015    29      0.35037626      79.93345
2015    30      0.1628839       43.97433
2016    1       0.47214822      98.21983375
2016    2       0.70328164      133.9077125
2016    3       1.13127979      177.53095
2016    4       1.03858821      164.21231375
2016    5       1.10241989      165.478545
2016    6       0.18849849      50.22628625
2016    7       0.25352189      64.66279875
2016    8       0.26494364      66.54222875
2016    9       0.27969596      68.33538
2016    10      0.46300014      99.26501375
2016    11      0.6234295       124.6982375
2016    12      0.74646859      137.332825
2016    13      0.72964674      138.222075
2016    14      0.6740671       132.506175
2016    15      1.13002646      177.1318125
2016    16      0.92148619      156.12765
2016    17      0.73295175      136.818525
2016    18      1.10719675      175.859875
2016    19      0.37449529      85.28784875
2016    20      0.54709269      111.29847375
2016    21      0.680367        130.056675
2016    22      0.2929028       70.68317875
2016    23      0.55849078      113.5925875
2016    24      0.18893602      49.24313625
2016    25      0.24612571      60.7442725
2016    26      0.63443107      124.08325
2016    27      0.74408429      136.2547175
2016    28      0.5635683       111.61144
2016    29      0.68221204      134.5840375
2016    30      0.27345133      66.16863875
2017    1       0.69431765      132.607825
2017    2       0.76705099      138.881925
2017    3       0.27584155      66.0100575
2017    4       0.91062394      155.86335
2017    5       0.91303918      159.088375
2017    6       0.38924711      85.65398
2017    7       0.58565616      117.3540625
2017    8       0.62381975      122.94773
2017    9       1.14356882      178.8014125
2017    10      0.60754706      119.1565075
2017    11      0.33537275      75.280875
2017    12      0.46525729      94.7288825
2017    13      0.58583032      115.4258975
2017    14      0.43600568      88.022125
2017    15      0.23129479      57.41272125
2017    16      0.41482374      90.3872775
2017    17      0.50671166      103.305025
2017    18      0.27935045      66.69014375
2017    19      0.31519851      71.6911725
2017    20      0.24118178      58.99579125
2017    21      0.49912172      104.5457825
2017    22      0.81152432      145.844975
2017    23      0.49892028      102.57642375
2017    24      0.34213511      76.5048675
2017    25      0.27401061      66.33177625
2017    26      0.7733269       140.116975
2017    27      0.61403456      121.93167
2017    28      0.73612922      138.095275
2017    29      0.99907062      167.77635
2017    30      1.02933745      168.6463125
2018    1       0.78318795      142.1779
2018    2       0.83504741      148.3052875
2018    3       0.46016111      99.28482125
2018    4       0.4778289       102.53528875
2018    5       0.49511858      105.65921
2018    6       1.0233281       166.7173375
2018    7       0.57106515      111.36300625
2018    8       0.25801571      63.827875
2018    9       0.28869941      69.5015675
2018    10      0.62841284      124.1646375
2018    11      0.96774391      168.0759
2018    12      0.6839183       132.2629625
2018    13      1.11455145      172.1385
2018    14      0.49182236      99.37148625
2018    15      0.19629199      51.66473625
2018    16      0.4647222       95.700205
2018    17      0.5197844       109.1204875
2018    18      0.76945276      137.38491625
2018    19      0.73790236      138.1088625
2018    20      0.51296969      108.4892675
2018    21      0.78520279      138.46428875
2018    22      1.319256        192.63525
2018    23      1.08694608      177.090525
2018    24      0.21135265      53.84638
2018    25      0.21281914      55.15698875
2018    26      0.3050456       73.16863375
2018    27      0.37615259      87.9060225
2018    28      0.36169637      81.0901075
2018    29      0.41036974      89.7931525
2018    30      0.66394709      123.88680375
