####################################################################################################
# Month: 09Sep                                                                                     #
# Station: BAR                                                                                     #
# Frequency: 345 GHz                                                                               #
# Columns are: year    day     segment         tau     Tb (K)                                      #
####################################################################################################
2009    1       0       0.9192003       162.3091
2009    1       1       0.7027518       137.3916
2009    1       2       0.6417667       129.3092
2009    1       3       0.5041799       109.0295
2009    1       4       0.3378579       80.40207
2009    1       5       0.2833431       70.06432
2009    1       6       0.2985825       73.20195
2009    1       7       0.5040036       108.8713
2009    2       0       0.5550826       116.7688
2009    2       1       0.4915958       107.1613
2009    2       2       0.6173976       125.6999
2009    2       3       0.9265093       162.7293
2009    2       4       0.8554164       155.2291
2009    2       5       0.7436407       142.2943
2009    2       6       0.8024559       149.3169
2009    2       7       1.121392        180.8756
2009    3       0       1.395299        201.1132
2009    3       1       1.29576         194.1867
2009    3       2       1.207468        187.7245
2009    3       3       1.102776        179.3376
2009    3       4       0.9523683       165.4903
2009    3       5       0.8095958       150.5143
2009    3       6       0.8908794       159.4488
2009    3       7       1.286321        194.0933
2009    4       0       1.439029        204.6215
2009    4       1       1.117696        181.6052
2009    4       2       0.9269681       163.6462
2009    4       3       0.9027003       160.8843
2009    4       4       0.9439109       165.0521
2009    4       5       1.028846        173.0389
2009    4       6       1.083664        177.3716
2009    4       7       1.403688        201.7429
2009    5       0       1.344765        196.6481
2009    5       1       0.7272094       138.4999
2009    5       2       0.4255105       95.44587
2009    5       3       0.2931906       72.0793
2009    5       4       0.2416051       61.76539
2009    5       5       0.1910262       51.22237
2009    5       6       0.1909643       51.44597
2009    5       7       0.3385111       80.99468
2009    6       0       0.4618215       101.8021
2009    6       1       0.5073604       109.3267
2009    6       2       0.5123133       110.0127
2009    6       3       0.5495721       114.5797
2009    6       4       0.5859054       120.8165
2009    6       5       0.6491704       130.1906
2009    6       6       0.7169325       139.4186
2009    6       7       0.7362437       142.0834
2009    7       0       0.7285597       141.2009
2009    7       1       0.6426304       130.3598
2009    7       2       0.5896924       122.9636
2009    7       3       0.6276085       127.989
2009    7       4       0.6776456       134.5941
2009    7       5       0.7239639       140.4731
2009    7       6       0.6924031       136.5879
2009    7       7       0.7636261       145.0472
2009    8       0       0.8771542       157.5198
2009    8       1       0.7226369       140.345
2009    8       2       0.4785105       106.3682
2009    8       3       0.4485649       101.3031
2009    8       4       0.3965484       92.30902
2009    8       5       0.3494358       83.72665
2009    8       6       0.3786505       88.85051
2009    8       7       0.4340403       98.50621
2009    9       0       0.5320096       114.0202
2009    9       1       0.50245         109.4849
2009    9       2       0.4543148       101.7616
2009    9       3       0.4759762       105.257
2009    9       4       0.4554437       101.5763
2009    9       5       0.4013851       92.17735
2009    9       6       0.3915475       90.45722
2009    9       7       0.4617744       102.4307
2009    10      0       0.6013463       123.7069
2009    10      1       0.6936883       136.5405
2009    10      2       0.5582952       117.9371
2009    10      3       0.3912324       90.94905
2009    10      4       0.2552169       65.18083
2009    10      5       0.193215        51.96462
2009    10      6       0.2058185       54.45736
2009    10      7       0.2909816       71.61664
2009    11      0       0.4022486       91.8794
2009    11      1       0.4262684       95.7535
2009    11      2       0.5966066       122.7459
2009    11      3       0.7429004       142.3587
2009    11      4       0.7849227       147.6307
2009    11      5       0.7568162       144.6289
2009    11      6       0.7029075       138.074
2009    11      7       0.7354035       142.3173
2009    12      0       0.8486281       155.5515
2009    12      1       0.8784281       158.7358
2009    12      2       1.064662        177.5735
2009    12      3       1.273594        194.334
2009    12      4       1.166261        185.1682
2009    12      5       1.09664         179.2912
2009    12      6       1.039761        174.4998
2009    12      7       1.477629        206.8866
2009    13      0       1.541249        210.4744
2009    13      1       1.110855        180.6053
2009    13      2       1.12767         181.7525
2009    13      3       1.034254        174.0049
2009    13      4       0.5322028       112.8429
2009    13      5       0.4089613       92.50239
2009    13      6       0.523741        111.4566
2009    13      7       0.7710167       145.2087
2009    14      0       0.7646256       144.4019
2009    14      1       0.5861772       120.0783
2009    14      2       0.5542154       113.9976
2009    14      3       0.4990423       106.2925
2009    14      4       0.3913502       89.68266
2009    14      5       0.2966146       72.55816
2009    14      6       0.2750654       68.67866
2009    14      7       0.4268114       96.33773
2009    15      0       0.5022236       108.6203
2009    15      1       0.4151216       94.4961
2009    15      2       0.2531433       64.53654
2009    15      3       0.207709        55.40708
2009    15      4       0.2329465       60.29902
2009    15      5       0.2481801       63.29527
2009    15      6       0.2319006       60.27137
2009    15      7       0.2762254       69.66702
2009    16      0       0.3409543       82.1493
2009    16      1       0.3497195       83.68398
2009    16      2       0.3498743       84.07264
2009    16      3       0.2709083       68.93682
2009    16      4       0.2608875       66.77436
2009    16      5       0.2958646       73.33155
2009    16      6       0.3177791       77.47114
2009    16      7       0.3799071       89.39469
2009    17      0       0.4832791       106.8001
2009    17      1       0.4808405       106.025
2009    17      2       0.3894798       90.76051
2009    17      3       0.3250483       79.11816
2009    17      4       0.2878684       71.92804
2009    17      5       0.2971908       73.3121
2009    17      6       0.3990136       90.81132
2009    17      7       0.65953         131.3517
2009    18      0       0.8498896       156.0385
2009    18      1       0.8989262       161.5711
2009    18      2       0.7661873       146.7639
2009    18      3       0.6205535       127.6591
2009    18      4       0.6275122       128.4753
2009    18      5       0.6600655       132.8776
2009    18      6       0.6290272       128.7688
2009    18      7       0.7916063       149.6622
2009    19      0       1.136231        184.0407
2009    19      1       1.347862        200.1068
2009    19      2       1.207712        190.1649
2009    19      3       1.111773        182.3549
2009    19      4       1.080606        179.2565
2009    19      5       1.00507         171.84
2009    19      6       0.9627074       167.6169
2009    19      7       1.275098        193.4834
2009    20      0       1.247336        191.5222
2009    20      1       0.8466187       155.1264
2009    20      2       0.7391113       142.518
2009    20      3       0.6810143       135.1863
2009    20      4       0.5479586       116.4317
2009    20      5       0.3864128       90.1538
2009    20      6       0.3059833       74.99092
2009    20      7       0.2764118       69.82327
2009    21      0       0.3170215       77.2616
2009    21      1       0.2613164       66.10224
2009    21      2       0.2060042       54.61615
2009    21      3       0.2258181       58.62457
2009    21      4       0.2367584       61.10486
2009    21      5       0.2344512       60.72458
2009    21      6       0.2122287       56.29759
2009    21      7       0.2079778       55.49883
2009    22      0       0.2093918       55.56051
2009    22      1       0.200876        53.41872
2009    22      2       0.1755803       48.04109
2009    22      3       0.1634498       45.48217
2009    22      4       0.1651918       45.69705
2009    22      5       0.2022357       53.21955
2009    22      6       0.2666261       66.63452
2009    22      7       0.3414312       81.52978
2009    23      0       0.3833196       89.43873
2009    23      1       0.4103246       94.62863
2009    23      2       0.3676969       87.03057
2009    23      3       0.3543485       84.38039
2009    23      4       0.3555417       84.55073
2009    23      5       0.3537238       84.18624
2009    23      6       0.3493262       83.4439
2009    23      7       0.3639109       86.27604
2009    24      0       0.3141258       77.24816
2009    24      1       0.2801819       70.65873
2009    24      2       0.381751        89.55871
2009    24      3       0.4078672       93.91041
2009    24      4       0.3271759       79.34043
2009    24      5       0.2419133       62.60226
2009    24      6       0.2128281       56.40373
2009    24      7       0.2633281       66.77447
2009    25      0       0.2728168       68.72737
2009    25      1       0.2470747       63.50583
2009    25      2       0.2638957       66.91
2009    25      3       0.2827631       70.76851
2009    25      4       0.2660973       67.45041
2009    25      5       0.2351091       61.05511
2009    25      6       0.2154286       56.88431
2009    25      7       0.2405926       62.19828
2009    26      0       0.2715658       68.50414
2009    26      1       0.2989672       73.91569
2009    26      2       0.3549342       84.53149
2009    26      3       0.3673239       86.80636
2009    26      4       0.3600214       85.52098
2009    26      5       0.3326466       80.38023
2009    26      6       0.2909507       72.02759
2009    26      7       0.3292777       79.02452
2009    27      0       0.3754475       87.54358
2009    27      1       0.3352377       80.3271
2009    27      2       0.2972313       73.17785
2009    27      3       0.3042437       74.51104
2009    27      4       0.308544        75.31895
2009    27      5       0.3127268       76.01398
2009    27      6       0.3025477       74.08249
2009    27      7       0.3379492       80.75558
2009    28      0       0.3936453       90.72768
2009    28      1       0.396621        91.32148
2009    28      2       0.3542065       83.7149
2009    28      3       0.3502276       82.50442
2009    28      4       0.4326688       96.12518
2009    28      5       0.5023092       107.2787
2009    28      6       0.4965821       106.3205
2009    28      7       0.6650732       130.1362
2009    29      0       0.862276        153.0339
2009    29      1       0.8525536       152.1629
2009    29      2       0.7877081       145.1422
2009    29      3       0.559446        115.5439
2009    29      4       0.5444966       113.3702
2009    29      5       0.5455166       113.6018
2009    29      6       0.5241828       110.518
2009    29      7       0.668944        130.9641
2009    30      0       0.3716746       85.60143
2009    30      1       0.1028555       31.30617
2009    30      2       0.04135999      16.36996
2009    30      3       0.05621375      20.10263
2009    30      4       0.09740538      29.98941
2009    30      5       0.1121146       33.48693
2009    30      6       0.1155063       34.22878
2009    30      7       0.1042259       31.7049
2010    1       0       0.3654858       85.60641
2010    1       1       0.4036702       92.49427
2010    1       2       0.3927524       90.60527
2010    1       3       0.3716279       87.32762
2010    1       4       0.3949343       91.42633
2010    1       5       0.4431388       99.65008
2010    1       6       0.4551411       101.7521
2010    1       7       0.4520914       101.5529
2010    2       0       0.491269        108.0099
2010    2       1       0.4898484       107.8628
2010    2       2       0.4763803       105.7636
2010    2       3       0.4802718       106.346
2010    2       4       0.4816679       106.4271
2010    2       5       0.4657311       103.7186
2010    2       6       0.4072341       93.85089
2010    2       7       0.3671806       86.80164
2010    3       0       0.4372882       99.30635
2010    3       1       0.4365072       99.49076
2010    3       2       0.3782378       89.55704
2010    3       3       0.2826162       71.57032
2010    3       4       0.2106845       56.80544
2010    3       5       0.1706338       47.97567
2010    3       6       0.1655029       46.83455
2010    3       7       0.2823944       71.44689
2010    4       0       0.3696512       88.00505
2010    4       1       0.3546712       85.53852
2010    4       2       0.3130402       77.92912
2010    4       3       0.2457628       64.46468
2010    4       4       0.1838472       50.99155
2010    4       5       0.1203396       36.34434
2010    4       6       0.1023457       32.03484
2010    4       7       0.1669068       47.018
2010    5       0       0.1915421       52.42118
2010    5       1       0.1637082       46.23129
2010    5       2       0.1181884       35.66657
2010    5       3       0.09533751      30.13971
2010    5       4       0.08227346      26.82456
2010    5       5       0.08698903      27.87313
2010    5       6       0.09053102      28.67668
2010    5       7       0.126517        37.24577
2010    6       0       0.1765239       48.70974
2010    6       1       0.1763706       48.76554
2010    6       2       0.1562002       44.08766
2010    6       3       0.1886766       51.20496
2010    6       4       0.1671583       46.70529
2010    6       5       0.1676457       46.87005
2010    6       6       0.184721        50.59793
2010    6       7       0.2353221       61.39766
2010    7       0       0.3788132       88.89006
2010    7       1       0.4351725       98.6866
2010    7       2       0.3710063       87.68052
2010    7       3       0.3445259       82.46976
2010    7       4       0.2620779       66.35844
2010    7       5       0.1897993       51.28191
2010    7       6       0.1948846       52.51299
2010    7       7       0.4038599       92.7563
2010    8       0       0.465638        103.0027
2010    8       1       0.333138        80.18081
2010    8       2       0.2719386       68.37742
2010    8       3       0.2543417       64.32088
2010    8       4       0.3171347       75.93191
2010    8       5       0.4291909       95.58539
2010    8       6       0.4622807       101.0362
2010    8       7       0.7729391       143.3323
2010    9       0       0.8349204       149.961
2010    9       1       0.4509851       98.53368
2010    9       2       0.1554337       43.07585
2010    9       3       0.1269518       36.76555
2010    9       4       0.127924        37.11259
2010    9       5       0.1366703       39.10916
2010    9       6       0.1100276       32.97975
2010    9       7       0.2157393       56.19634
2010    10      0       0.3186932       76.48601
2010    10      1       0.2729973       68.2217
2010    10      2       0.2061125       54.62736
2010    10      3       0.2232256       58.06675
2010    10      4       0.2668963       66.81355
2010    10      5       0.3044955       74.34178
2010    10      6       0.3252242       78.32485
2010    10      7       0.2914385       72.23674
2010    11      0       0.2809688       70.42345
2010    11      1       0.243314        63.07246
2010    11      2       0.2112015       56.25973
2010    11      3       0.2451003       62.99072
2010    11      4       0.2525119       64.36023
2010    11      5       0.207157        54.93666
2010    11      6       0.1411282       40.21586
2010    11      7       0.158989        44.15934
2010    12      0       0.2914651       71.75702
2010    12      1       0.3120917       75.83308
2010    12      2       0.2207927       57.73003
2010    12      3       0.2018908       53.5517
2010    12      4       0.1693769       46.65003
2010    12      5       0.1122019       33.75078
2010    12      6       0.1414014       40.51158
2010    12      7       0.303741        74.19001
2010    13      0       0.3811786       87.90304
2010    13      1       0.307269        74.44082
2010    13      2       0.1700003       46.7013
2010    13      3       0.1084196       32.58489
2010    13      4       0.1344902       38.09838
2010    13      5       0.1564811       42.94796
2010    13      6       0.1928662       50.45882
2010    13      7       0.2948505       70.71183
2010    14      0       0.3093464       74.13973
2010    14      1       0.2282039       58.68406
2010    14      2       0.1687798       46.03189
2010    14      3       0.1581321       43.7144
2010    14      4       0.1742783       47.4068
2010    14      5       0.1703217       46.80366
2010    14      6       0.1639978       45.42274
2010    14      7       0.2400104       61.35732
2010    15      0       0.3080929       74.79084
2010    15      1       0.3232616       77.84212
2010    15      2       0.269754        67.90393
2010    15      3       0.2286259       59.23877
2010    15      4       0.229035        58.93571
2010    15      5       0.2162085       56.08039
2010    15      6       0.2138167       55.80092
2010    15      7       0.2685884       67.39878
2010    16      0       0.3265442       78.26294
2010    16      1       0.3488651       82.28119
2010    16      2       0.3238579       77.93726
2010    16      3       0.3520257       83.13565
2010    16      4       0.3827653       88.7562
2010    16      5       0.4012611       92.11544
2010    16      6       0.4012794       91.98299
2010    16      7       0.3863135       89.62837
2010    17      0       0.4233213       96.28692
2010    17      1       0.4783566       105.7699
2010    17      2       0.4635086       103.3819
2010    17      3       0.3907399       90.76082
2010    17      4       0.2895446       71.93262
2010    17      5       0.205616        54.80737
2010    17      6       0.2005868       53.37751
2010    17      7       0.2443128       62.97402
2010    18      0       0.2873378       71.36592
2010    18      1       0.3058281       74.24789
2010    18      2       0.2960476       71.90385
2010    18      3       0.2275901       58.53853
2010    18      4       0.2169768       56.33506
2010    18      5       0.2026761       53.54847
2010    18      6       0.1281162       37.63477
2010    18      7       0.1975886       53.26463
2010    19      0       0.2371692       61.79163
2010    19      1       0.1964498       53.32483
2010    19      2       0.1303835       38.32036
2010    19      3       0.1019639       31.44423
2010    19      4       0.1036996       31.94829
2010    19      5       0.1053696       32.17854
2010    19      6       0.1249654       36.88929
2010    19      7       0.1730449       47.77287
2010    20      0       0.2121789       56.02096
2010    20      1       0.1300163       38.07624
2010    20      2       0.106048        32.53009
2010    20      3       0.1223472       36.14946
2010    20      4       0.1267291       37.23181
2010    20      5       0.1329396       38.69458
2010    20      6       0.1379773       39.61072
2010    20      7       0.2182972       57.01258
2010    21      0       0.2403434       61.8462
2010    21      1       0.2170157       57.15767
2010    21      2       0.2234104       58.31159
2010    21      3       0.2147561       56.44617
2010    21      4       0.1630254       45.55678
2010    21      5       0.1462257       41.75386
2010    21      6       0.1507879       42.61614
2010    21      7       0.192877        51.93863
2010    22      0       0.2003496       53.48051
2010    22      1       0.1836595       49.25057
2010    22      2       0.268805        66.19517
2010    22      3       0.4545618       98.84003
2010    22      4       0.710554        134.6707
2010    22      5       0.8203513       147.9168
2010    22      6       0.738193        138.5445
2010    22      7       0.6714116       130.8617
2010    23      0       0.502045        107.716
2010    23      1       0.2596669       65.86512
2010    23      2       0.1362521       39.50099
2010    23      3       0.1354023       39.04921
2010    23      4       0.1758384       47.81128
2010    23      5       0.2067071       54.32073
2010    23      6       0.2091292       54.65494
2010    23      7       0.2651373       66.64619
2010    24      0       0.3740055       87.44729
2010    24      1       0.3739148       87.50156
2010    24      2       0.3211441       77.6015
2010    24      3       0.2718836       67.87654
2010    24      4       0.2510245       63.693
2010    24      5       0.2282489       58.97428
2010    24      6       0.2110079       55.57084
2010    24      7       0.2139613       56.48994
2010    25      0       0.2013798       54.18115
2010    25      1       0.1537665       43.82385
2010    25      2       0.1378708       40.2534
2010    25      3       0.1301443       38.56923
2010    25      4       0.1280502       38.13784
2010    25      5       0.1226839       36.87423
2010    25      6       0.1222968       36.72425
2010    25      7       0.1296552       38.41111
2010    26      0       0.1497789       43.09092
2010    26      1       0.1377416       40.31384
2010    26      2       0.1376439       40.19151
2010    26      3       0.1484392       42.57183
2010    26      4       0.1495612       42.85059
2010    26      5       0.1344516       39.40846
2010    26      6       0.1351066       39.40982
2010    26      7       0.1987825       53.67122
2010    27      0       0.2609272       66.56092
2010    27      1       0.2261651       59.34109
2010    27      2       0.2055237       54.69304
2010    27      3       0.2269501       58.86709
2010    27      4       0.213506        55.99757
2010    27      5       0.1847251       49.96984
2010    27      6       0.18045         49.14497
2010    27      7       0.2212615       57.95651
2010    28      0       0.2566454       65.63048
2010    28      1       0.1988953       53.84438
2010    28      2       0.2464243       64.0695
2010    28      3       0.3207098       78.71452
2010    28      4       0.3947865       91.59749
2010    28      5       0.4210073       95.90662
2010    28      6       0.4027899       92.6416
2010    28      7       0.5582313       117.3313
2010    29      0       0.7131472       138.9923
2010    29      1       0.6925172       136.7881
2010    29      2       0.6497823       131.2324
2010    29      3       0.5866556       122.2201
2010    29      4       0.4174439       95.13267
2010    29      5       0.3290246       79.1789
2010    29      6       0.3132883       76.09924
2010    29      7       0.3715533       86.65946
2010    30      0       0.4362743       97.69156
2010    30      1       0.4139544       93.71093
2010    30      2       0.381371        87.76112
2010    30      3       0.4488702       98.4518
2010    30      4       0.5056821       106.9537
2010    30      5       0.553008        114.5258
2010    30      6       0.8262751       149.8236
2010    30      7       1.006394        168.8961
2011    1       0       0.4719832       104.6217
2011    1       1       0.4939368       108.3551
2011    1       2       0.423265        96.93289
2011    1       3       0.3366459       81.50498
2011    1       4       0.2638306       67.29605
2011    1       5       0.2409737       62.20157
2011    1       6       0.338561        81.02362
2011    1       7       0.527192        112.7476
2011    2       0       0.6147308       125.8152
2011    2       1       0.5945818       123.614
2011    2       2       0.3487016       84.14091
2011    2       3       0.2289369       60.6325
2011    2       4       0.1912212       52.39776
2011    2       5       0.1452579       42.06443
2011    2       6       0.1159152       35.18972
2011    2       7       0.2071837       55.84943
2011    3       0       0.3529826       84.57928
2011    3       1       0.4208229       96.40747
2011    3       2       0.3846286       90.22072
2011    3       3       0.3218826       78.76148
2011    3       4       0.2581211       66.23288
2011    3       5       0.2818781       70.79111
2011    3       6       0.3935593       91.5258
2011    3       7       0.513152        111.2808
2011    4       0       0.7635689       145.3533
2011    4       1       0.8412612       154.4817
2011    4       2       0.674804        134.4975
2011    4       3       0.509889        111.0024
2011    4       4       0.4288987       97.77325
2011    4       5       0.4088186       94.36228
2011    4       6       0.4269887       97.42525
2011    4       7       0.620171        126.4959
2011    5       0       0.843478        153.3508
2011    5       1       0.8960565       158.6737
2011    5       2       0.9852313       167.776
2011    5       3       1.096274        178.2926
2011    5       4       0.7041004       137.1036
2011    5       5       0.6223367       126.1867
2011    5       6       0.6326493       127.5814
2011    5       7       0.8416583       153.3058
2011    6       0       0.9410625       163.8675
2011    6       1       0.9400983       163.7989
2011    6       2       0.7495282       142.9444
2011    6       3       0.5199309       111.8797
2011    6       4       0.3822236       89.10534
2011    6       5       0.3351891       80.56578
2011    6       6       0.3559414       84.46914
2011    6       7       0.5506749       116.7569
2011    7       0       0.6599093       132.2204
2011    7       1       0.6694912       133.8332
2011    7       2       0.460967        102.8427
2011    7       3       0.46714         103.5961
2011    7       4       0.4384711       98.57987
2011    7       5       0.3951112       90.74861
2011    7       6       0.4629439       102.0859
2011    7       7       0.6818521       134.8034
2011    8       0       0.878529        158.531
2011    8       1       0.9398608       165.0541
2011    8       2       0.9338146       164.2807
2011    8       3       0.8774711       157.9081
2011    8       4       0.8437644       153.9938
2011    8       5       0.9240635       162.1539
2011    8       6       0.8924042       158.943
2011    8       7       1.043185        173.7486
2011    9       0       1.09039         178.2707
2011    9       1       1.032668        173.1092
2011    9       2       0.9097471       161.3559
2011    9       3       0.8344804       153.2448
2011    9       4       0.9093927       160.8151
2011    9       5       1.011855        170.4672
2011    9       6       1.108929        179.0954
2011    9       7       1.268042        191.687
2011    10      0       1.146654        182.5945
2011    10      1       1.303607        194.214
2011    10      2       1.264234        191.6243
2011    10      3       1.127933        180.91
2011    10      4       1.172711        183.9143
2011    10      5       1.054836        173.6025
2011    10      6       0.891288        157.6201
2011    10      7       0.9083128       159.8053
2011    11      0       0.9533578       164.6248
2011    11      1       1.228131        188.9637
2011    11      2       1.174714        184.4566
2011    11      3       0.867172        154.2074
2011    11      4       0.747993        139.4307
2011    11      5       0.8562535       151.7884
2011    11      6       1.241103        185.9524
2011    11      7       1.372648        195.7459
2011    12      0       1.354332        195.6322
2011    12      1       1.257465        189.6384
2011    12      2       1.06667         174.103
2011    12      3       0.8135033       148.3343
2011    12      4       0.6529747       128.5664
2011    12      5       0.5907964       119.9533
2011    12      6       0.5429777       113.2366
2011    12      7       0.8127615       149.1463
2011    13      0       1.035596        172.1721
2011    13      1       1.074343        175.7
2011    13      2       1.105201        177.9697
2011    13      3       0.9451232       162.7926
2011    13      4       0.8240572       149.294
2011    13      5       0.7285517       137.6944
2011    13      6       0.742718        139.4511
2011    13      7       0.9552584       162.8546
2011    14      0       1.035879        171.0366
2011    14      1       0.8992358       157.9065
2011    14      2       1.03209         169.9793
2011    14      3       1.031713        169.6818
2011    14      4       0.9164772       158.9155
2011    14      5       0.7603074       142.3987
2011    14      6       0.9050917       158.2405
2011    14      7       0.8984853       158.3483
2011    15      0       0.9486061       163.9722
2011    15      1       0.7729788       145.1865
2011    15      2       0.6379431       128.103
2011    15      3       0.701794        136.2726
2011    15      4       0.7299255       139.7025
2011    15      5       0.7001857       136.095
2011    15      6       0.7811863       145.6028
2011    15      7       1.035382        172.4817
2011    16      0       1.150675        183.1141
2011    16      1       1.033311        172.7081
2011    16      2       0.7875418       146.5297
2011    16      3       0.7373944       139.601
2011    16      4       0.7694825       143.3924
2011    16      5       0.7158266       137.7456
2011    16      6       0.6226249       125.7919
2011    16      7       0.7549054       142.706
2011    17      0       0.8574605       153.9428
2011    17      1       0.7516648       142.1378
2011    17      2       0.4604825       101.5527
2011    17      3       0.2932044       71.73348
2011    17      4       0.2992169       72.73055
2011    17      5       0.3523597       82.5578
2011    17      6       0.5786003       118.8845
2011    17      7       0.6613309       130.6218
2011    18      0       0.6607169       130.7397
2011    18      1       0.5764527       119.4151
2011    18      2       0.4826328       105.2165
2011    18      3       0.4393377       97.97312
2011    18      4       0.3928735       89.95648
2011    18      5       0.3794582       87.61167
2011    18      6       0.3643292       84.87741
2011    18      7       0.3867036       89.00201
2011    19      0       0.5457263       115.0659
2011    19      1       0.5890304       121.8269
2011    19      2       0.5165346       111.0297
2011    19      3       0.5039297       108.897
2011    19      4       0.4948588       107.2104
2011    19      5       0.4581868       101.1427
2011    19      6       0.4006272       91.41597
2011    19      7       0.4987501       107.6444
2011    20      0       0.7451924       141.7222
2011    20      1       0.7978508       148.311
2011    20      2       0.6817304       134.4446
2011    20      3       0.5687135       118.641
2011    20      4       0.5348531       113.4108
2011    20      5       0.5091316       109.3349
2011    20      6       0.4530304       100.4329
2011    20      7       0.5089962       109.2793
2011    21      0       0.7285456       139.2963
2011    21      1       0.7132776       137.11
2011    21      2       0.5465251       114.4992
2011    21      3       0.4616278       101.2834
2011    21      4       0.4657116       101.9106
2011    21      5       0.4360195       97.10543
2011    21      6       0.4243302       95.25623
2011    21      7       0.5077315       108.7187
2011    22      0       0.6714505       131.6213
2011    22      1       0.7077216       136.2242
2011    22      2       0.6606016       130.6934
2011    22      3       0.6135446       124.4386
2011    22      4       0.5983305       122.3918
2011    22      5       0.5446037       114.6982
2011    22      6       0.4526704       100.4875
2011    22      7       0.447979        99.84734
2011    23      0       0.4635707       102.5732
2011    23      1       0.4263788       96.48626
2011    23      2       0.4307039       97.35876
2011    23      3       0.4336616       97.73241
2011    23      4       0.408778        93.3119
2011    23      5       0.4132642       94.04841
2011    23      6       0.4867874       106.1714
2011    23      7       0.6989779       136.1952
2011    24      0       0.7237648       139.1934
2011    24      1       0.5963203       122.291
2011    24      2       0.6283509       126.6224
2011    24      3       0.741675        141.1004
2011    24      4       0.7416181       140.9485
2011    24      5       0.7193213       138.2211
2011    24      6       0.8948477       157.9614
2011    24      7       0.9746599       165.3134
2011    25      0       0.751412        139.7407
2011    25      1       0.5740893       117.2555
2011    25      2       0.4624116       100.9851
2011    25      3       0.7609912       144.0132
2011    25      4       0.4302901       96.52994
2011    25      5       0.3200244       76.57612
2011    25      6       0.4964051       107.3173
2011    25      7       0.7224547       139.0661
2011    26      0       1.095039        177.4896
2011    26      1       0.9109606       160.632
2011    26      2       0.7782055       146.2796
2011    26      3       0.7378614       141.7759
2011    26      4       0.564704        118.3925
2011    26      5       0.4584535       101.5509
2011    26      6       0.4497589       100.2787
2011    26      7       0.5196293       112.0772
2011    27      0       0.6119602       125.8988
2011    27      1       0.5975421       123.8149
2011    27      2       0.5609983       118.4038
2011    27      3       0.5176244       111.5572
2011    27      4       0.4933281       107.4705
2011    27      5       0.4717127       104.0681
2011    27      6       0.4613319       102.4974
2011    27      7       0.491851        107.7632
2011    28      0       0.5557411       117.9061
2011    28      1       0.6439039       130.8687
2011    28      2       0.6694273       134.1639
2011    28      3       0.608245        125.5102
2011    28      4       0.5044148       109.4585
2011    28      5       0.4569458       101.6292
2011    28      6       0.4025366       92.43134
2011    28      7       0.3860033       89.62412
2011    29      0       0.3814457       89.01265
2011    29      1       0.3596257       85.08091
2011    29      2       0.3328136       79.93649
2011    29      3       0.3635609       85.60273
2011    29      4       0.4070866       93.28141
2011    29      5       0.4609695       102.2817
2011    29      6       0.4852111       106.0967
2011    29      7       0.6418818       129.4785
2011    30      0       0.7229078       140.3434
2011    30      1       0.6711815       133.761
2011    30      2       0.4882872       106.8201
2011    30      3       0.5193334       111.5165
2011    30      4       0.7455666       142.717
2011    30      5       0.8092933       149.8553
2011    30      6       0.9072296       160.6739
2011    30      7       1.301623        194.9742
2012    1       0       0.9408418       165.4257
2012    1       1       0.4836475       106.6331
2012    1       2       0.1984117       53.61907
2012    1       3       0.162084        45.42125
2012    1       4       0.1342572       38.80449
2012    1       5       0.1618667       44.53346
2012    1       6       0.2420145       61.77777
2012    1       7       0.3418127       81.45958
2012    2       0       0.4668046       102.8219
2012    2       1       0.4691438       103.4088
2012    2       2       0.3735538       87.54778
2012    2       3       0.358949        84.75564
2012    2       4       0.3367097       80.413
2012    2       5       0.3101125       75.48631
2012    2       6       0.2550825       64.87834
2012    2       7       0.3314347       79.51978
2012    3       0       0.4023329       92.3696
2012    3       1       0.3887379       90.35743
2012    3       2       0.2880843       72.04814
2012    3       3       0.1947209       52.9606
2012    3       4       0.12765         37.87367
2012    3       5       0.08720757      28.23878
2012    3       6       0.08784064      28.41953
2012    3       7       0.1373271       40.09233
2012    4       0       0.1428814       41.31538
2012    4       1       0.1352398       39.55343
2012    4       2       0.1894775       51.61767
2012    4       3       0.3210621       78.25735
2012    4       4       0.4009519       92.70293
2012    4       5       0.581091        121.2672
2012    4       6       0.7549993       144.3246
2012    4       7       0.9263238       163.1995
2012    5       0       0.9720356       167.9746
2012    5       1       0.9373666       164.5968
2012    5       2       0.8833472       159.0792
2012    5       3       0.8185675       152.0139
2012    5       4       0.8154924       151.5496
2012    5       5       0.9321345       163.8239
2012    5       6       1.081563        177.8603
2012    5       7       1.283768        193.4741
2012    6       0       1.470547        206.1222
2012    6       1       1.286054        194.1428
2012    6       2       1.148685        184.373
2012    6       3       1.16024         185.7683
2012    6       4       0.8002384       150.2645
2012    6       5       0.6627452       132.5851
2012    6       6       1.128431        182.3669
2012    6       7       1.439389        205.1705
2012    7       0       1.379791        202.0413
2012    7       1       1.036114        175.6476
2012    7       2       0.8475511       156.4985
2012    7       3       0.8134327       152.6736
2012    7       4       0.8404997       155.7204
2012    7       5       0.7367288       143.2581
2012    7       6       0.7878252       150.0313
2012    7       7       0.9281785       165.3825
2012    8       0       1.123278        183.6278
2012    8       1       1.049732        177.181
2012    8       2       0.8780725       160.0159
2012    8       3       0.6769073       135.6403
2012    8       4       0.5252038       113.5923
2012    8       5       0.570544        120.1527
2012    8       6       0.9401627       165.5793
2012    8       7       1.420503        204.3141
2012    9       0       1.485905        208.352
2012    9       1       1.35805         200.3942
2012    9       2       1.390879        202.7192
2012    9       3       1.35485         200.5547
2012    9       4       1.172789        187.1562
2012    9       5       0.9710082       169.2864
2012    9       6       0.8530459       157.1622
2012    9       7       1.271422        195.4186
2012    10      0       1.573469        214.8902
2012    10      1       1.373938        202.5158
2012    10      2       1.032659        175.3198
2012    10      3       0.6312376       129.5785
2012    10      4       0.4249127       97.54428
2012    10      5       0.3523603       84.41146
2012    10      6       0.360062        85.84025
2012    10      7       0.7148374       140.1287
2012    11      0       1.11471         181.7953
2012    11      1       1.316775        197.6098
2012    11      2       0.7845723       148.8894
2012    11      3       0.5976899       124.0686
2012    11      4       0.488131        106.7487
2012    11      5       0.4120305       93.9006
2012    11      6       0.5642675       117.6693
2012    11      7       1.043372        173.1597
2012    12      0       0.973517        166.8619
2012    12      1       0.5178154       111.1743
2012    12      2       0.253049        64.72902
2012    12      3       0.2376266       61.46581
2012    12      4       0.2284759       59.50533
2012    12      5       0.1943509       52.13962
2012    12      6       0.1651085       45.69108
2012    12      7       0.2275643       59.26623
2012    13      0       0.3249949       78.54461
2012    13      1       0.2260256       59.10691
2012    13      2       0.1513393       42.80911
2012    13      3       0.1521177       42.87007
2012    13      4       0.1406448       40.06118
2012    13      5       0.1149594       34.06003
2012    13      6       0.1071203       32.0887
2012    13      7       0.112007        33.33308
2012    14      0       0.1203873       35.04845
2012    14      1       0.1198454       34.49957
2012    14      2       0.1268911       36.30261
2012    14      3       0.1328102       37.96353
2012    14      4       0.1160504       34.18729
2012    14      5       0.1021647       31.10702
2012    14      6       0.1098596       32.74331
2012    14      7       0.1653952       45.30698
2012    15      0       0.2543542       64.05175
2012    15      1       0.2316585       59.80811
2012    15      2       0.2031701       53.65956
2012    15      3       0.1936893       51.66242
2012    15      4       0.162675        45.2627
2012    15      5       0.1502141       42.68714
2012    15      6       0.1630975       45.77599
2012    15      7       0.3503175       83.62924
2012    16      0       0.5110008       110.509
2012    16      1       0.507917        110.2163
2012    16      2       0.3912199       91.05726
2012    16      3       0.2888325       72.03007
2012    16      4       0.265502        67.41422
2012    16      5       0.2529413       64.70479
2012    16      6       0.2915099       72.16798
2012    16      7       0.4784603       104.8194
2012    17      0       0.737369        141.0177
2012    17      1       0.8502533       154.4672
2012    17      2       0.8544889       155.0913
2012    17      3       0.7750234       145.6847
2012    17      4       0.6612198       131.2847
2012    17      5       0.4675876       102.8001
2012    17      6       0.3175642       76.89251
2012    17      7       0.3685159       86.31185
2012    18      0       0.4123183       94.26915
2012    18      1       0.3227332       78.30028
2012    18      2       0.1982673       53.40343
2012    18      3       0.2023715       54.25111
2012    18      4       0.2288934       59.78057
2012    18      5       0.222818        58.56083
2012    18      6       0.2276098       59.67157
2012    18      7       0.3419483       82.09991
2012    19      0       0.4006998       92.60707
2012    19      1       0.3631274       86.01549
2012    19      2       0.3335412       80.82314
2012    19      3       0.3424708       82.33459
2012    19      4       0.3650297       86.1672
2012    19      5       0.3555922       84.6281
2012    19      6       0.3033285       74.99966
2012    19      7       0.3822326       89.60706
2012    20      0       0.5147174       111.7852
2012    20      1       0.5430693       116.2138
2012    20      2       0.4942745       108.8121
2012    20      3       0.4502174       101.6536
2012    20      4       0.4829649       106.6291
2012    20      5       0.5522884       116.3176
2012    20      6       0.5715437       119.0663
2012    20      7       0.7854007       147.5035
2012    21      0       0.9482788       165.7529
2012    21      1       0.9142672       162.66
2012    21      2       0.9795122       169.7211
2012    21      3       1.116883        182.5305
2012    21      4       1.103014        181.3364
2012    21      5       0.9379827       165.8447
2012    21      6       0.8588473       156.8901
2012    21      7       0.852359        156.1296
2012    22      0       0.9951642       171.0467
2012    22      1       1.022743        173.4924
2012    22      2       1.021466        173.1932
2012    22      3       1.025448        173.7505
2012    22      4       0.9168809       162.8245
2012    22      5       0.9917263       170.1867
2012    22      6       1.082014        178.5527
2012    22      7       1.317693        196.6835
2012    23      0       1.471991        206.2963
2012    23      1       1.267138        192.0166
2012    23      2       1.191484        185.9441
2012    23      3       1.026728        171.7485
2012    23      4       0.7982613       148.1195
2012    23      5       0.6799064       133.7386
2012    23      6       0.5905454       121.8079
2012    23      7       0.8617857       155.4698
2012    24      0       0.8935546       158.7369
2012    24      1       0.6981836       135.0143
2012    24      2       0.7205144       137.0406
2012    24      3       0.7869682       145.2616
2012    24      4       0.7703783       144.4028
2012    24      5       0.5325942       112.9735
2012    24      6       0.3370568       80.34792
2012    24      7       0.3986211       91.56732
2012    25      0       0.4141039       94.36619
2012    25      1       0.3522867       83.25221
2012    25      2       0.3117143       75.99448
2012    25      3       0.3509702       82.6206
2012    25      4       0.33849         80.07782
2012    25      5       0.2654005       66.78528
2012    25      6       0.2696506       67.61239
2012    25      7       0.4246625       95.55232
2012    26      0       0.5128155       109.4004
2012    26      1       0.3952299       90.54266
2012    26      2       0.2898792       71.39415
2012    26      3       0.243063        61.70456
2012    26      4       0.2371198       60.46351
2012    26      5       0.2238358       57.85217
2012    26      6       0.2080847       54.68829
2012    26      7       0.3137743       76.16168
2012    27      0       0.4816735       105.4107
2012    27      1       0.5194544       111.5183
2012    27      2       0.4128097       94.32219
2012    27      3       0.3433505       82.00318
2012    27      4       0.2694315       67.77239
2012    27      5       0.2312305       59.8656
2012    27      6       0.2534126       64.34558
2012    27      7       0.3334817       79.85285
2012    28      0       0.4245598       95.92645
2012    28      1       0.4535782       100.6562
2012    28      2       0.4406926       98.41324
2012    28      3       0.4410161       98.29976
2012    28      4       0.3937322       89.9586
2012    28      5       0.3466327       81.29563
2012    28      6       0.3909025       89.24369
2012    28      7       0.4926676       106.1877
2012    29      0       0.6613367       130.6024
2012    29      1       0.6780443       132.8382
2012    29      2       0.5738874       118.7304
2012    29      3       0.5221968       110.9416
2012    29      4       0.4842035       104.7783
2012    29      5       0.4188848       93.84252
2012    29      6       0.3973316       90.09616
2012    29      7       0.5106614       108.8369
2012    30      0       0.5099453       109.3563
2012    30      1       0.4372698       97.90801
2012    30      2       0.328817        78.79687
2012    30      3       0.325117        77.77903
2012    30      4       0.4045583       91.57849
2012    30      5       0.4586148       100.6797
2012    30      6       0.430925        96.78207
2012    30      7       0.4334826       97.80498
2013    1       0       2.086878        238.3869
2013    1       1       2.032578        236.6963
2013    1       2       1.666303        220.9952
2013    1       3       1.369562        203.3853
2013    1       4       1.087312        181.5184
2013    1       5       1.327125        200.6689
2013    1       6       1.85974         229.0022
2013    1       7       2.278437        243.2388
2013    2       0       2.22042         241.0851
2013    2       1       1.88251         229.0971
2013    2       2       1.852363        227.5465
2013    2       3       1.834588        226.7452
2013    2       4       1.587863        214.5849
2013    2       5       1.52924         210.3145
2013    2       6       1.313174        196.4404
2013    2       7       1.28527         194.8468
2013    3       0       1.299139        196.0828
2013    3       1       1.286476        193.9977
2013    3       2       1.619388        214.245
2013    3       3       1.768338        222.421
2013    3       4       1.683833        218.2742
2013    3       5       1.585886        212.9862
2013    3       6       1.435682        203.8363
2013    3       7       1.615466        214.8414
2013    4       0       1.52196         209.8396
2013    4       1       1.213056        188.8885
2013    4       2       0.9366233       164.8502
2013    4       3       0.816923        152.1112
2013    4       4       0.8078199       150.7298
2013    4       5       0.7486584       143.5411
2013    4       6       0.7022079       138.0151
2013    4       7       0.9207899       163.5381
2013    5       0       1.142969        184.3426
2013    5       1       0.9650617       168.2641
2013    5       2       0.499953        109.4584
2013    5       3       0.4198478       96.24533
2013    5       4       0.3186912       77.99459
2013    5       5       0.2676394       68.24443
2013    5       6       0.3821287       90.23879
2013    5       7       0.5605747       119.2915
2013    6       0       0.600316        125.1521
2013    6       1       0.4828531       107.2101
2013    6       2       0.3251119       79.24136
2013    6       3       0.2939721       72.9597
2013    6       4       0.3328115       80.5587
2013    6       5       0.3359265       81.16938
2013    6       6       0.3137957       76.9378
2013    6       7       0.556877        118.191
2013    7       0       0.8755809       158.6293
2013    7       1       1.105197        180.8222
2013    7       2       0.9036159       162.1299
2013    7       3       0.5392218       115.8741
2013    7       4       0.3100544       76.23399
2013    7       5       0.2127237       56.64606
2013    7       6       0.2106752       55.92146
2013    7       7       0.3319916       79.98381
2013    8       0       0.4491068       100.8721
2013    8       1       0.4677971       103.9008
2013    8       2       0.4792585       105.912
2013    8       3       0.4649581       103.5111
2013    8       4       0.4601364       102.6403
2013    8       5       0.4833633       106.4425
2013    8       6       0.4746219       105.2233
2013    8       7       0.7472177       143.0337
2013    9       0       1.091796        178.8195
2013    9       1       0.9625241       166.7849
2013    9       2       0.5606291       117.9955
2013    9       3       0.3371885       81.15407
2013    9       4       0.2534624       64.9253
2013    9       5       0.2348789       60.93901
2013    9       6       0.2258078       58.9775
2013    9       7       0.3335031       80.14623
2013    10      0       0.4621067       102.4314
2013    10      1       0.4391432       98.52409
2013    10      2       0.4064524       92.97379
2013    10      3       0.3841929       89.06609
2013    10      4       0.4057908       92.74571
2013    10      5       0.4230556       95.53201
2013    10      6       0.4383343       97.96506
2013    10      7       0.7040605       136.9548
2013    11      0       1.037455        173.2233
2013    11      1       1.01597         171.1255
2013    11      2       0.8432563       152.7665
2013    11      3       0.9695324       165.7007
2013    11      4       1.208322        186.2754
2013    11      5       1.158634        181.5772
2013    11      6       1.310188        192.363
2013    11      7       1.593691        210.9047
2013    12      0       1.66337         214.7086
2013    12      1       1.442179        203.4376
2013    12      2       1.292894        194.0461
2013    12      3       1.438752        203.5497
2013    12      4       1.469129        205.4766
2013    12      5       1.234842        190.1378
2013    12      6       1.413914        203.3769
2013    12      7       1.604452        214.558
2013    13      0       1.920367        229.0867
2013    13      1       1.703211        218.8501
2013    13      2       1.149754        184.1958
2013    13      3       1.060684        177.6597
2013    13      4       0.9536127       167.8268
2013    13      5       0.7752208       148.1808
2013    13      6       0.9050595       162.6405
2013    13      7       1.178734        187.7729
2013    14      0       1.464857        207.6827
2013    14      1       1.342022        199.8862
2013    14      2       1.075765        178.8144
2013    14      3       0.9760043       169.3923
2013    14      4       0.9633918       167.9527
2013    14      5       0.9846052       169.9474
2013    14      6       1.019862        173.3441
2013    14      7       1.17908         187.7445
2013    15      0       1.444769        206.9856
2013    15      1       1.412377        205.2459
2013    15      2       1.0829          180.4235
2013    15      3       0.9101966       163.9389
2013    15      4       0.6382712       130.942
2013    15      5       0.3242787       79.42067
2013    15      6       0.2813435       71.47083
2013    15      7       0.5307049       114.951
2013    16      0       0.6448573       131.5278
2013    16      1       0.4570482       103.3573
2013    16      2       0.2479825       64.46166
2013    16      3       0.16624         46.58596
2013    16      4       0.1872834       51.31096
2013    16      5       0.2117352       56.57146
2013    16      6       0.2134116       56.82706
2013    16      7       0.3802041       89.78053
2013    17      0       0.4724083       105.511
2013    17      1       0.3824796       89.90239
2013    17      2       0.1930685       52.33409
2013    17      3       0.1408996       40.27721
2013    17      4       0.1895965       50.53101
2013    17      5       0.2752074       67.74572
2013    17      6       0.2863226       70.7922
2013    17      7       0.3103086       75.54365
2013    18      0       0.2489688       63.73748
2013    18      1       0.1305746       38.00548
2013    18      2       0.1224519       35.79345
2013    18      3       0.1483553       41.34557
2013    18      4       0.1843138       49.06029
2013    18      5       0.2027154       52.3628
2013    18      6       0.1792421       47.61406
2013    18      7       0.1628033       44.68846
2013    19      0       0.1843565       50.057
2013    19      1       0.1793811       49.02732
2013    19      2       0.177555        48.09995
2013    19      3       0.1799906       48.92249
2013    19      4       0.1830421       49.58633
2013    19      5       0.2055506       54.28327
2013    19      6       0.2270463       58.3056
2013    19      7       0.2837377       69.9067
2013    20      0       0.3443058       82.13007
2013    20      1       0.3360704       81.11278
2013    20      2       0.3088073       76.17852
2013    20      3       0.2638752       67.31634
2013    20      4       0.2131085       56.77739
2013    20      5       0.1862949       50.9397
2013    20      6       0.2496358       64.49527
2013    20      7       0.3983563       92.67954
2013    21      0       0.3631485       86.06553
2013    21      1       0.1846426       50.34963
2013    21      2       0.1943279       51.93566
2013    21      3       0.2078057       54.87211
2013    21      4       0.2300367       59.26951
2013    21      5       0.3313682       78.72193
2013    21      6       0.3791046       86.66148
2013    21      7       0.4752271       102.6007
2013    22      0       0.5115346       109.1402
2013    22      1       0.225473        58.1712
2013    22      2       0.2619477       64.97047
2013    22      3       0.1608284       43.92289
2013    22      4       0.4032967       90.13926
2013    22      5       0.2851115       69.9564
2013    22      6       0.382695        87.65486
2013    22      7       0.5860027       122.0153
2013    23      0       0.6206778       127.958
2013    23      1       0.3544972       84.97883
2013    23      2       0.1513115       42.43648
2013    23      3       0.1638826       45.07932
2013    23      4       0.1926091       51.24333
2013    23      5       0.1964203       52.05787
2013    23      6       0.1816632       48.80385
2013    23      7       0.26663         67.12318
2013    24      0       0.3919375       90.95661
2013    24      1       0.3575018       84.81251
2013    24      2       0.4597533       102.646
2013    24      3       0.593681        123.4364
2013    24      4       0.711319        139.3966
2013    24      5       0.8020745       150.2691
2013    24      6       0.5913621       122.5135
2013    24      7       0.5940048       122.6847
2013    25      0       0.4375933       98.8421
2013    25      1       0.2546102       63.85776
2013    25      2       0.3750764       86.98531
2013    25      3       0.3701572       86.38487
2013    25      4       0.3414805       81.17314
2013    25      5       0.2314446       59.60346
2013    25      6       0.1524899       42.577
2013    25      7       0.1940815       51.73329
2013    26      0       0.2192257       57.29102
2013    26      1       0.2271036       58.89483
2013    26      2       0.2251467       58.4176
2013    26      3       0.23077         59.2014
2013    26      4       0.3997939       89.32883
2013    26      5       0.4912047       103.0635
2013    26      6       0.3818672       85.32245
2013    26      7       0.4423366       95.68424
2013    27      0       0.4614832       98.72713
2013    27      1       0.2838087       68.29402
2013    27      2       0.2109267       53.95625
2013    27      3       0.1574907       43.48593
2013    27      4       0.1168354       34.4466
2013    27      5       0.1137924       33.6983
2013    27      6       0.1572065       43.17191
2013    27      7       0.2521558       63.17935
2013    28      0       0.358416        83.14087
2013    28      1       0.4535487       99.01461
2013    28      2       0.5128803       108.9258
2013    28      3       0.4882907       105.7297
2013    28      4       0.3890804       89.25821
2013    28      5       0.3421257       80.4826
2013    28      6       0.3549883       82.64269
2013    28      7       0.3749606       86.16443
2013    29      0       0.3802833       87.86828
2013    29      1       0.3243217       78.01913
2013    29      2       0.2859714       70.73098
2013    29      3       0.3442882       81.5997
2013    29      4       0.3844359       89.11332
2013    29      5       0.4168882       93.96116
2013    29      6       0.7452993       140.8297
2013    29      7       0.868226        155.8406
2013    30      0       0.7477204       142.3274
2013    30      1       0.6354703       128.1543
2013    30      2       0.479822        105.2866
2013    30      3       0.3491649       82.78353
2013    30      4       0.325237        78.02521
2013    30      5       0.483892        105.4849
2013    30      6       0.6318231       127.9399
2013    30      7       0.6638776       132.7818
2014    1       0       0.6047189       125.9681
2014    1       1       0.5496726       118.2384
2014    1       2       0.4415153       101.3151
2014    1       3       0.3849069       91.15762
2014    1       4       0.338904        82.51099
2014    1       5       0.3319813       81.20638
2014    1       6       0.3231712       79.64567
2014    1       7       0.3812874       90.65485
2014    2       0       0.5676205       121.1533
2014    2       1       0.6004314       126.2627
2014    2       2       0.4510086       103.2755
2014    2       3       0.3726842       89.3951
2014    2       4       0.3387058       82.65627
2014    2       5       0.3065291       76.07258
2014    2       6       0.3024876       75.04377
2014    2       7       0.4330563       99.02705
2014    3       0       0.5378309       115.9507
2014    3       1       0.5100271       111.8057
2014    3       2       0.4338056       99.46912
2014    3       3       0.3617832       86.38942
2014    3       4       0.3005744       74.21683
2014    3       5       0.3129058       75.94038
2014    3       6       0.3623892       85.22058
2014    3       7       0.5311755       113.6956
2014    4       0       0.710623        138.4685
2014    4       1       0.7767349       146.5225
2014    4       2       0.7460123       143.1745
2014    4       3       0.6411042       129.6661
2014    4       4       0.5490989       116.2553
2014    4       5       0.4242335       96.07012
2014    4       6       0.3474461       82.60812
2014    4       7       0.5513608       116.3386
2014    5       0       0.7784811       146.3374
2014    5       1       0.8453667       154.0583
2014    5       2       0.7222192       139.9521
2014    5       3       0.434564        98.26426
2014    5       4       0.2982709       73.30092
2014    5       5       0.2821227       70.02911
2014    5       6       0.2702708       67.90297
2014    5       7       0.4250651       96.43257
2014    6       0       0.5443407       115.2653
2014    6       1       0.5411942       114.8314
2014    6       2       0.3831104       89.40058
2014    6       3       0.1967948       53.05733
2014    6       4       0.1883806       51.32249
2014    6       5       0.1674246       46.7509
2014    6       6       0.154582        43.99226
2014    6       7       0.3069403       75.79026
2014    7       0       0.5267277       113.7176
2014    7       1       0.5226377       113.0931
2014    7       2       0.3527758       84.57753
2014    7       3       0.1671402       46.79841
2014    7       4       0.1659864       46.29912
2014    7       5       0.1914868       51.99152
2014    7       6       0.2336625       61.10672
2014    7       7       0.5976998       124.0797
2014    8       0       0.8158734       152.0419
2014    8       1       0.8462145       155.5775
2014    8       2       0.7547076       145.1717
2014    8       3       0.8160925       152.4262
2014    8       4       1.055588        176.5826
2014    8       5       1.177129        187.5207
2014    8       6       0.6381003       130.5733
2014    8       7       0.7532124       145.1469
2014    9       0       0.4902891       108.3901
2014    9       1       0.1571847       44.76225
2014    9       2       0.07312472      24.67888
2014    9       3       0.0642547       22.52191
2014    9       4       0.07823507      25.89565
2014    9       5       0.133579        38.6137
2014    9       6       0.2295825       59.85071
2014    9       7       0.3475954       82.80013
2014    10      0       0.3547776       84.31546
2014    10      1       0.3149264       77.21069
2014    10      2       0.2589101       66.30625
2014    10      3       0.2129136       56.98205
2014    10      4       0.2242557       59.27496
2014    10      5       0.2207954       58.71356
2014    10      6       0.2389912       62.49273
2014    10      7       0.3275563       79.88622
2014    11      0       0.4293706       98.17849
2014    11      1       0.4462663       101.231
2014    11      2       0.3820229       90.15864
2014    11      3       0.4014859       93.68822
2014    11      4       0.4282704       98.0471
2014    11      5       0.4340048       98.88342
2014    11      6       0.4222143       96.89111
2014    11      7       0.5011653       109.761
2014    12      0       0.6176063       127.1255
2014    12      1       0.6442071       130.9153
2014    12      2       0.5917337       123.7607
2014    12      3       0.5967612       124.4691
2014    12      4       0.5779711       121.5078
2014    12      5       0.5213302       112.7915
2014    12      6       0.4631218       103.5054
2014    12      7       0.5613953       118.8953
2014    13      0       0.7635386       145.8562
2014    13      1       0.7984766       150.1316
2014    13      2       0.735023        142.8693
2014    13      3       0.6841023       136.4376
2014    13      4       0.6511227       131.6592
2014    13      5       0.596024        123.7259
2014    13      6       0.5914299       122.5283
2014    13      7       0.8510206       155.0867
2014    14      0       1.066282        176.8119
2014    14      1       1.132915        182.6308
2014    14      2       1.063829        176.7417
2014    14      3       0.9633045       167.0118
2014    14      4       0.7251876       140.0903
2014    14      5       0.5605193       118.1249
2014    14      6       0.6488267       130.9323
2014    14      7       1.029768        173.4839
2014    15      0       1.12482         182.0142
2014    15      1       1.088055        179.3608
2014    15      2       0.9207176       163.4495
2014    15      3       0.7250674       141.3066
2014    15      4       0.6893802       136.5724
2014    15      5       0.6527126       131.6286
2014    15      6       0.7710406       146.8017
2014    15      7       1.203833        189.29
2014    16      0       1.392013        203.2899
2014    16      1       1.035415        175.6962
2014    16      2       0.7079257       139.6929
2014    16      3       0.5140281       111.9695
2014    16      4       0.4319482       98.44067
2014    16      5       0.5277235       114.0128
2014    16      6       0.6345314       130.1367
2014    16      7       1.114136        182.6826
2014    17      0       1.356277        201.3201
2014    17      1       1.249906        194.1029
2014    17      2       0.8605781       158.3002
2014    17      3       0.695868        137.3799
2014    17      4       0.8117244       151.8472
2014    17      5       0.8518602       156.5932
2014    17      6       0.8054352       151.3169
2014    17      7       1.167           187.2019
2014    18      0       1.269583        195.5963
2014    18      1       0.9089572       163.8282
2014    18      2       0.6589892       133.5326
2014    18      3       0.4996592       109.4539
2014    18      4       0.4509777       100.7809
2014    18      5       0.4338521       97.55054
2014    18      6       0.463565        102.8014
2014    18      7       0.585479        122.3254
2014    19      0       0.6509341       131.5723
2014    19      1       0.6507852       131.4098
2014    19      2       0.7999451       150.1521
2014    19      3       0.5056392       110.1323
2014    19      4       0.3765508       88.39223
2014    19      5       0.2656216       67.21172
2014    19      6       0.243435        62.72404
2014    19      7       0.3380203       81.49266
2014    20      0       0.3996064       92.21917
2014    20      1       0.3917001       90.37586
2014    20      2       0.4416436       98.67331
2014    20      3       0.3335476       79.49587
2014    20      4       0.3648763       85.34475
2014    20      5       0.541859        115.1425
2014    20      6       0.7628681       145.5855
2014    20      7       0.8981134       160.9708
2014    21      0       0.8577739       155.8727
2014    21      1       0.4759609       104.4447
2014    21      2       0.5268931       112.7208
2014    21      3       0.8221616       151.497
2014    21      4       0.6699333       131.7892
2014    21      5       0.8282731       150.8371
2014    21      6       1.308327        194.9429
2014    21      7       1.356154        198.1597
2014    22      0       1.19616         187.1832
2014    22      1       0.9235506       163.7146
2014    22      2       0.7529559       145.8881
2014    22      3       0.6214438       128.6949
2014    22      4       0.4716194       105.5836
2014    22      5       0.3316077       80.87631
2014    22      6       0.2571613       66.25347
2014    22      7       0.3187097       78.64568
2014    23      0       0.4618813       103.5838
2014    23      1       0.4021349       93.07632
2014    23      2       0.3239143       78.01366
2014    23      3       0.3045008       73.77173
2014    23      4       0.3203624       77.23858
2014    23      5       0.3037853       74.16967
2014    23      6       0.2897328       71.27495
2014    23      7       0.3418413       81.5863
2014    24      0       0.394158        91.44188
2014    24      1       0.3412019       82.0646
2014    24      2       0.2623661       66.73806
2014    24      3       0.2113306       56.04672
2014    24      4       0.1646638       46.00581
2014    24      5       0.1160858       34.96689
2014    24      6       0.08789621      28.13002
2014    24      7       0.09485216      29.82495
2014    25      0       0.1275821       37.6242
2014    25      1       0.1486293       42.42049
2014    25      2       0.1652628       46.13872
2014    25      3       0.2817773       71.07189
2014    25      4       0.4410596       100.2165
2014    25      5       0.491855        108.513
2014    25      6       0.423011        97.03968
2014    25      7       0.4457783       100.7284
2014    26      0       0.3652648       86.36468
2014    26      1       0.2219537       58.01591
2014    26      2       0.2159724       56.50595
2014    26      3       0.2336661       59.82951
2014    26      4       0.2740443       67.39382
2014    26      5       0.3389595       79.15037
2014    26      6       0.3765579       85.559
2014    26      7       0.3911822       88.04081
2014    27      0       0.3790646       85.86047
2014    27      1       0.36631         83.14041
2014    27      2       0.235966        59.8188
2014    27      3       0.1943844       51.52825
2014    27      4       0.2129992       55.12437
2014    27      5       0.2870121       69.13008
2014    27      6       0.565701        114.9799
2014    27      7       0.7400891       137.7729
2014    28      0       0.8095509       145.968
2014    28      1       0.8155449       146.7453
2014    28      2       0.7814041       143.0821
2014    28      3       0.9131236       156.8325
2014    28      4       0.7386242       137.7694
2014    28      5       0.5986475       119.8824
2014    28      6       0.8097291       146.845
2014    28      7       0.9653703       162.5776
2014    29      0       1.028741        168.6333
2014    29      1       1.035233        169.4042
2014    29      2       0.6774708       131.2939
2014    29      3       0.3494264       81.98218
2014    29      4       0.3541662       81.51276
2014    29      5       0.6363995       125.7711
2014    29      6       0.7939714       147.8881
2014    29      7       0.4614316       102.5438
2014    30      0       0.3353685       80.34015
2014    30      1       0.5138793       109.4015
2014    30      2       0.5342906       112.2091
2014    30      3       0.4276719       95.52169
2014    30      4       0.4552401       98.94117
2014    30      5       0.620826        122.8369
2014    30      6       0.4995025       105.7331
2014    30      7       0.6110099       123.2022
2015    1       0       0.5879087       122.0982
2015    1       1       0.5831939       121.6641
2015    1       2       0.5499022       116.7593
2015    1       3       0.5342329       114.2055
2015    1       4       0.4364506       98.04142
2015    1       5       0.3091669       74.74427
2015    1       6       0.2926825       71.85097
2015    1       7       0.3687993       86.48566
2015    2       0       0.4325474       97.67899
2015    2       1       0.4492025       100.765
2015    2       2       0.3648126       86.09354
2015    2       3       0.2571239       64.19067
2015    2       4       0.3357983       78.59529
2015    2       5       0.5229106       110.1808
2015    2       6       0.7355459       140.2165
2015    2       7       0.8090725       149.1636
2015    3       0       0.7626028       143.9572
2015    3       1       0.6659162       132.1735
2015    3       2       0.4978773       107.4993
2015    3       3       0.41057         92.72487
2015    3       4       0.5669705       117.5565
2015    3       5       0.577632        119.2185
2015    3       6       0.5523238       115.4748
2015    3       7       0.6425905       128.3725
2015    4       0       0.6448531       128.7815
2015    4       1       0.5639377       117.4231
2015    4       2       0.5180455       110.0908
2015    4       3       0.5316843       112.2031
2015    4       4       0.5413654       113.3034
2015    4       5       0.4605185       100.0514
2015    4       6       0.3122762       75.35673
2015    4       7       0.3115832       75.71755
2015    5       0       0.2429575       61.98906
2015    5       1       0.189995        50.61452
2015    5       2       0.2296204       58.13564
2015    5       3       0.3031198       72.48162
2015    5       4       0.3794961       87.08755
2015    5       5       0.4352181       96.48198
2015    5       6       0.4243835       94.63947
2015    5       7       0.420246        93.73699
2015    6       0       0.3227586       77.45089
2015    6       1       0.2887594       71.16456
2015    6       2       0.2479539       63.11366
2015    6       3       0.2471548       62.92597
2015    6       4       0.210522        55.36651
2015    6       5       0.1944516       51.77155
2015    6       6       0.2129114       55.78579
2015    6       7       0.2523902       63.68462
2015    7       0       0.2649902       66.07031
2015    7       1       0.2472156       62.83301
2015    7       2       0.2085058       54.90763
2015    7       3       0.220148        56.90571
2015    7       4       0.3014664       72.39229
2015    7       5       0.3490632       80.79402
2015    7       6       0.3030095       73.02679
2015    7       7       0.314343        75.46362
2015    8       0       0.3567388       83.46349
2015    8       1       0.3742536       86.84109
2015    8       2       0.3545707       83.65279
2015    8       3       0.3330116       80.00193
2015    8       4       0.303758        74.6175
2015    8       5       0.2511384       64.42998
2015    8       6       0.2398787       62.17671
2015    8       7       0.2786255       70.09205
2015    9       0       0.4001788       92.65178
2015    9       1       0.4549432       102.0059
2015    9       2       0.4757121       105.2714
2015    9       3       0.462668        103.1858
2015    9       4       0.4183193       95.70714
2015    9       5       0.4014317       92.84457
2015    9       6       0.4510066       101.3374
2015    9       7       0.8114203       151.3054
2015    10      0       1.087868        179.0155
2015    10      1       0.9859338       169.5715
2015    10      2       0.7308775       141.2063
2015    10      3       0.5993054       123.4263
2015    10      4       0.5766085       119.9679
2015    10      5       0.8496118       155.0702
2015    10      6       1.037664        173.1892
2015    10      7       0.9511127       164.322
2015    11      0       0.893983        158.3493
2015    11      1       0.6132756       124.3273
2015    11      2       0.4489333       99.79862
2015    11      3       0.4017332       92.14915
2015    11      4       0.4099567       93.51124
2015    11      5       0.435398        97.72566
2015    11      6       0.422504        95.56207
2015    11      7       0.5637076       118.0005
2015    12      0       0.7667914       144.9767
2015    12      1       0.7606034       144.2652
2015    12      2       0.6546949       131.0869
2015    12      3       0.5612161       117.7345
2015    12      4       0.3779529       87.69249
2015    12      5       0.3762368       87.20211
2015    12      6       0.5748455       119.1617
2015    12      7       0.9082373       160.3629
2015    13      0       1.108862        179.2775
2015    13      1       1.009746        170.2455
2015    13      2       0.9010045       158.1906
2015    13      3       0.9419192       161.9124
2015    13      4       0.860948        153.8506
2015    13      5       0.9188228       160.2695
2015    13      6       1.069137        175.0434
2015    13      7       1.326545        196.3108
2015    14      0       1.331687        196.9545
2015    14      1       1.247512        190.8408
2015    14      2       0.8128561       150.5575
2015    14      3       0.6693043       132.3645
2015    14      4       0.6555818       130.4006
2015    14      5       0.6716355       132.468
2015    14      6       0.9114826       160.3868
2015    14      7       1.11688         179.5077
2015    15      0       0.9649304       165.49
2015    15      1       0.6286269       125.9017
2015    15      2       0.6042931       123.2655
2015    15      3       0.6095759       124.3331
2015    15      4       0.662098        130.6601
2015    15      5       0.4231162       94.78002
2015    15      6       0.3085006       74.64518
2015    15      7       0.3340882       79.90674
2015    16      0       0.2143638       55.87704
2015    16      1       0.1936589       50.85148
2015    16      2       0.3233095       75.61941
2015    16      3       0.5157133       109.3189
2015    16      4       0.3766616       86.12872
2015    16      5       0.4095234       91.14722
2015    16      6       0.4036638       90.65083
2015    16      7       0.286308        70.09055
2015    17      0       0.258823        64.44175
2015    17      1       0.305673        73.42574
2015    17      2       0.3356763       79.15232
2015    17      3       0.2332754       58.86815
2015    17      4       0.1380244       38.39016
2015    17      5       0.1223756       34.94171
2015    17      6       0.1235944       35.59128
2015    17      7       0.1164577       34.67821
2015    18      0       0.1912394       51.50888
2015    18      1       0.2157609       56.74599
2015    18      2       0.209205        55.36973
2015    18      3       0.227395        58.91184
2015    18      4       0.2571313       64.85173
2015    18      5       0.2712989       67.60247
2015    18      6       0.2672965       66.71405
2015    18      7       0.2808565       69.52491
2015    19      0       0.3673551       85.64717
2015    19      1       0.361067        84.56851
2015    19      2       0.284915        70.23739
2015    19      3       0.2582794       64.87163
2015    19      4       0.2598099       65.16283
2015    19      5       0.2702691       67.20236
2015    19      6       0.254022        64.12942
2015    19      7       0.2548266       64.43464
2015    20      0       0.2683442       67.51734
2015    20      1       0.2534428       64.78819
2015    20      2       0.2266984       59.31395
2015    20      3       0.2020266       54.09507
2015    20      4       0.1964196       52.82449
2015    20      5       0.1902661       51.4623
2015    20      6       0.182223        49.76714
2015    20      7       0.2207571       58.19483
2015    21      0       0.3417024       82.24453
2015    21      1       0.3729281       88.02933
2015    21      2       0.3105678       76.43008
2015    21      3       0.2781976       69.94393
2015    21      4       0.250276        63.93937
2015    21      5       0.2359727       60.57489
2015    21      6       0.2531766       64.08563
2015    21      7       0.3168769       76.36082
2015    22      0       0.4460137       99.25138
2015    22      1       0.4993668       108.2279
2015    22      2       0.5019721       108.795
2015    22      3       0.4536051       101.0237
2015    22      4       0.4176098       94.98756
2015    22      5       0.4029386       92.48625
2015    22      6       0.3557534       84.15045
2015    22      7       0.5290286       113.0995
2015    23      0       0.8149805       150.5427
2015    23      1       0.8545558       155.2594
2015    23      2       0.7378876       141.9893
2015    23      3       0.5469357       115.5563
2015    23      4       0.3643196       84.96671
2015    23      5       0.2351606       60.05291
2015    23      6       0.2115787       55.85235
2015    23      7       0.4174838       95.23635
2015    24      0       0.5610111       118.4322
2015    24      1       0.5748412       120.4994
2015    24      2       0.5089234       110.3803
2015    24      3       0.4716651       103.9577
2015    24      4       0.4593339       101.5627
2015    24      5       0.4159796       92.89522
2015    24      6       0.4699861       102.15
2015    24      7       0.7177695       138.4343
2015    25      0       0.9179443       162.5671
2015    25      1       0.9063229       162.336
2015    25      2       0.6728156       134.687
2015    25      3       0.4341621       98.09844
2015    25      4       0.4983387       109.1005
2015    25      5       0.5647835       119.2392
2015    25      6       0.5821177       122.2344
2015    25      7       0.8639265       158.5311
2015    26      0       0.9378711       166.5884
2015    26      1       0.6803425       136.3934
2015    26      2       0.5149809       111.628
2015    26      3       0.6185052       127.4752
2015    26      4       0.5717959       120.5606
2015    26      5       0.4601839       102.8121
2015    26      6       0.4617085       103.2648
2015    26      7       0.7396672       143.4026
2015    27      0       0.8225335       153.3411
2015    27      1       0.699176        138.1424
2015    27      2       0.5629799       118.4539
2015    27      3       0.4472532       99.30498
2015    27      4       0.3543446       82.44274
2015    27      5       0.3651836       84.22647
2015    27      6       0.4642548       100.5324
2015    27      7       0.6491449       128.0145
2015    28      0       0.7370976       139.3311
2015    28      1       0.7301469       138.5941
2015    28      2       0.6507039       128.7898
2015    28      3       0.598033        120.7815
2015    28      4       0.5572039       114.4108
2015    28      5       0.7419046       138.998
2015    28      6       1.234046        188.3943
2015    28      7       1.257376        190.7278
2015    29      0       1.337791        196.7611
2015    29      1       1.197141        186.7996
2015    29      2       1.168669        184.9079
2015    29      3       1.189493        185.9838
2015    29      4       1.242876        189.3774
2015    29      5       1.159327        182.9889
2015    29      6       1.166031        183.4353
2015    29      7       1.205847        186.1912
2015    30      0       1.111471        178.9558
2015    30      1       1.056277        174.6068
2015    30      2       1.17404         185.1309
2015    30      3       1.392782        201.2528
2015    30      4       1.569738        212.2012
2015    30      5       1.498067        208.4908
2015    30      6       1.345413        198.9497
2015    30      7       1.341948        198.9576
2016    1       0       0.6345357       128.5081
2016    1       1       0.4215787       95.8959
2016    1       2       0.3003294       73.89825
2016    1       3       0.2058071       54.74157
2016    1       4       0.178316        48.70641
2016    1       5       0.1616983       44.98801
2016    1       6       0.1446711       41.11864
2016    1       7       0.2490897       63.52439
2016    2       0       0.2798502       69.47013
2016    2       1       0.2228632       58.09978
2016    2       2       0.1862579       50.20181
2016    2       3       0.1827426       49.01255
2016    2       4       0.2308136       59.15706
2016    2       5       0.2788205       68.68287
2016    2       6       0.2982436       72.34206
2016    2       7       0.3737719       86.02703
2016    3       0       0.4497237       98.94527
2016    3       1       0.4425027       98.08656
2016    3       2       0.4530774       99.96769
2016    3       3       0.4875104       105.2916
2016    3       4       0.5932056       121.106
2016    3       5       0.701737        135.1808
2016    3       6       0.849158        152.2348
2016    3       7       1.018975        169.1704
2016    4       0       1.000018        167.095
2016    4       1       0.7013353       135.1836
2016    4       2       0.4889706       105.5036
2016    4       3       0.3459659       81.4585
2016    4       4       0.2758486       66.73729
2016    4       5       0.2919517       69.60202
2016    4       6       0.2516536       62.48925
2016    4       7       0.2258387       57.7341
2016    5       0       0.2538196       63.29461
2016    5       1       0.2697182       66.51261
2016    5       2       0.2045778       53.93118
2016    5       3       0.1921841       50.95094
2016    5       4       0.1940053       50.98484
2016    5       5       0.1793315       47.97179
2016    5       6       0.2226732       56.61869
2016    5       7       0.2870838       70.07872
2016    6       0       0.321659        77.05393
2016    6       1       0.3323164       78.88309
2016    6       2       0.2539009       63.73688
2016    6       3       0.2195249       56.99626
2016    6       4       0.2719225       67.16131
2016    6       5       0.3759965       86.67731
2016    6       6       0.4100865       93.15118
2016    6       7       0.4503618       99.56613
2016    7       0       0.504179        108.7855
2016    7       1       0.4492056       100.908
2016    7       2       0.3156849       77.37026
2016    7       3       0.2672835       67.57255
2016    7       4       0.2658983       66.88037
2016    7       5       0.2969722       72.91899
2016    7       6       0.2806579       70.1904
2016    7       7       0.2699419       68.41728
2016    8       0       0.3589856       85.44451
2016    8       1       0.359315        85.57504
2016    8       2       0.3021858       74.89196
2016    8       3       0.2753357       69.38782
2016    8       4       0.2687668       67.96921
2016    8       5       0.2338328       60.76994
2016    8       6       0.224992        58.90545
2016    8       7       0.2754763       69.18958
2016    9       0       0.3787991       88.59768
2016    9       1       0.3847042       89.69661
2016    9       2       0.3422368       81.94792
2016    9       3       0.2885031       71.47137
2016    9       4       0.2423074       62.07946
2016    9       5       0.2139931       56.14588
2016    9       6       0.2205333       57.36821
2016    9       7       0.2417489       61.92938
2016    10      0       0.2692852       67.58955
2016    10      1       0.266678        67.2044
2016    10      2       0.2730985       68.52546
2016    10      3       0.2642231       66.69091
2016    10      4       0.2782714       69.43806
2016    10      5       0.2944525       72.59202
2016    10      6       0.2933765       72.27431
2016    10      7       0.4171922       94.5922
2016    11      0       0.6580289       130.7449
2016    11      1       0.7743413       145.5312
2016    11      2       0.5796529       120.0915
2016    11      3       0.3653332       85.25197
2016    11      4       0.3411545       80.86539
2016    11      5       0.3669176       85.57804
2016    11      6       0.4161817       94.086
2016    11      7       0.7469493       141.1532
2016    12      0       1.038765        171.8013
2016    12      1       0.9200468       160.5046
2016    12      2       0.7835222       145.6888
2016    12      3       0.6334635       127.0686
2016    12      4       0.4460224       98.89159
2016    12      5       0.4024554       91.13982
2016    12      6       0.461992        100.8093
2016    12      7       0.5214381       110.1971
2016    13      0       0.4422018       97.7155
2016    13      1       0.4091553       92.05577
2016    13      2       0.5281174       110.4466
2016    13      3       0.7430315       138.6128
2016    13      4       0.5031273       106.3086
2016    13      5       0.1937266       51.30936
2016    13      6       0.2041563       53.09022
2016    13      7       0.5481589       111.8752
2016    14      0       0.6533243       126.2889
2016    14      1       0.6029278       120.6796
2016    14      2       0.4058775       91.2038
2016    14      3       0.2527909       63.53692
2016    14      4       0.1561644       43.40778
2016    14      5       0.09745613      30.16852
2016    14      6       0.1538541       43.05269
2016    14      7       0.267093        67.35705
2016    15      0       0.3975408       91.38958
2016    15      1       0.3898292       90.15143
2016    15      2       0.2951158       72.64484
2016    15      3       0.2915692       71.58857
2016    15      4       0.2567578       64.53992
2016    15      5       0.2255264       58.27147
2016    15      6       0.2179234       56.8931
2016    15      7       0.2866369       71.06938
2016    16      0       0.3905671       90.04654
2016    16      1       0.4177442       94.74685
2016    16      2       0.4012663       91.88668
2016    16      3       0.393737        90.39387
2016    16      4       0.4029639       91.78656
2016    16      5       0.3858799       88.78573
2016    16      6       0.3319582       79.13378
2016    16      7       0.3440333       81.34005
2016    17      0       0.3756876       87.18132
2016    17      1       0.3205945       77.28456
2016    17      2       0.2327823       59.94298
2016    17      3       0.1865004       50.09633
2016    17      4       0.1930363       51.36775
2016    17      5       0.2340323       59.73512
2016    17      6       0.3237878       77.18846
2016    17      7       0.4379045       97.4553
2016    18      0       0.5747295       119.13
2016    18      1       0.7075772       138.2399
2016    18      2       0.7412489       142.9426
2016    18      3       0.7457156       143.3616
2016    18      4       0.7319685       141.9467
2016    18      5       0.6469224       130.8321
2016    18      6       0.547755        116.4259
2016    18      7       0.5033081       109.4831
2016    19      0       0.5594559       118.2549
2016    19      1       0.5559741       117.7906
2016    19      2       0.5296336       113.613
2016    19      3       0.561038        117.984
2016    19      4       0.6367027       128.4546
2016    19      5       0.5516299       116.0879
2016    19      6       0.3584793       84.3709
2016    19      7       0.3625839       85.60982
2016    20      0       0.4873362       106.5509
2016    20      1       0.5376607       114.0691
2016    20      2       0.8420105       154.186
2016    20      3       1.108623        180.2591
2016    20      4       1.177125        185.8823
2016    20      5       1.035891        173.8413
2016    20      6       0.8937167       159.5608
2016    20      7       0.9395368       163.9379
2016    21      0       1.156611        183.9277
2016    21      1       1.034201        173.8384
2016    21      2       0.8837542       159.312
2016    21      3       0.9021527       161.1427
2016    21      4       1.099208        179.6416
2016    21      5       1.105242        179.9899
2016    21      6       0.9096975       161.262
2016    21      7       0.8987503       160.0483
2016    22      0       0.8874102       158.4153
2016    22      1       0.6920139       134.756
2016    22      2       0.3895479       88.59137
2016    22      3       0.08975787      28.0891
2016    22      4       0.06804467      23.17462
2016    22      5       0.0561436       20.1492
2016    22      6       0.08014271      25.8819
2016    22      7       0.2530242       62.27295
2016    23      0       0.4390534       94.61927
2016    23      1       0.2683902       65.44657
2016    23      2       0.1567583       43.0249
2016    23      3       0.158761        43.3774
2016    23      4       0.1539217       42.25292
2016    23      5       0.3255241       76.67951
2016    23      6       0.3737209       85.9597
2016    23      7       0.5292057       112.0872
2016    24      0       0.6143334       125.3892
2016    24      1       0.3332321       79.79856
2016    24      2       0.2615867       65.23458
2016    24      3       0.2445479       62.69499
2016    24      4       0.2575032       64.48886
2016    24      5       0.3392755       80.60332
2016    24      6       0.3965739       91.13115
2016    24      7       0.4430863       99.40575
2016    25      0       0.5069087       110.1071
2016    25      1       0.6388955       130.2967
2016    25      2       0.6146924       126.7812
2016    25      3       0.5463244       116.7681
2016    25      4       0.4687552       104.5584
2016    25      5       0.4173133       95.81379
2016    25      6       0.4031366       93.20409
2016    25      7       0.4072719       93.85129
2016    26      0       0.4082644       94.18113
2016    26      1       0.4160532       95.6561
2016    26      2       0.3959156       92.10387
2016    26      3       0.3833517       89.77879
2016    26      4       0.4048366       93.3643
2016    26      5       0.4204341       95.97567
2016    26      6       0.419975        95.97059
2016    26      7       0.429124        97.6041
2016    27      0       0.4375644       99.18054
2016    27      1       0.3998387       92.741
2016    27      2       0.3554969       84.70545
2016    27      3       0.3313738       79.95935
2016    27      4       0.3300807       79.51654
2016    27      5       0.3356687       80.46635
2016    27      6       0.3044328       74.75144
2016    27      7       0.339961        81.84129
2016    28      0       0.401348        92.75202
2016    28      1       0.442306        99.48916
2016    28      2       0.4279557       96.89563
2016    28      3       0.4199199       95.55658
2016    28      4       0.4621427       102.2513
2016    28      5       0.5838032       119.9932
2016    28      6       0.7022125       135.4944
2016    28      7       0.9790913       165.7973
2016    29      0       1.217201        186.2579
2016    29      1       1.170276        182.6624
2016    29      2       1.09465         176.6389
2016    29      3       1.030333        171.4645
2016    29      4       1.024943        171.3149
2016    29      5       1.007007        169.7734
2016    29      6       0.9184393       161.177
2016    29      7       0.9597189       165.1286
2016    30      0       1.13951         181.2614
2016    30      1       0.8920512       158.8223
2016    30      2       0.6665946       132.2314
2016    30      3       0.5583315       117.1255
2016    30      4       0.443562        99.06125
2016    30      5       0.3086186       75.02863
2016    30      6       0.2834896       70.26408
2016    30      7       0.4658452       102.7814
2017    1       0       1.21298         189.9055
2017    1       1       1.168789        186.6995
2017    1       2       1.16297         185.6407
2017    1       3       0.6379608       129.1456
2017    1       4       0.6329172       128.8655
2017    1       5       0.5860457       122.7387
2017    1       6       0.5247536       113.8329
2017    1       7       0.5429689       116.7425
2017    2       0       0.517934        112.9462
2017    2       1       0.5747408       121.4586
2017    2       2       0.4871995       107.9885
2017    2       3       0.4179176       96.24141
2017    2       4       0.3540039       84.77847
2017    2       5       0.3420209       82.61327
2017    2       6       0.3743886       88.50568
2017    2       7       0.456487        102.7015
2017    3       0       0.5099598       111.5264
2017    3       1       0.5400275       116.082
2017    3       2       0.626589        128.5647
2017    3       3       0.746394        143.9629
2017    3       4       0.7866031       148.5259
2017    3       5       0.8381016       154.2694
2017    3       6       1.001785        170.658
2017    3       7       1.241005        191.3216
2017    4       0       1.287314        195.4282
2017    4       1       0.9928207       170.1414
2017    4       2       1.214578        189.4944
2017    4       3       1.370978        201.7655
2017    4       4       1.096384        180.332
2017    4       5       0.8180008       151.867
2017    4       6       0.938802        164.2476
2017    4       7       1.181207        185.6084
2017    5       0       0.9418004       163.6107
2017    5       1       0.5317617       112.0532
2017    5       2       0.5497874       114.9496
2017    5       3       0.622563        126.1064
2017    5       4       0.6584247       131.4866
2017    5       5       0.918937        162.44
2017    5       6       1.444386        205.6749
2017    5       7       1.702888        219.4778
2017    6       0       1.145308        184.1186
2017    6       1       1.194511        188.1982
2017    6       2       1.323463        197.6898
2017    6       3       1.10134         180.499
2017    6       4       0.9581543       167.0739
2017    6       5       1.297984        195.9109
2017    6       6       1.760268        221.8817
2017    6       7       1.613155        213.6746
2017    7       0       1.579188        213.9898
2017    7       1       1.600034        215.3375
2017    7       2       0.8802174       159.0804
2017    7       3       0.6311366       128.296
2017    7       4       0.4059334       92.71727
2017    7       5       0.4752998       103.608
2017    7       6       0.6498135       129.6511
2017    7       7       0.8176824       151.0431
2017    8       0       0.9430208       164.6216
2017    8       1       0.996383        170.0869
2017    8       2       0.8712965       157.0455
2017    8       3       0.6887501       135.2629
2017    8       4       1.126271        181.8799
2017    8       5       0.8024529       149.4305
2017    8       6       0.6255551       126.8126
2017    8       7       0.7720476       145.5602
2017    9       0       0.992453        168.9527
2017    9       1       1.078836        176.4673
2017    9       2       0.7514727       142.8886
2017    9       3       0.5320642       112.8037
2017    9       4       0.3472548       81.70783
2017    9       5       0.2264257       57.83905
2017    9       6       0.2257619       57.9102
2017    9       7       0.3073884       74.52704
2017    10      0       0.4742293       103.6112
2017    10      1       0.4933566       106.3715
2017    10      2       0.4325845       96.44507
2017    10      3       0.4571002       100.6165
2017    10      4       0.4834565       105.2849
2017    10      5       0.4979519       107.9318
2017    10      6       0.5143285       110.9384
2017    10      7       0.5991811       123.6285
2017    11      0       0.6699282       133.1779
2017    11      1       0.5134536       110.5874
2017    11      2       0.4456129       99.55027
2017    11      3       0.4869018       106.0269
2017    11      4       0.5195079       111.7493
2017    11      5       0.5418074       115.5754
2017    11      6       1.329504        198.4217
2017    11      7       1.392538        201.6993
2017    12      0       1.080652        178.0935
2017    12      1       0.938371        164.9244
2017    12      2       0.6255524       127.3274
2017    12      3       0.474943        103.8097
2017    12      4       0.4008448       90.98755
2017    12      5       0.4020525       91.36463
2017    12      6       0.5552183       116.2259
2017    12      7       0.6565321       129.9927
2017    13      0       0.8328376       150.7032
2017    13      1       0.9632503       166.1826
2017    13      2       0.8380955       151.0678
2017    13      3       0.6456275       128.1857
2017    13      4       0.5047565       108.479
2017    13      5       0.371922        86.19237
2017    13      6       0.3345681       79.02098
2017    13      7       0.3995671       90.88017
2017    14      0       0.624595        125.8712
2017    14      1       0.4401421       97.30492
2017    14      2       0.4011342       90.66513
2017    14      3       0.5837954       119.6581
2017    14      4       0.6330978       125.4251
2017    14      5       0.479577        103.4188
2017    14      6       0.5932721       120.4445
2017    14      7       0.9491582       164.0428
2017    15      0       1.083879        177.279
2017    15      1       0.6220204       126.09
2017    15      2       0.4438231       98.68962
2017    15      3       0.2810845       69.60487
2017    15      4       0.1051471       32.22985
2017    15      5       0.06302013      21.947
2017    15      6       0.0636629       22.12726
2017    15      7       0.1321493       38.26658
2017    16      0       0.2335096       59.97635
2017    16      1       0.163415        45.11615
2017    16      2       0.1452571       40.73228
2017    16      3       0.1328065       37.70365
2017    16      4       0.1468117       40.57767
2017    16      5       0.1789931       47.2404
2017    16      6       0.2788565       67.96358
2017    16      7       0.4282432       95.34164
2017    17      0       0.6951764       134.1935
2017    17      1       0.8414696       151.199
2017    17      2       0.7371948       139.4133
2017    17      3       0.5650691       116.7752
2017    17      4       0.3916292       89.67016
2017    17      5       0.2315283       59.63351
2017    17      6       0.2438717       61.20506
2017    17      7       0.3958377       89.77155
2017    18      0       0.5667437       117.5914
2017    18      1       0.593682        121.9814
2017    18      2       0.4417586       99.37866
2017    18      3       0.4529722       100.4302
2017    18      4       0.4748509       103.4382
2017    18      5       0.4274997       95.89329
2017    18      6       0.4839528       104.5775
2017    18      7       0.4588053       101.5737
2017    19      0       0.6154119       124.95
2017    19      1       0.6591809       130.1275
2017    19      2       0.5875569       121.0243
2017    19      3       0.5532608       116.324
2017    19      4       0.5398477       114.4919
2017    19      5       0.4244885       96.18336
2017    19      6       0.4649516       102.7234
2017    19      7       0.532394        113.5875
2017    20      0       0.4642785       102.6716
2017    20      1       0.3177514       76.9976
2017    20      2       0.3235277       78.01521
2017    20      3       0.3377395       80.76293
2017    20      4       0.3927194       90.67136
2017    20      5       0.4827832       105.5306
2017    20      6       0.6066375       123.8247
2017    20      7       0.7614969       143.534
2017    21      0       0.6585996       130.546
2017    21      1       0.4773999       102.9544
2017    21      2       0.5005633       106.52
2017    21      3       0.5570893       115.2831
2017    21      4       0.8393901       150.7464
2017    21      5       0.639083        125.0273
2017    21      6       0.1790283       47.76182
2017    21      7       0.3551498       80.51861
2017    22      0       0.4614155       97.43307
2017    22      1       0.4214297       90.85688
2017    22      2       0.2134887       53.70818
2017    22      3       0.2078406       52.20832
2017    22      4       0.3303659       74.93905
2017    22      5       0.305739        71.17194
2017    22      6       0.3232519       74.76875
2017    22      7       0.3569971       81.05757
2017    23      0       0.4311671       93.56661
2017    23      1       0.5656665       113.2813
2017    23      2       0.4598595       97.37702
2017    23      3       0.1646422       44.14515
2017    23      4       0.1157404       33.47274
2017    23      5       0.1194717       34.22222
2017    23      6       0.1369331       38.08292
2017    23      7       0.1609608       43.17209
2017    24      0       0.2042417       52.10721
2017    24      1       0.2294029       57.39607
2017    24      2       0.2210919       56.25141
2017    24      3       0.2318503       58.54426
2017    24      4       0.2307692       58.45326
2017    24      5       0.2132006       55.03656
2017    24      6       0.1951598       51.29136
2017    24      7       0.1615997       44.34247
2017    25      0       0.160051        43.90594
2017    25      1       0.1739613       46.89453
2017    25      2       0.2538762       62.98407
2017    25      3       0.3633631       83.50699
2017    25      4       0.3949541       89.13125
2017    25      5       0.3980733       89.69002
2017    25      6       0.4003057       89.64815
2017    25      7       0.5519853       113.1628
2017    26      0       0.6325802       125.2952
2017    26      1       0.5565607       115.5676
2017    26      2       0.4551541       100.3604
2017    26      3       0.4423218       97.86675
2017    26      4       0.428501        95.45468
2017    26      5       0.3876355       88.49184
2017    26      6       0.3852265       88.01704
2017    26      7       0.3896715       88.5896
2017    27      0       0.400109        90.37677
2017    27      1       0.2802494       68.92812
2017    27      2       0.203586        53.64228
2017    27      3       0.1830102       49.30853
2017    27      4       0.1748852       47.57172
2017    27      5       0.1642242       45.14911
2017    27      6       0.1520129       42.15466
2017    27      7       0.1513153       41.96732
2017    28      0       0.1626318       44.38923
2017    28      1       0.1671556       45.3523
2017    28      2       0.1776204       47.8351
2017    28      3       0.1848197       49.44421
2017    28      4       0.1857854       49.60669
2017    28      5       0.1924739       51.06949
2017    28      6       0.2052518       53.89894
2017    28      7       0.2480851       62.94257
2017    29      0       0.2929753       71.78439
2017    29      1       0.3162588       76.27412
2017    29      2       0.3007978       73.3819
2017    29      3       0.2998205       73.02515
2017    29      4       0.331369        78.69132
2017    29      5       0.4324788       95.85196
2017    29      6       0.6676144       129.923
2017    29      7       0.8732251       154.5125
2017    30      0       1.044123        170.759
2017    30      1       1.020525        169.3161
2017    30      2       0.970232        164.9106
2017    30      3       0.7368047       140.2345
2017    30      4       0.5704755       118.1778
2017    30      5       0.3870064       89.39042
2017    30      6       0.2460842       62.63389
2017    30      7       0.2676489       67.30552
2018    1       0       0.3606758       84.51176
2018    1       1       0.3771482       87.63991
2018    1       2       0.2924257       72.08207
2018    1       3       0.2359071       60.87158
2018    1       4       0.1806507       49.28953
2018    1       5       0.1520643       43.09281
2018    1       6       0.1404828       40.42
2018    1       7       0.1605838       45.10726
2018    2       0       0.1963209       53.00171
2018    2       1       0.2469029       63.5577
2018    2       2       0.2850885       71.21155
2018    2       3       0.2926367       72.70888
2018    2       4       0.2564944       65.5841
2018    2       5       0.2298243       60.08737
2018    2       6       0.2190172       57.75562
2018    2       7       0.2713212       68.40161
2018    3       0       0.3272175       79.24139
2018    3       1       0.3770936       88.19388
2018    3       2       0.412058        94.19611
2018    3       3       0.4528265       100.7167
2018    3       4       0.5138698       110.1623
2018    3       5       0.5354093       113.2871
2018    3       6       0.5035914       108.4322
2018    3       7       0.7137447       137.813
2018    4       0       0.9630674       165.2451
2018    4       1       1.010444        169.7913
2018    4       2       0.8034595       148.7278
2018    4       3       0.5369991       113.6526
2018    4       4       0.3877587       89.31297
2018    4       5       0.4055797       92.24414
2018    4       6       0.522591        111.0855
2018    4       7       0.6691688       132.0341
2018    5       0       0.6856597       134.3075
2018    5       1       0.7222259       138.8434
2018    5       2       0.9208454       161.2463
2018    5       3       0.8905963       158.2658
2018    5       4       0.6424251       128.9295
2018    5       5       0.6556508       130.0184
2018    5       6       0.6436698       128.5585
2018    5       7       0.8162792       150.416
2018    6       0       1.006581        170.6434
2018    6       1       1.09687         178.8632
2018    6       2       0.8714125       157.1303
2018    6       3       0.7302643       140.7519
2018    6       4       0.6249694       126.9148
2018    6       5       0.5552862       116.791
2018    6       6       0.6033736       123.5704
2018    6       7       0.9268933       162.5622
2018    7       0       1.166176        184.9742
2018    7       1       1.039997        174.6663
2018    7       2       0.825144        152.9413
2018    7       3       0.5638395       119.2989
2018    7       4       0.4533398       101.4675
2018    7       5       0.3842567       88.20775
2018    7       6       0.346193        81.3269
2018    7       7       0.4260369       96.17436
2018    8       0       0.6439173       130.9231
2018    8       1       0.7835442       149.1678
2018    8       2       0.6802994       136.352
2018    8       3       0.3761562       89.18989
2018    8       4       0.3443881       82.07446
2018    8       5       0.3646915       84.94637
2018    8       6       0.4211504       94.71743
2018    8       7       0.5268216       112.5717
2018    9       0       0.5894066       121.584
2018    9       1       0.5226034       112.27
2018    9       2       0.3732908       87.86801
2018    9       3       0.2184776       57.67754
2018    9       4       0.1644199       45.52908
2018    9       5       0.1783292       48.18143
2018    9       6       0.1912689       50.51868
2018    9       7       0.3376473       79.66589
2018    10      0       0.4889721       106.0807
2018    10      1       0.4985041       108.0415
2018    10      2       0.4168865       95.52594
2018    10      3       0.4413117       98.92252
2018    10      4       0.4196813       94.80593
2018    10      5       0.3597007       84.37462
2018    10      6       0.3414285       81.39181
2018    10      7       0.3410371       81.77348
2018    11      0       0.3685319       86.81401
2018    11      1       0.4050834       93.338
2018    11      2       0.384733        89.67918
2018    11      3       0.3954393       91.64556
2018    11      4       0.3691018       86.76024
2018    11      5       0.3020023       74.00814
2018    11      6       0.2819994       69.90569
2018    11      7       0.3697521       86.23496
2018    12      0       0.4554876       100.4999
2018    12      1       0.400853        91.5879
2018    12      2       0.3193068       76.98143
2018    12      3       0.2759568       68.75769
2018    12      4       0.2371583       60.84671
2018    12      5       0.6260545       125.4414
2018    12      6       0.5102005       108.5183
2018    12      7       0.712558        135.285
2018    13      0       0.6199489       124.2975
2018    13      1       0.5226549       111.0056
2018    13      2       0.4901159       106.1232
2018    13      3       0.4419709       98.0793
2018    13      4       0.4007995       91.17435
2018    13      5       0.3746022       87.05362
2018    13      6       0.5034998       108.632
2018    13      7       0.6097093       124.2461
2018    14      0       0.5959541       122.6538
2018    14      1       0.4730451       104.2036
2018    14      2       0.2686768       67.18816
2018    14      3       0.2474533       62.61626
2018    14      4       0.346864        81.22619
2018    14      5       0.3856518       88.23731
2018    14      6       0.305545        74.25026
2018    14      7       0.4775045       104.0681
2018    15      0       0.7134586       137.5765
2018    15      1       0.7867596       146.76
2018    15      2       0.6660742       131.5442
2018    15      3       0.7610184       143.7608
2018    15      4       0.7500873       142.4525
2018    15      5       0.5461308       114.7443
2018    15      6       0.2874026       70.96792
2018    15      7       0.1817592       49.71515
2018    16      0       0.1584443       44.50422
2018    16      1       0.1535276       43.30074
2018    16      2       0.1478317       41.80076
2018    16      3       0.1610136       44.53155
2018    16      4       0.2014002       53.48442
2018    16      5       0.1735988       47.80669
2018    16      6       0.1445112       41.33413
2018    16      7       0.1532428       43.29244
2018    17      0       0.1987169       53.18803
2018    17      1       0.201397        53.88281
2018    17      2       0.1477212       42.31494
2018    17      3       0.1199153       35.85388
2018    17      4       0.1057056       32.5269
2018    17      5       0.08680205      27.9499
2018    17      6       0.08721296      27.89029
2018    17      7       0.1575391       44.20619
2018    18      0       0.2121963       55.94954
2018    18      1       0.2161613       56.81054
2018    18      2       0.1896525       51.46547
2018    18      3       0.1741727       48.00845
2018    18      4       0.1781899       48.74015
2018    18      5       0.1719391       47.38549
2018    18      6       0.1714182       47.2172
2018    18      7       0.2629543       66.16209
2018    19      0       0.2942788       71.90544
2018    19      1       0.2081075       54.3859
2018    19      2       0.1831904       49.40083
2018    19      3       0.1795          48.77021
2018    19      4       0.1445462       41.11542
2018    19      5       0.1192493       35.34838
2018    19      6       0.1043597       31.75255
2018    19      7       0.1975453       52.66748
2018    20      0       0.1969017       52.53355
2018    20      1       0.1810001       49.39355
2018    20      2       0.1840673       50.26409
2018    20      3       0.1311804       38.38376
2018    20      4       0.1334209       38.75172
2018    20      5       0.1518064       42.84506
2018    20      6       0.1501243       42.43787
2018    20      7       0.1525539       42.96819
2018    21      0       0.2286361       59.4684
2018    21      1       0.3155672       76.64059
2018    21      2       0.3257282       78.49999
2018    21      3       0.2922327       72.15719
2018    21      4       0.2585524       65.42397
2018    21      5       0.2081568       55.03592
2018    21      6       0.169117        46.65235
2018    21      7       0.2442454       62.72525
2018    22      0       0.4161573       94.7518
2018    22      1       0.4935187       107.5378
2018    22      2       0.4500161       100.8038
2018    22      3       0.3048473       74.92888
2018    22      4       0.1522183       43.10696
2018    22      5       0.1260617       37.07297
2018    22      6       0.1566454       43.70285
2018    22      7       0.2068377       54.78344
2018    23      0       0.2894843       71.37073
2018    23      1       0.2722254       67.94869
2018    23      2       0.1979902       52.88043
2018    23      3       0.1525782       42.59646
2018    23      4       0.1589795       43.97335
2018    23      5       0.1457731       40.78896
2018    23      6       0.163773        44.02071
2018    23      7       0.2547843       63.30814
2018    24      0       0.376042        85.96786
2018    24      1       0.430066        95.36333
2018    24      2       0.3899394       89.33062
2018    24      3       0.2654902       67.0091
2018    24      4       0.189206        51.24595
2018    24      5       0.1792636       48.95613
2018    24      6       0.1825241       49.58168
2018    24      7       0.2108807       55.53793
2018    25      0       0.277725        68.86466
2018    25      1       0.3093913       74.88861
2018    25      2       0.290781        71.38395
2018    25      3       0.2209888       57.64148
2018    25      4       0.1685219       46.66016
2018    25      5       0.1395834       40.23644
2018    25      6       0.1521137       42.93202
2018    25      7       0.1614263       45.09424
2018    26      0       0.1638036       45.56406
2018    26      1       0.1804493       49.27888
2018    26      2       0.183744        50.25195
2018    26      3       0.2015331       54.04778
2018    26      4       0.231946        60.21495
2018    26      5       0.2348787       60.91685
2018    26      6       0.1991273       53.82002
2018    26      7       0.189578        51.82063
2018    27      0       0.2005626       54.34055
2018    27      1       0.2032631       54.98928
2018    27      2       0.1823821       50.38812
2018    27      3       0.1729961       48.28354
2018    27      4       0.1852155       50.97678
2018    27      5       0.1955127       53.20728
2018    27      6       0.1918479       52.28744
2018    27      7       0.1996186       53.82646
2018    28      0       0.2439789       63.06791
2018    28      1       0.2584949       66.07741
2018    28      2       0.2530479       64.72543
2018    28      3       0.325725        78.29742
2018    28      4       0.4017453       91.35542
2018    28      5       0.383839        87.99631
2018    28      6       0.3451293       81.64675
2018    28      7       0.4690639       102.8726
2018    29      0       0.5117855       109.8397
2018    29      1       0.5276666       112.872
2018    29      2       0.4009467       91.86934
2018    29      3       0.3138469       74.90391
2018    29      4       0.4579469       100.1582
2018    29      5       0.4808302       104.1452
2018    29      6       0.57428         118.234
2018    29      7       0.6990014       134.8663
2018    30      0       0.5585873       115.9033
2018    30      1       0.2994262       72.46361
2018    30      2       0.3512322       81.75686
2018    30      3       0.3859447       88.57436
2018    30      4       0.4192279       94.23864
2018    30      5       0.4427805       97.99394
2018    30      6       0.5735513       116.6601
2018    30      7       0.782576        144.1128
