####################################################################################################
# Month: 07Jul                                                                                     #
# Station: BGK                                                                                     #
# Frequency: 345 GHz                                                                               #
# Columns are: year    day     segment         tau     Tb (K)                                      #
####################################################################################################
2009    1       0       4.513648        274.5806
2009    1       1       5.389781        276.9981
2009    1       2       5.955584        277.6436
2009    1       3       6.00876         277.3087
2009    1       4       6.53611         277.2307
2009    1       5       7.579068        277.7223
2009    1       6       6.127013        276.3441
2009    1       7       4.586716        272.9433
2009    2       0       5.727383        275.9739
2009    2       1       6.012089        275.99
2009    2       2       5.744916        274.947
2009    2       3       5.783115        274.6776
2009    2       4       6.49329         275.434
2009    2       5       5.010552        273.8454
2009    2       6       5.541181        274.5612
2009    2       7       4.23141         270.6909
2009    3       0       4.196226        271.1214
2009    3       1       4.214733        271.7734
2009    3       2       4.471561        272.6891
2009    3       3       5.155176        274.3336
2009    3       4       5.689036        275.5258
2009    3       5       5.301241        275.0311
2009    3       6       4.558192        273.6182
2009    3       7       4.273017        273.1116
2009    4       0       4.086583        272.5746
2009    4       1       3.923356        271.9422
2009    4       2       4.060937        272.3671
2009    4       3       4.724195        274.3418
2009    4       4       5.201616        276.1783
2009    4       5       5.270917        277.7943
2009    4       6       5.239644        278.8002
2009    4       7       5.306157        278.84
2009    5       0       4.959002        277.0458
2009    5       1       5.270806        277.618
2009    5       2       5.129559        277.9413
2009    5       3       4.104309        274.7544
2009    5       4       3.799605        272.0781
2009    5       5       4.239257        274.1468
2009    5       6       4.213093        273.656
2009    5       7       3.925998        271.6391
2009    6       0       3.79972         270.8234
2009    6       1       3.812351        270.1808
2009    6       2       3.810804        268.7631
2009    6       3       4.085697        269.4487
2009    6       4       4.798025        271.9911
2009    6       5       4.207386        270.8363
2009    6       6       4.013634        270.2646
2009    6       7       3.648487        268.1919
2009    7       0       3.475119        267.3033
2009    7       1       3.402911        267.0016
2009    7       2       3.324933        265.7615
2009    7       3       3.219585        263.9271
2009    7       4       3.538867        266.3812
2009    7       5       3.509465        266.5834
2009    7       6       3.951782        269.6115
2009    7       7       3.950745        269.3085
2009    8       0       3.229875        264.0686
2009    8       1       3.166775        263.6677
2009    8       2       3.222586        263.6212
2009    8       3       3.511178        265.9978
2009    8       4       4.649996        271.6653
2009    8       5       4.858957        272.2583
2009    8       6       5.001263        272.682
2009    8       7       4.47717         271.2153
2009    9       0       3.660062        267.0139
2009    9       1       2.910195        259.3395
2009    9       2       2.864798        258.3209
2009    9       3       3.117717        261.7988
2009    9       4       3.183601        262.5186
2009    9       5       3.341761        264.527
2009    9       6       3.6575          267.6681
2009    9       7       4.95891         273.5858
2009    10      0       4.25537         271.5871
2009    10      1       4.001917        270.8252
2009    10      2       3.688495        268.6879
2009    10      3       3.350557        265.3778
2009    10      4       3.608863        267.1944
2009    10      5       3.55186         267.4564
2009    10      6       3.667819        268.7191
2009    10      7       3.460861        267.214
2009    11      0       3.013158        262.6426
2009    11      1       3.100323        263.8426
2009    11      2       3.216922        265.0672
2009    11      3       3.231593        264.9891
2009    11      4       4.045748        270.5249
2009    11      5       4.696766        273.4002
2009    11      6       4.386745        272.5022
2009    11      7       3.452809        267.7698
2009    12      0       3.39325         267.901
2009    12      1       3.326978        267.337
2009    12      2       2.847351        260.8667
2009    12      3       2.176143        244.5371
2009    12      4       2.193991        244.5705
2009    12      5       2.230365        245.4406
2009    12      6       2.124306        241.3705
2009    12      7       2.008262        236.2907
2009    13      0       2.093185        238.6467
2009    13      1       2.301778        244.9196
2009    13      2       2.09333         238.119
2009    13      3       2.261207        242.9698
2009    13      4       2.526661        249.4941
2009    13      5       2.466248        248.4827
2009    13      6       2.49987         248.8725
2009    13      7       2.410103        247.0373
2009    14      0       2.686486        252.3332
2009    14      1       2.776244        253.9631
2009    14      2       2.918272        255.3436
2009    14      3       3.841716        264.8369
2009    14      4       4.574981        268.5051
2009    14      5       3.716959        263.654
2009    14      6       3.974924        264.3089
2009    14      7       3.899764        263.859
2009    15      0       4.325279        267.4342
2009    15      1       5.2123          271.9421
2009    15      2       4.202976        268.4263
2009    15      3       3.761844        266.3955
2009    15      4       5.253498        272.8493
2009    15      5       3.965619        268.5936
2009    15      6       3.35029         264.0736
2009    15      7       3.233574        263.5269
2009    16      0       2.85658         257.8715
2009    16      1       2.452098        249.8662
2009    16      2       2.087378        238.6027
2009    16      3       2.151397        239.8011
2009    16      4       2.371978        245.9474
2009    16      5       2.215576        241.5748
2009    16      6       1.820929        227.3454
2009    16      7       1.621329        218.0202
2009    17      0       1.505535        211.6932
2009    17      1       1.351709        201.7835
2009    17      2       1.195483        190.0435
2009    17      3       1.199336        190.4187
2009    17      4       1.557327        215.2617
2009    17      5       2.170352        241.8044
2009    17      6       2.474365        249.9714
2009    17      7       2.314444        246.1026
2009    18      0       2.222483        243.9983
2009    18      1       1.936634        234.0972
2009    18      2       1.901304        231.7771
2009    18      3       2.118179        239.1071
2009    18      4       2.35444         246.1027
2009    18      5       2.853528        256.2167
2009    18      6       3.069828        259.2819
2009    18      7       2.624835        252.9646
2009    19      0       2.483008        250.2467
2009    19      1       2.984636        259.4614
2009    19      2       3.358726        264.1483
2009    19      3       3.159419        261.8406
2009    19      4       3.03906         260.8193
2009    19      5       3.086586        262.3829
2009    19      6       2.853694        260.1129
2009    19      7       2.777979        259.225
2009    20      0       2.662009        256.8234
2009    20      1       2.214103        245.9125
2009    20      2       2.088825        242.1104
2009    20      3       2.076701        241.9817
2009    20      4       2.568995        256.4726
2009    20      5       2.6107          257.3556
2009    20      6       2.177493        245.8493
2009    20      7       2.219801        246.5196
2009    21      0       2.451316        252.542
2009    21      1       2.579703        254.9306
2009    21      2       2.814743        258.3123
2009    21      3       1.866329        232.1827
2009    21      4       1.838588        230.6849
2009    21      5       2.153468        242.7313
2009    21      6       1.867146        232.3822
2009    21      7       1.892758        233.0062
2009    22      0       2.102883        240.3724
2009    22      1       2.170284        242.4232
2009    22      2       2.253782        244.244
2009    22      3       1.899606        231.1088
2009    22      4       2.103656        238.4216
2009    22      5       2.634911        251.4715
2009    22      6       2.904994        256.2795
2009    22      7       2.994079        257.292
2009    23      0       3.166966        259.1739
2009    23      1       2.550036        248.2257
2009    23      2       2.573466        245.9115
2009    23      3       3.254868        254.785
2009    23      4       2.39022         240.3781
2009    23      5       2.598378        244.9409
2009    23      6       2.706562        246.9353
2009    23      7       2.781822        248.1781
2009    24      0       2.581094        244.3552
2009    24      1       2.711126        246.9415
2009    24      2       2.370209        239.7016
2009    24      3       2.872034        249.9619
2009    24      4       2.937753        250.9346
2009    24      5       2.945445        250.7535
2009    24      6       2.981115        251.554
2009    24      7       3.04929         252.7823
2009    25      0       2.329682        239.1545
2009    25      1       2.999026        252.575
2009    25      2       2.810576        249.7031
2009    25      3       2.509893        244.1196
2009    25      4       2.399401        242.1313
2009    25      5       2.709357        249.4471
2009    25      6       2.922388        253.5119
2009    25      7       2.795473        251.4882
2009    26      0       2.50224         245.7036
2009    26      1       2.265817        239.9241
2009    26      2       2.128771        236.4187
2009    26      3       2.067382        235.0235
2009    26      4       2.370968        244.4828
2009    26      5       2.834106        254.8514
2009    26      6       4.202094        267.7769
2009    26      7       3.77016         266.4106
2009    27      0       3.67545         265.4553
2009    27      1       2.830614        256.2525
2009    27      2       1.438571        207.4661
2009    27      3       2.226124        243.1828
2009    27      4       3.324119        262.4797
2009    27      5       2.840086        255.2975
2009    27      6       3.327447        260.5027
2009    27      7       3.259816        260.6817
2009    28      0       3.22411         260.6127
2009    28      1       2.921067        256.7803
2009    28      2       3.269724        262.0402
2009    28      3       3.887085        267.5385
2009    28      4       3.804226        266.2353
2009    28      5       3.392781        261.6841
2009    28      6       4.387072        267.9757
2009    28      7       4.978934        270.779
2009    29      0       4.94252         270.8989
2009    29      1       4.864726        270.3842
2009    29      2       4.463857        269.4697
2009    29      3       4.310243        269.289
2009    29      4       4.762665        270.796
2009    29      5       5.381928        271.9635
2009    29      6       5.118438        271.4273
2009    29      7       5.135899        271.5348
2009    30      0       4.770762        270.668
2009    30      1       4.228089        268.8165
2009    30      2       4.156502        268.7728
2009    30      3       3.778491        266.484
2009    30      4       3.599695        264.9902
2009    30      5       3.633618        265.0497
2009    30      6       3.958388        266.9806
2009    30      7       4.075801        266.9806
2009    31      0       4.203783        267.2452
2009    31      1       4.01647         265.9035
2009    31      2       3.646282        263.3676
2009    31      3       3.229994        259.0921
2009    31      4       4.596625        268.1807
2009    31      5       4.238572        267.4923
2009    31      6       4.381086        268.5984
2009    31      7       3.624699        264.2055
2010    1       0       3.267773        261.8147
2010    1       1       2.730878        253.3779
2010    1       2       2.789441        254.7403
2010    1       3       3.368007        261.7651
2010    1       4       3.889093        265.4699
2010    1       5       3.815722        266.3693
2010    1       6       3.950996        267.6054
2010    1       7       4.181457        268.6269
2010    2       0       4.279203        269.0973
2010    2       1       4.360238        269.6362
2010    2       2       3.18195         263.7849
2010    2       3       3.543361        266.8627
2010    2       4       3.394534        265.82
2010    2       5       3.756974        268.3452
2010    2       6       3.914416        269.3524
2010    2       7       4.067653        270.038
2010    3       0       4.331519        270.0278
2010    3       1       3.889905        265.9418
2010    3       2       4.913997        270.8423
2010    3       3       4.257979        270.7658
2010    3       4       4.266253        271.1168
2010    3       5       5.258946        273.5976
2010    3       6       6.10859         274.6027
2010    3       7       6.678686        275.3814
2010    4       0       5.592151        274.3773
2010    4       1       4.961183        273.0308
2010    4       2       5.540752        274.2146
2010    4       3       5.302616        273.9523
2010    4       4       5.283313        273.5192
2010    4       5       4.959985        272.4512
2010    4       6       5.589417        273.766
2010    4       7       5.201194        272.4886
2010    5       0       3.98586         268.5026
2010    5       1       3.700782        267.3256
2010    5       2       4.157504        269.5935
2010    5       3       5.071165        272.1525
2010    5       4       4.360401        270.1946
2010    5       5       4.373225        270.3041
2010    5       6       4.033018        268.6959
2010    5       7       4.013317        268.4381
2010    6       0       4.097845        268.9265
2010    6       1       4.279234        269.881
2010    6       2       5.391258        272.8073
2010    6       3       5.263829        272.4823
2010    6       4       4.621563        271.0132
2010    6       5       4.058406        268.5253
2010    6       6       3.703688        266.2943
2010    6       7       3.227879        262.0242
2010    7       0       3.17336         261.5148
2010    7       1       3.518004        265.0396
2010    7       2       3.26826         261.6543
2010    7       3       3.253225        261.1476
2010    7       4       4.179554        268.157
2010    7       5       4.408025        268.969
2010    7       6       5.004272        270.6678
2010    7       7       4.438769        268.5331
2010    8       0       4.861476        270.1338
2010    8       1       4.637143        269.7223
2010    8       2       4.006003        266.4717
2010    8       3       4.028326        266.5731
2010    8       4       3.964006        266.8555
2010    8       5       4.372363        269.2948
2010    8       6       4.868933        270.7641
2010    8       7       4.809826        270.1794
2010    9       0       3.973369        266.706
2010    9       1       3.749117        264.8483
2010    9       2       4.531961        268.1983
2010    9       3       3.994984        265.4898
2010    9       4       4.121065        266.0363
2010    9       5       3.947366        265.1382
2010    9       6       3.555599        262.367
2010    9       7       2.857409        253.9057
2010    10      0       2.711184        251.6349
2010    10      1       2.651385        250.8169
2010    10      2       2.601375        249.7538
2010    10      3       2.551329        248.6552
2010    10      4       2.736613        252.3553
2010    10      5       2.842062        254.7582
2010    10      6       2.894101        255.9789
2010    10      7       2.813112        254.87
2010    11      0       2.718066        252.9699
2010    11      1       2.756569        253.3693
2010    11      2       2.736271        252.7667
2010    11      3       2.729145        252.2346
2010    11      4       3.051424        256.799
2010    11      5       3.179993        259.0089
2010    11      6       3.24435         259.6601
2010    11      7       3.170489        258.4519
2010    12      0       2.929431        255.1183
2010    12      1       2.81645         253.1498
2010    12      2       2.888477        254.0141
2010    12      3       3.050428        256.5287
2010    12      4       3.618324        262.74
2010    12      5       3.407892        261.4177
2010    12      6       3.339109        260.953
2010    12      7       3.233367        259.7202
2010    13      0       3.060533        257.4652
2010    13      1       2.904793        255.1353
2010    13      2       2.819564        253.6624
2010    13      3       2.707151        251.6711
2010    13      4       2.82098         253.4072
2010    13      5       2.712154        251.8481
2010    13      6       2.594245        249.4696
2010    13      7       2.414203        245.2252
2010    14      0       2.326882        243.1671
2010    14      1       2.357722        244.0829
2010    14      2       2.409922        245.5392
2010    14      3       2.460604        246.8887
2010    14      4       2.555909        249.0525
2010    14      5       2.515641        248.5445
2010    14      6       2.506238        248.5327
2010    14      7       2.445306        247.207
2010    15      0       2.236815        242.0205
2010    15      1       2.181056        240.4915
2010    15      2       2.145855        239.3042
2010    15      3       2.191341        240.5307
2010    15      4       2.252546        242.5588
2010    15      5       2.309799        242.665
2010    15      6       2.422091        245.7232
2010    15      7       2.096493        236.9221
2010    16      0       1.875517        229.5793
2010    16      1       1.784301        225.872
2010    16      2       1.456905        208.7638
2010    16      3       1.179508        189.4638
2010    16      4       1.032765        177.0871
2010    16      5       1.280657        197.9519
2010    16      6       1.010054        174.78
2010    16      7       0.7936969       151.0774
2010    17      0       0.7654687       147.8492
2010    17      1       0.8960474       163.092
2010    17      2       1.168518        189.3803
2010    17      3       2.189894        243.9822
2010    17      4       3.46661         267.4223
2010    17      5       3.430037        267.6034
2010    17      6       3.563139        270.3693
2010    17      7       3.60471         270.5866
2010    18      0       3.967576        272.1924
2010    18      1       4.160507        272.6284
2010    18      2       3.543065        269.0067
2010    18      3       2.915805        261.3993
2010    18      4       2.3126          248.7817
2010    18      5       2.498971        253.8639
2010    18      6       2.518154        254.2218
2010    18      7       2.304802        248.6535
2010    19      0       2.352543        249.7449
2010    19      1       2.484161        253.0272
2010    19      2       2.510019        253.5342
2010    19      3       2.371898        249.699
2010    19      4       2.397136        250.2268
2010    19      5       2.625835        255.7269
2010    19      6       2.730038        257.9472
2010    19      7       2.717929        257.7465
2010    20      0       2.474847        253.0103
2010    20      1       2.370759        250.0195
2010    20      2       2.15716         242.7103
2010    20      3       1.767171        228.2744
2010    20      4       1.663552        223.0643
2010    20      5       1.865058        231.8607
2010    20      6       2.038914        238.0164
2010    20      7       1.659698        221.5847
2010    21      0       1.559968        216.0864
2010    21      1       1.367418        203.7119
2010    21      2       1.177281        188.8825
2010    21      3       1.1917          189.9409
2010    21      4       1.440581        208.2866
2010    21      5       1.891933        232.1891
2010    21      6       1.865491        231.3667
2010    21      7       1.706152        224.0616
2010    22      0       1.903933        233.2582
2010    22      1       3.420907        265.3164
2010    22      2       4.723332        271.5644
2010    22      3       4.609252        271.3075
2010    22      4       5.1153          272.2399
2010    22      5       4.747368        271.0294
2010    22      6       4.821689        271.143
2010    22      7       4.107244        268.9547
2010    23      0       4.019404        268.8728
2010    23      1       3.936552        268.8442
2010    23      2       3.763503        268.4381
2010    23      3       3.853713        268.6494
2010    23      4       4.754423        272.4004
2010    23      5       4.102688        270.7398
2010    23      6       4.615917        273.5001
2010    23      7       5.145444        275.0462
2010    24      0       4.582085        273.997
2010    24      1       4.252141        273.0805
2010    24      2       4.240284        273.2622
2010    24      3       4.164945        273.0558
2010    24      4       4.760897        275.2886
2010    24      5       4.528529        274.9748
2010    24      6       4.140783        273.6222
2010    24      7       3.982638        272.9907
2010    25      0       3.816076        271.9397
2010    25      1       3.605303        270.4292
2010    25      2       3.651593        270.5725
2010    25      3       3.811539        271.4469
2010    25      4       4.366066        274.0111
2010    25      5       4.642002        275.0968
2010    25      6       4.708858        275.1577
2010    25      7       5.583739        276.5851
2010    26      0       5.236366        275.0527
2010    26      1       4.856609        273.0845
2010    26      2       4.504804        272.1971
2010    26      3       4.180415        271.6868
2010    26      4       4.283154        272.3615
2010    26      5       4.950846        275.123
2010    26      6       4.718355        274.5651
2010    26      7       4.577967        274.4228
2010    27      0       4.625224        274.1696
2010    27      1       4.516903        273.5515
2010    27      2       4.367552        272.9137
2010    27      3       4.222062        272.4491
2010    27      4       4.23682         273.079
2010    27      5       4.233916        273.4475
2010    27      6       4.136104        272.4019
2010    27      7       4.201604        272.1387
2010    28      0       3.926504        270.6826
2010    28      1       3.69259         269.3956
2010    28      2       3.674485        269.2165
2010    28      3       3.812452        270.4078
2010    28      4       3.948255        271.4505
2010    28      5       4.01947         272.0679
2010    28      6       4.015357        272.0589
2010    28      7       4.057754        272.3062
2010    29      0       4.119796        273.033
2010    29      1       4.284382        273.8017
2010    29      2       4.468563        273.6359
2010    29      3       4.623933        273.2715
2010    29      4       5.11252         273.5114
2010    29      5       5.888391        274.9785
2010    29      6       5.859391        275.6425
2010    29      7       5.141857        274.9913
2010    30      0       5.346902        275.2827
2010    30      1       5.122483        274.6374
2010    30      2       5.546605        275.2317
2010    30      3       5.205293        274.4818
2010    30      4       6.239133        276.2166
2010    30      5       6.348914        276.6756
2010    30      6       6.168717        276.5954
2010    30      7       6.170558        276.6989
2010    31      0       5.449874        275.653
2010    31      1       4.995608        274.8382
2010    31      2       4.767365        274.3066
2010    31      3       4.515796        273.3724
2010    31      4       4.184448        271.7875
2010    31      5       3.895439        270.8858
2010    31      6       3.774777        269.7343
2010    31      7       3.609084        268.2408
2011    1       0       2.071996        236.4916
2011    1       1       2.327163        244.5863
2011    1       2       2.583761        250.4568
2011    1       3       2.692122        252.222
2011    1       4       2.936759        256.4476
2011    1       5       3.154084        259.3135
2011    1       6       3.117417        258.76
2011    1       7       3.27569         261.3339
2011    2       0       3.522277        264.2379
2011    2       1       3.44863         264.0176
2011    2       2       3.362104        263.9773
2011    2       3       3.381286        265.3455
2011    2       4       3.678325        269.0801
2011    2       5       4.054171        272.1934
2011    2       6       4.52494         274.0812
2011    2       7       4.695513        272.6451
2011    3       0       4.190912        270.2091
2011    3       1       4.241246        269.9658
2011    3       2       4.042035        268.7956
2011    3       3       4.005161        267.7752
2011    3       4       3.637057        265.1685
2011    3       5       3.332248        263.0417
2011    3       6       3.554199        264.7667
2011    3       7       3.449723        263.3006
2011    4       0       3.254618        261.1353
2011    4       1       3.285173        261.6927
2011    4       2       3.387194        262.9164
2011    4       3       3.428889        263.3607
2011    4       4       3.470023        263.6715
2011    4       5       3.58806         264.5111
2011    4       6       3.574142        264.3042
2011    4       7       3.501911        263.7885
2011    5       0       3.434074        263.2955
2011    5       1       3.413481        263.3731
2011    5       2       3.346789        262.6741
2011    5       3       3.192014        261.0339
2011    5       4       3.170053        260.8434
2011    5       5       3.190112        261.0604
2011    5       6       3.207832        261.2355
2011    5       7       3.114598        260.17
2011    6       0       2.980245        258.7332
2011    6       1       2.868027        257.5165
2011    6       2       2.94298         258.6918
2011    6       3       3.09359         260.67
2011    6       4       3.100802        261.2908
2011    6       5       3.318384        263.7424
2011    6       6       3.075835        260.8451
2011    6       7       2.314615        246.646
2011    7       0       1.701444        224.2062
2011    7       1       1.618298        219.9111
2011    7       2       1.711208        224.5969
2011    7       3       1.72419         225.1068
2011    7       4       1.791514        227.936
2011    7       5       2.14996         241.1568
2011    7       6       2.162726        241.6486
2011    7       7       1.951247        234.0549
2011    8       0       1.94576         233.4329
2011    8       1       2.270875        244.3306
2011    8       2       2.498112        249.7834
2011    8       3       2.567111        250.9712
2011    8       4       2.692775        252.5944
2011    8       5       2.687233        252.3708
2011    8       6       2.568261        249.7987
2011    8       7       2.272014        242.6767
2011    9       0       2.260449        242.9078
2011    9       1       2.252397        243.2986
2011    9       2       2.077202        237.6081
2011    9       3       2.036859        236.1134
2011    9       4       2.036317        235.9175
2011    9       5       2.091652        237.4804
2011    9       6       2.021764        235.1356
2011    9       7       1.907002        230.7319
2011    10      0       1.917434        231.3336
2011    10      1       1.925643        231.7234
2011    10      2       1.924795        231.5698
2011    10      3       1.878853        229.8378
2011    10      4       2.461951        248.7985
2011    10      5       2.770881        255.5946
2011    10      6       2.52879         250.781
2011    10      7       1.944001        233.5147
2011    11      0       1.913289        232.4714
2011    11      1       2.384984        248.176
2011    11      2       2.599543        252.7665
2011    11      3       2.359161        246.9479
2011    11      4       3.129283        260.3884
2011    11      5       4.091856        268.2174
2011    11      6       4.536545        270.0246
2011    11      7       4.562607        270.2062
2011    12      0       4.020931        268.2381
2011    12      1       4.726143        270.9091
2011    12      2       3.464585        264.5177
2011    12      3       4.630989        270.5452
2011    12      4       4.742667        271.0936
2011    12      5       5.142231        272.3028
2011    12      6       5.025409        272.2566
2011    12      7       4.602531        271.187
2011    13      0       5.772157        273.1098
2011    13      1       4.807543        271.4155
2011    13      2       4.884192        271.917
2011    13      3       5.034368        272.4923
2011    13      4       5.311238        272.9223
2011    13      5       5.211886        273.1647
2011    13      6       4.541817        271.5087
2011    13      7       4.41042         270.9847
2011    14      0       3.922332        268.3713
2011    14      1       3.728281        267.0036
2011    14      2       3.665571        266.4391
2011    14      3       3.578032        265.6444
2011    14      4       3.597307        265.4111
2011    14      5       3.529199        265.0726
2011    14      6       3.35344         263.7636
2011    14      7       3.047257        260.7629
2011    15      0       2.975078        259.5716
2011    15      1       2.818997        256.9318
2011    15      2       2.593091        252.6276
2011    15      3       2.627656        253.3914
2011    15      4       2.967142        258.9536
2011    15      5       2.971974        259.1921
2011    15      6       3.004716        259.2184
2011    15      7       3.011203        259.1637
2011    16      0       3.074543        260.0495
2011    16      1       2.977103        258.9148
2011    16      2       2.96766         258.6568
2011    16      3       2.970924        258.6885
2011    16      4       3.150067        260.5452
2011    16      5       3.218765        261.8189
2011    16      6       3.256219        262.6023
2011    16      7       3.124556        261.1221
2011    17      0       2.872296        257.8912
2011    17      1       2.842412        257.3625
2011    17      2       2.75636         256.0653
2011    17      3       2.746936        256.0551
2011    17      4       2.76849         256.2217
2011    17      5       2.872263        257.153
2011    17      6       3.14229         260.6523
2011    17      7       3.193599        261.6329
2011    18      0       3.224892        262.3177
2011    18      1       3.190157        262.1793
2011    18      2       3.075204        260.671
2011    18      3       2.751918        255.7636
2011    18      4       2.716833        254.6973
2011    18      5       2.928203        258.4297
2011    18      6       2.708052        255.0474
2011    18      7       2.310325        246.2235
2011    19      0       2.405806        248.6845
2011    19      1       2.432803        249.0188
2011    19      2       2.426864        248.1696
2011    19      3       2.573177        250.6104
2011    19      4       2.894415        255.8018
2011    19      5       3.019992        257.6586
2011    19      6       3.020909        257.8387
2011    19      7       2.956491        256.9484
2011    20      0       2.758622        254.2414
2011    20      1       2.726356        253.9908
2011    20      2       2.691127        253.4005
2011    20      3       2.680878        253.2332
2011    20      4       2.88375         256.9999
2011    20      5       2.989174        259.2186
2011    20      6       3.050142        260.4884
2011    20      7       3.064642        260.5257
2011    21      0       2.814662        256.8618
2011    21      1       2.702126        255.1166
2011    21      2       2.865829        257.886
2011    21      3       3.258142        262.6956
2011    21      4       4.950728        271.3043
2011    21      5       5.368613        272.1465
2011    21      6       5.349076        272.1202
2011    21      7       4.260126        269.0009
2011    22      0       4.013931        267.7351
2011    22      1       4.041916        267.9662
2011    22      2       4.018658        267.8021
2011    22      3       4.329471        269.4876
2011    22      4       4.331531        269.7801
2011    22      5       3.902318        268.3602
2011    22      6       3.628893        267.0918
2011    22      7       3.518727        266.5751
2011    23      0       3.393965        265.923
2011    23      1       3.639278        268.0023
2011    23      2       3.124399        262.759
2011    23      3       2.880826        259.3546
2011    23      4       4.176436        270.5136
2011    23      5       4.119145        271.809
2011    23      6       3.692903        270.3945
2011    23      7       3.50488         268.8258
2011    24      0       3.304581        266.3785
2011    24      1       4.012522        272.5967
2011    24      2       5.262061        276.8621
2011    24      3       5.83192         277.8993
2011    24      4       5.453233        276.8856
2011    24      5       5.478545        276.4076
2011    24      6       5.629659        276.5115
2011    24      7       5.638116        276.5938
2011    25      0       5.556021        276.3365
2011    25      1       5.593006        275.9966
2011    25      2       5.927474        275.7754
2011    25      3       5.390515        274.267
2011    25      4       4.700762        272.4161
2011    25      5       3.69988         267.5325
2011    25      6       3.256775        263.816
2011    25      7       3.223562        263.1709
2011    26      0       2.870526        258.6036
2011    26      1       3.068612        261.6778
2011    26      2       4.444211        270.8619
2011    26      3       5.232046        272.9539
2011    26      4       5.02539         273.569
2011    26      5       5.594962        275.8224
2011    26      6       5.695317        276.9079
2011    26      7       5.741249        275.7629
2011    27      0       5.283226        275.1686
2011    27      1       6.229           277.266
2011    27      2       6.264088        276.7346
2011    27      3       5.932002        276.1841
2011    27      4       5.951719        276.3533
2011    27      5       5.444079        276.5931
2011    27      6       5.571041        276.133
2011    27      7       4.51177         273.0217
2011    28      0       5.240474        275.2496
2011    28      1       5.240644        274.9517
2011    28      2       6.548822        276.1434
2011    28      3       6.805929        276.166
2011    28      4       7.329163        275.4263
2011    28      5       6.825801        274.508
2011    28      6       4.583279        270.9128
2011    28      7       3.769997        267.6623
2011    29      0       5.596501        273.2508
2011    29      1       6.663884        275.6566
2011    29      2       4.858779        273.7474
2011    29      3       3.813582        268.5667
2011    29      4       4.700941        271.5327
2011    29      5       5.352292        272.9971
2011    29      6       5.794874        273.3539
2011    29      7       5.707066        273.2882
2011    30      0       5.677338        273.5187
2011    30      1       5.957583        273.5676
2011    30      2       5.082098        271.7232
2011    30      3       4.488089        269.9523
2011    30      4       4.954359        271.6593
2011    30      5       4.122036        269.615
2011    30      6       4.154083        269.9267
2011    30      7       3.96201         268.55
2011    31      0       3.805204        267.9472
2011    31      1       3.756585        268.0905
2011    31      2       3.95564         269.4117
2011    31      3       4.279849        271.0682
2011    31      4       4.166927        271.2275
2011    31      5       4.168971        272.2099
2011    31      6       4.110038        271.85
2011    31      7       4.422248        273.4153
2012    1       0       2.82392         255.7377
2012    1       1       2.737001        253.8701
2012    1       2       2.696659        252.6572
2012    1       3       2.832651        254.5183
2012    1       4       2.902114        255.7887
2012    1       5       2.829093        255.2975
2012    1       6       2.82337         255.7362
2012    1       7       2.991989        258.2833
2012    2       0       3.010449        257.9743
2012    2       1       3.001864        257.2346
2012    2       2       2.918758        255.2434
2012    2       3       3.502284        262.0162
2012    2       4       3.437335        262.255
2012    2       5       3.468277        262.8367
2012    2       6       3.617931        264.1314
2012    2       7       3.333406        261.5076
2012    3       0       3.070961        258.5389
2012    3       1       3.181558        260.1804
2012    3       2       3.125215        259.3972
2012    3       3       3.271451        260.7903
2012    3       4       3.44942         262.7181
2012    3       5       3.749162        264.9451
2012    3       6       4.451696        268.6721
2012    3       7       5.00394         270.4658
2012    4       0       4.566975        269.4338
2012    4       1       4.353544        268.7541
2012    4       2       4.476042        268.6885
2012    4       3       4.647026        269.1935
2012    4       4       4.684209        269.2903
2012    4       5       3.9208          265.4606
2012    4       6       2.926474        256.3968
2012    4       7       2.204458        241.4537
2012    5       0       1.831318        228.185
2012    5       1       1.991766        234.2362
2012    5       2       2.590496        250.7136
2012    5       3       3.629506        264.3521
2012    5       4       4.004678        267.2528
2012    5       5       4.602844        269.8128
2012    5       6       4.398872        268.5799
2012    5       7       4.843721        270.0358
2012    6       0       4.260591        268.0102
2012    6       1       4.770602        269.9937
2012    6       2       5.319957        271.1352
2012    6       3       5.450901        270.9848
2012    6       4       5.586635        272.1089
2012    6       5       6.016585        273.4284
2012    6       6       5.890929        273.8814
2012    6       7       5.163719        273.3369
2012    7       0       6.203368        275.0571
2012    7       1       6.001834        275.3064
2012    7       2       6.077649        275.497
2012    7       3       6.29737         275.9282
2012    7       4       6.017328        276.2627
2012    7       5       5.279375        275.6993
2012    7       6       4.295715        272.3837
2012    7       7       3.241321        263.9847
2012    8       0       3.53597         266.469
2012    8       1       5.127989        273.1456
2012    8       2       5.54908         273.4522
2012    8       3       4.968351        271.5384
2012    8       4       4.931475        271.972
2012    8       5       5.175126        273.1873
2012    8       6       5.330777        273.8636
2012    8       7       4.823384        272.8483
2012    9       0       3.749999        267.4088
2012    9       1       2.569225        251.3844
2012    9       2       1.725531        222.6882
2012    9       3       1.353198        200.806
2012    9       4       1.538708        212.4878
2012    9       5       1.945717        231.8161
2012    9       6       2.04965         235.5445
2012    9       7       1.753251        224.2058
2012    10      0       1.605932        217.3331
2012    10      1       1.540204        213.5803
2012    10      2       1.431429        206.6033
2012    10      3       1.298453        197.3173
2012    10      4       1.592418        215.9107
2012    10      5       1.732261        223.7867
2012    10      6       1.889783        231.0479
2012    10      7       1.979791        234.7392
2012    11      0       1.789841        226.8249
2012    11      1       1.300609        198.4074
2012    11      2       1.129068        184.6555
2012    11      3       1.104518        182.7251
2012    11      4       1.6343          219.923
2012    11      5       1.851011        230.6839
2012    11      6       1.930283        234.0101
2012    11      7       1.942162        234.2773
2012    12      0       1.434848        208.6003
2012    12      1       1.442354        208.9028
2012    12      2       1.525487        213.7571
2012    12      3       1.47712         210.738
2012    12      4       2.006799        236.0933
2012    12      5       2.291539        245.1973
2012    12      6       2.326891        246.4326
2012    12      7       1.666106        221.9787
2012    13      0       1.379512        205.1383
2012    13      1       1.194717        191.2464
2012    13      2       1.480304        211.3834
2012    13      3       1.687784        221.8645
2012    13      4       2.460367        248.0596
2012    13      5       2.732284        254.7116
2012    13      6       2.584821        251.618
2012    13      7       2.646468        254.0418
2012    14      0       2.435022        250.2206
2012    14      1       2.64132         254.8922
2012    14      2       2.808844        258.2838
2012    14      3       2.661256        255.7548
2012    14      4       3.096595        264.0793
2012    14      5       3.534329        269.3457
2012    14      6       2.781312        258.9043
2012    14      7       3.086413        263.3142
2012    15      0       3.019465        262.937
2012    15      1       2.691316        256.9057
2012    15      2       3.076859        262.4365
2012    15      3       3.489051        266.7065
2012    15      4       2.709486        256.2322
2012    15      5       2.145784        242.8993
2012    15      6       2.128028        243.4496
2012    15      7       2.317853        249.5185
2012    16      0       2.087096        242.2647
2012    16      1       2.04147         240.9704
2012    16      2       2.69256         258.6132
2012    16      3       2.890859        261.7297
2012    16      4       2.759807        259.5589
2012    16      5       2.744901        258.9541
2012    16      6       2.850997        260.8539
2012    16      7       2.727324        258.8603
2012    17      0       2.671371        256.9969
2012    17      1       2.705356        257.034
2012    17      2       2.759899        257.6761
2012    17      3       2.846061        258.6022
2012    17      4       3.130484        262.347
2012    17      5       3.43442         266.018
2012    17      6       3.682222        268.1836
2012    17      7       4.02733         269.7205
2012    18      0       4.048409        269.2622
2012    18      1       4.027403        268.7143
2012    18      2       4.295393        269.8174
2012    18      3       5.055978        272.1793
2012    18      4       5.376843        272.5545
2012    18      5       4.65153         271.5372
2012    18      6       5.438357        273.1413
2012    18      7       4.855025        271.5356
2012    19      0       4.012317        267.9673
2012    19      1       3.61577         264.9039
2012    19      2       3.491396        263.2557
2012    19      3       3.235238        260.4228
2012    19      4       3.357455        261.6585
2012    19      5       3.622003        264.3439
2012    19      6       3.504946        263.7685
2012    19      7       3.136063        260.2916
2012    20      0       3.035848        259.2042
2012    20      1       3.219076        261.604
2012    20      2       3.264034        261.9313
2012    20      3       3.058102        259.3185
2012    20      4       3.124034        259.492
2012    20      5       3.110554        259.7046
2012    20      6       3.239439        261.3734
2012    20      7       2.939391        257.4313
2012    21      0       2.6557          252.5747
2012    21      1       2.806381        255.3172
2012    21      2       2.689705        253.3372
2012    21      3       2.625025        252.4817
2012    21      4       3.074427        259.767
2012    21      5       3.172027        261.3228
2012    21      6       3.725957        267.4267
2012    21      7       4.410296        270.8567
2012    22      0       3.984889        269.0778
2012    22      1       4.066824        269.6742
2012    22      2       4.546911        271.353
2012    22      3       4.880904        273.7811
2012    22      4       5.276123        275.0864
2012    22      5       6.438276        276.245
2012    22      6       5.754891        275.7053
2012    22      7       5.888362        275.774
2012    23      0       6.388164        274.7008
2012    23      1       6.299875        274.0345
2012    23      2       5.753039        273.1345
2012    23      3       5.975823        273.4063
2012    23      4       5.71011         272.6263
2012    23      5       5.382322        272.0604
2012    23      6       4.376977        269.4114
2012    23      7       3.318547        262.0809
2012    24      0       2.711863        252.2646
2012    24      1       2.55297         248.6043
2012    24      2       2.385816        244.7782
2012    24      3       2.435398        246.0814
2012    24      4       2.598147        249.3059
2012    24      5       2.513349        247.6427
2012    24      6       2.44856         246.4634
2012    24      7       2.326255        243.4771
2012    25      0       2.403046        245.6648
2012    25      1       2.466502        247.3713
2012    25      2       2.461678        246.9706
2012    25      3       2.429455        246.1842
2012    25      4       2.397893        245.2212
2012    25      5       2.697467        251.6599
2012    25      6       2.956603        255.9794
2012    25      7       2.730051        252.2645
2012    26      0       2.696517        251.9689
2012    26      1       2.835947        254.1298
2012    26      2       2.660551        250.779
2012    26      3       2.457044        246.4739
2012    26      4       2.586657        249.6657
2012    26      5       2.65145         251.454
2012    26      6       2.687859        252.3564
2012    26      7       2.565771        250.0871
2012    27      0       2.243838        242.6118
2012    27      1       1.915391        232.0645
2012    27      2       1.994157        234.6857
2012    27      3       2.006558        235.2125
2012    27      4       2.111705        239.6433
2012    27      5       2.031459        237.81
2012    27      6       1.940129        234.637
2012    27      7       1.55367         216.8883
2012    28      0       1.379908        206.2437
2012    28      1       1.347978        203.6654
2012    28      2       1.283696        198.386
2012    28      3       1.162152        187.5285
2012    28      4       1.383951        202.9189
2012    28      5       1.70904         222.2052
2012    28      6       2.192562        241.3395
2012    28      7       2.893482        258.0553
2012    29      0       2.66923         254.4381
2012    29      1       2.310327        245.2161
2012    29      2       3.193827        264.3513
2012    29      3       4.750525        276.105
2012    29      4       6.583813        279.7091
2012    29      5       6.859374        279.936
2012    29      6       7.017635        280.0987
2012    29      7       6.611549        280.045
2012    30      0       6.575295        279.8193
2012    30      1       6.644943        279.6234
2012    30      2       6.290012        279.3519
2012    30      3       5.627645        278.3973
2012    30      4       4.772182        276.0702
2012    30      5       4.498307        273.5982
2012    30      6       2.897901        261.0564
2012    30      7       2.270902        248.3702
2012    31      0       2.134884        244.5777
2012    31      1       2.117231        243.5168
2012    31      2       1.909012        235.0447
2012    31      3       1.711246        225.3823
2012    31      4       2.245042        245.4121
2012    31      5       2.567271        253.3097
2012    31      6       2.718807        256.4163
2012    31      7       2.623119        254.3384
2013    1       0       2.239864        239.9974
2013    1       1       2.371794        242.9232
2013    1       2       2.8642          252.4979
2013    1       3       3.562092        260.6738
2013    1       4       3.231353        257.6709
2013    1       5       3.203727        257.336
2013    1       6       3.022667        254.8016
2013    1       7       2.430618        243.9581
2013    2       0       2.19767         238.2314
2013    2       1       2.676918        249.6456
2013    2       2       3.453574        259.6574
2013    2       3       3.275429        257.3653
2013    2       4       3.796505        261.7519
2013    2       5       3.885763        262.4511
2013    2       6       3.822472        262.1852
2013    2       7       2.780703        250.4357
2013    3       0       2.172582        236.6598
2013    3       1       2.278739        240.0065
2013    3       2       2.886939        252.6348
2013    3       3       2.876215        252.6366
2013    3       4       2.755533        250.6848
2013    3       5       2.625406        249.5796
2013    3       6       2.603652        249.6195
2013    3       7       2.449575        246.0225
2013    4       0       2.163384        238.4175
2013    4       1       2.32757         243.3267
2013    4       2       2.105755        236.014
2013    4       3       2.38694         243.7568
2013    4       4       2.604744        248.4679
2013    4       5       2.976608        254.8832
2013    4       6       3.360991        259.8068
2013    4       7       3.454933        261.0821
2013    5       0       3.182609        258.3952
2013    5       1       2.860483        254.2288
2013    5       2       2.766808        252.7752
2013    5       3       3.205209        259.1708
2013    5       4       4.681147        268.7525
2013    5       5       4.522983        268.2527
2013    5       6       4.164612        267.4237
2013    5       7       4.256827        268.4103
2013    6       0       4.234486        268.5855
2013    6       1       3.675132        265.0561
2013    6       2       3.698525        264.3685
2013    6       3       4.877628        269.5842
2013    6       4       4.271046        265.7813
2013    6       5       4.094601        264.0891
2013    6       6       3.890225        262.5035
2013    6       7       2.824023        251.6379
2013    7       0       2.497261        246.3983
2013    7       1       1.947981        231.1297
2013    7       2       1.767183        224.5286
2013    7       3       2.292824        243.4228
2013    7       4       4.098134        266.6169
2013    7       5       4.377645        267.7931
2013    7       6       4.65499         268.9918
2013    7       7       4.493905        268.8318
2013    8       0       4.093543        267.7272
2013    8       1       4.668088        271.1812
2013    8       2       4.782059        272.4264
2013    8       3       4.65493         271.4006
2013    8       4       3.677294        267.1397
2013    8       5       2.464228        250.2274
2013    8       6       1.264404        198.0983
2013    8       7       1.264173        198.8485
2013    9       0       1.362357        206.5248
2013    9       1       1.508124        215.3307
2013    9       2       1.415492        208.4825
2013    9       3       1.103548        184.659
2013    9       4       1.415932        209.6186
2013    9       5       5.906089        279.3316
2013    9       6       7.084136        280.1412
2013    9       7       6.454423        278.5329
2013    10      0       6.923148        279.3387
2013    10      1       7.21998         280.3827
2013    10      2       7.165727        280.9393
2013    10      3       7.129156        280.5437
2013    10      4       7.036147        279.8929
2013    10      5       7.007218        279.662
2013    10      6       7.272881        278.0568
2013    10      7       3.222661        264.0729
2013    11      0       2.009531        238.1112
2013    11      1       2.20092         243.9317
2013    11      2       2.562122        252.1489
2013    11      3       3.017912        259.163
2013    11      4       3.926862        267.1073
2013    11      5       3.868614        266.8031
2013    11      6       4.670407        269.4222
2013    11      7       4.292097        266.8762
2013    12      0       3.867519        263.5804
2013    12      1       3.635633        261.3433
2013    12      2       3.295589        257.9542
2013    12      3       3.291003        257.6932
2013    12      4       3.784327        261.9147
2013    12      5       3.849305        262.4599
2013    12      6       3.640195        261.2649
2013    12      7       3.654489        262.2153
2013    13      0       3.518761        261.4785
2013    13      1       3.665013        262.9255
2013    13      2       3.811012        264.3187
2013    13      3       4.351252        267.5676
2013    13      4       4.476606        268.8479
2013    13      5       3.983766        267.5138
2013    13      6       4.779636        270.535
2013    13      7       4.618042        269.5229
2013    14      0       3.966987        266.6338
2013    14      1       3.807362        265.4674
2013    14      2       3.769684        264.7771
2013    14      3       2.9879          256.2914
2013    14      4       3.189487        258.6896
2013    14      5       2.934042        255.6385
2013    14      6       2.823937        254.3519
2013    14      7       2.904815        255.4106
2013    15      0       3.020473        256.9267
2013    15      1       3.22192         259.9126
2013    15      2       3.367224        261.7964
2013    15      3       3.283745        261.2738
2013    15      4       3.450201        263.3648
2013    15      5       4.895291        270.9221
2013    15      6       4.739032        271.0826
2013    15      7       4.511801        270.5097
2013    16      0       4.465047        270.2217
2013    16      1       4.519242        270.3371
2013    16      2       4.652532        270.6869
2013    16      3       4.879832        271.1183
2013    16      4       4.163836        268.3926
2013    16      5       4.49511         269.8018
2013    16      6       4.823341        270.4427
2013    16      7       4.724372        269.5139
2013    17      0       4.052271        266.1535
2013    17      1       3.61097         262.9085
2013    17      2       3.281758        259.6927
2013    17      3       3.062368        257.0512
2013    17      4       3.174584        258.9975
2013    17      5       3.301473        260.8961
2013    17      6       2.831559        255.4117
2013    17      7       2.593772        252.1109
2013    18      0       2.964188        259.0569
2013    18      1       3.421728        264.3281
2013    18      2       3.547543        265.4667
2013    18      3       4.23811         271.6206
2013    18      4       6.14187         276.8207
2013    18      5       6.609113        276.7246
2013    18      6       6.017139        274.0763
2013    18      7       4.237527        270.4186
2013    19      0       3.878273        269.883
2013    19      1       4.745631        273.6898
2013    19      2       5.847476        276.0163
2013    19      3       5.876132        275.2707
2013    19      4       5.23504         272.3934
2013    19      5       5.088718        271.5324
2013    19      6       5.265163        271.6185
2013    19      7       4.404684        270.0395
2013    20      0       3.569357        265.7378
2013    20      1       3.05392         261.0029
2013    20      2       2.752184        256.4847
2013    20      3       2.456605        251.0745
2013    20      4       2.727514        256.5123
2013    20      5       3.91646         269.1392
2013    20      6       4.935491        274.4354
2013    20      7       6.747942        278.3642
2013    21      0       6.368034        278.5283
2013    21      1       5.987173        277.6631
2013    21      2       3.896448        271.7192
2013    21      3       3.953829        271.2934
2013    21      4       3.792804        269.8132
2013    21      5       5.740143        276.7383
2013    21      6       5.687871        277.1886
2013    21      7       5.085867        275.9401
2013    22      0       4.345821        273.0861
2013    22      1       3.934629        270.1591
2013    22      2       4.210342        271.1192
2013    22      3       5.007861        273.5061
2013    22      4       4.275146        271.4294
2013    22      5       4.146655        271.0951
2013    22      6       4.169026        271.472
2013    22      7       4.426718        272.7258
2013    23      0       4.933277        274.3986
2013    23      1       4.985881        274.7004
2013    23      2       5.056344        274.8119
2013    23      3       4.727881        274.1905
2013    23      4       4.210914        273.252
2013    23      5       3.882688        272.1174
2013    23      6       3.518059        269.7717
2013    23      7       3.251679        267.5091
2013    24      0       3.113676        266.3178
2013    24      1       2.94684         264.3605
2013    24      2       2.939183        264.5141
2013    24      3       3.257091        269.0943
2013    24      4       3.601038        272.867
2013    24      5       3.664058        273.5111
2013    24      6       3.652913        273.5325
2013    24      7       3.671254        273.5929
2013    25      0       3.604979        273.2893
2013    25      1       3.47296         272.5463
2013    25      2       3.199083        269.8467
2013    25      3       3.058961        268.1555
2013    25      4       2.968837        267.0623
2013    25      5       3.050437        268.2464
2013    25      6       2.964837        266.7502
2013    25      7       2.284522        251.3922
2013    26      0       1.846104        235.0604
2013    26      1       1.9815          240.5479
2013    26      2       2.714356        261.6156
2013    26      3       2.843543        263.8108
2013    26      4       2.679451        260.605
2013    26      5       2.4724          255.8261
2013    26      6       2.103382        244.9448
2013    26      7       2.117445        245.6009
2013    27      0       2.337696        252.2384
2013    27      1       2.377224        252.8843
2013    27      2       2.320793        250.4785
2013    27      3       2.489458        254.1741
2013    27      4       2.844851        261.3398
2013    27      5       3.774289        272.1592
2013    27      6       4.010454        273.6316
2013    27      7       3.728007        271.8997
2013    28      0       3.563197        270.8211
2013    28      1       3.67335         271.5127
2013    28      2       3.754989        271.2325
2013    28      3       3.486677        268.2529
2013    28      4       2.624326        255.1134
2013    28      5       2.327281        248.0821
2013    28      6       2.597198        254.3836
2013    28      7       2.79738         257.9502
2013    29      0       2.864386        259.413
2013    29      1       2.863255        259.5043
2013    29      2       2.887968        259.9267
2013    29      3       2.836535        259.5239
2013    29      4       3.023419        262.7494
2013    29      5       3.579998        268.4392
2013    29      6       3.630439        269.1752
2013    29      7       3.545315        268.9061
2013    30      0       3.595321        269.1329
2013    30      1       4.015536        271.7502
2013    30      2       5.291901        275.0546
2013    30      3       5.65533         275.1282
2013    30      4       3.767091        268.6217
2013    30      5       2.311992        246.9666
2013    30      6       2.45763         250.4346
2013    30      7       3.693314        265.9716
2013    31      0       3.384062        262.888
2013    31      1       2.524267        250.0272
2013    31      2       2.215233        241.0477
2013    31      3       1.558674        212.7311
2013    31      4       1.237638        191.8804
2013    31      5       1.225459        191.1523
2013    31      6       1.013239        172.8951
2013    31      7       0.8037596       150.6343
2014    1       0       2.6204          250.4739
2014    1       1       2.991144        257.1492
2014    1       2       2.958339        256.4554
2014    1       3       4.16268         266.9906
2014    1       4       4.792471        270.758
2014    1       5       4.754072        271.087
2014    1       6       4.381981        270.8293
2014    1       7       3.701331        266.8043
2014    2       0       3.898869        267.5276
2014    2       1       3.744004        265.9819
2014    2       2       3.61545         265.5218
2014    2       3       5.336481        272.2657
2014    2       4       5.172659        271.8031
2014    2       5       5.601804        272.7319
2014    2       6       5.963549        272.812
2014    2       7       4.57817         269.2502
2014    3       0       4.795615        270.4591
2014    3       1       4.243782        267.5877
2014    3       2       4.181974        266.9644
2014    3       3       4.059383        266.2759
2014    3       4       5.152647        270.0075
2014    3       5       4.503034        268.2502
2014    3       6       4.62564         268.6713
2014    3       7       5.075046        269.7134
2014    4       0       5.112877        269.7111
2014    4       1       4.969726        269.4113
2014    4       2       4.837903        268.8666
2014    4       3       4.537657        267.5546
2014    4       4       4.188303        266.158
2014    4       5       4.156161        265.7502
2014    4       6       4.269186        266.3197
2014    4       7       4.437519        267.042
2014    5       0       4.386445        267.3045
2014    5       1       4.117123        265.8959
2014    5       2       3.511164        261.2659
2014    5       3       3.918846        264.3912
2014    5       4       4.322033        266.4017
2014    5       5       4.378751        266.8467
2014    5       6       4.241449        266.3388
2014    5       7       4.788773        268.877
2014    6       0       4.705063        269.4612
2014    6       1       4.668175        269.0489
2014    6       2       4.46423         268.0193
2014    6       3       4.23202         267.6391
2014    6       4       4.265737        267.4662
2014    6       5       4.30447         267.0544
2014    6       6       3.889893        264.7051
2014    6       7       3.572963        261.0577
2014    7       0       3.371824        258.9577
2014    7       1       2.810893        252.1382
2014    7       2       2.31991         243.0616
2014    7       3       2.888563        256.0569
2014    7       4       2.935081        256.7477
2014    7       5       3.903191        266.2817
2014    7       6       4.63933         269.3939
2014    7       7       3.762822        264.934
2014    8       0       3.605377        263.6435
2014    8       1       3.763468        264.5672
2014    8       2       3.37809         260.5293
2014    8       3       3.386674        260.7436
2014    8       4       3.398025        260.484
2014    8       5       4.014225        265.1913
2014    8       6       4.93314         269.3268
2014    8       7       5.360262        270.8412
2014    9       0       4.070498        266.0068
2014    9       1       4.377225        267.0648
2014    9       2       4.887159        269.0955
2014    9       3       4.104186        266.42
2014    9       4       4.366492        267.9212
2014    9       5       3.913373        266.126
2014    9       6       4.444316        269.2375
2014    9       7       5.36721         272.6624
2014    10      0       5.574893        273.1633
2014    10      1       5.208987        272.2206
2014    10      2       5.01876         271.6325
2014    10      3       5.286809        271.6021
2014    10      4       5.266099        271.8005
2014    10      5       4.408645        269.751
2014    10      6       4.064277        268.2423
2014    10      7       3.922769        267.4398
2014    11      0       3.986265        267.8506
2014    11      1       4.425876        270.3783
2014    11      2       4.296109        270.2429
2014    11      3       4.301618        270.6783
2014    11      4       4.248315        270.7441
2014    11      5       5.027118        273.2137
2014    11      6       5.464798        274.8827
2014    11      7       5.43197         275.2336
2014    12      0       5.128342        274.8019
2014    12      1       3.907701        269.48
2014    12      2       3.382692        264.5469
2014    12      3       3.467995        265.2768
2014    12      4       3.602107        266.6353
2014    12      5       3.587129        266.4603
2014    12      6       3.664374        266.9157
2014    12      7       4.234049        269.9673
2014    13      0       4.091929        269.3118
2014    13      1       4.069519        269.199
2014    13      2       4.458459        270.6378
2014    13      3       4.548735        270.5811
2014    13      4       4.290146        269.0679
2014    13      5       4.589622        270.5467
2014    13      6       4.380088        270.0178
2014    13      7       4.382231        269.7227
2014    14      0       4.414902        269.9076
2014    14      1       4.15637         268.9687
2014    14      2       4.410705        270.2609
2014    14      3       5.295406        273.1667
2014    14      4       5.284456        273.2647
2014    14      5       5.691653        273.2464
2014    14      6       5.61795         273.08
2014    14      7       4.928152        271.7507
2014    15      0       4.547622        270.5466
2014    15      1       4.463382        270.2397
2014    15      2       4.068665        268.3148
2014    15      3       4.008873        268.057
2014    15      4       5.414466        272.6311
2014    15      5       5.296352        272.276
2014    15      6       4.399383        269.9218
2014    15      7       4.068295        268.0927
2014    16      0       3.811651        266.1916
2014    16      1       3.750864        265.6235
2014    16      2       3.708747        265.4351
2014    16      3       3.970085        267.152
2014    16      4       4.809578        270.2629
2014    16      5       4.889329        270.3135
2014    16      6       5.004446        270.3299
2014    16      7       4.778619        269.8918
2014    17      0       4.550648        269.2408
2014    17      1       5.128468        270.5813
2014    17      2       4.286372        268.1187
2014    17      3       3.663657        264.6948
2014    17      4       4.430676        269.0563
2014    17      5       4.527195        269.7968
2014    17      6       4.690883        270.208
2014    17      7       4.064918        268.0651
2014    18      0       4.287035        269.6037
2014    18      1       3.916558        267.868
2014    18      2       4.721896        270.91
2014    18      3       5.979161        272.7356
2014    18      4       5.849879        273.0868
2014    18      5       4.55313         270.7545
2014    18      6       4.888699        272.9585
2014    18      7       5.934888        276.2025
2014    19      0       5.796073        276.737
2014    19      1       5.562741        276.7706
2014    19      2       4.152633        271.547
2014    19      3       3.886783        269.9805
2014    19      4       5.164416        274.6877
2014    19      5       5.382539        275.602
2014    19      6       5.538932        276.6469
2014    19      7       5.275003        276.2877
2014    20      0       4.710544        274.4531
2014    20      1       4.67922         274.3258
2014    20      2       5.733183        276.8362
2014    20      3       5.774503        276.8538
2014    20      4       5.343009        276.1595
2014    20      5       5.148913        276.0763
2014    20      6       5.212026        275.963
2014    20      7       4.718303        274.6252
2014    21      0       5.279379        275.3553
2014    21      1       5.67146         275.5648
2014    21      2       5.341395        275.1871
2014    21      3       5.075052        274.5573
2014    21      4       5.725781        275.5592
2014    21      5       5.483746        275.4317
2014    21      6       4.806946        274.7864
2014    21      7       4.304071        273.9356
2014    22      0       4.940998        276.2332
2014    22      1       5.567134        277.5959
2014    22      2       5.089664        276.6378
2014    22      3       4.493419        274.9375
2014    22      4       5.043317        276.3341
2014    22      5       5.732913        277.1704
2014    22      6       4.939523        274.6
2014    22      7       3.564627        268.0333
2014    23      0       4.13294         271.4309
2014    23      1       5.248963        274.7464
2014    23      2       4.768828        273.4779
2014    23      3       4.448738        272.0702
2014    23      4       5.037931        273.303
2014    23      5       5.932411        275.1779
2014    23      6       5.157455        274.0693
2014    23      7       4.413328        271.5816
2014    24      0       3.825016        268.3782
2014    24      1       3.489793        265.6395
2014    24      2       3.872222        268.3033
2014    24      3       4.759587        272.8392
2014    24      4       5.140319        274.053
2014    24      5       5.593201        274.8153
2014    24      6       5.627517        274.7974
2014    24      7       5.231735        273.7536
2014    25      0       4.383705        270.1889
2014    25      1       4.664254        271.0882
2014    25      2       4.004342        268.0655
2014    25      3       4.184426        268.7354
2014    25      4       5.445018        272.602
2014    25      5       4.942408        271.8516
2014    25      6       5.430852        272.6273
2014    25      7       4.69146         270.4261
2014    26      0       4.859735        271.2395
2014    26      1       3.959536        268.1671
2014    26      2       4.3285          269.9914
2014    26      3       3.962004        267.8856
2014    26      4       4.489099        270.2073
2014    26      5       5.590264        272.7938
2014    26      6       4.636295        270.5932
2014    26      7       4.051719        268.527
2014    27      0       3.020486        259.5908
2014    27      1       2.94323         258.1962
2014    27      2       3.180588        261.0531
2014    27      3       3.090898        260.1664
2014    27      4       4.150313        269.0461
2014    27      5       4.194937        270.3889
2014    27      6       3.532301        267.0912
2014    27      7       3.55369         267.2904
2014    28      0       3.355044        264.2111
2014    28      1       3.454705        265.8623
2014    28      2       4.156248        271.4167
2014    28      3       4.477946        273.1276
2014    28      4       4.041           271.3452
2014    28      5       3.876778        270.6387
2014    28      6       3.21634         265.0499
2014    28      7       3.491597        267.5667
2014    29      0       3.873668        270.1591
2014    29      1       4.192236        271.7552
2014    29      2       5.440313        274.483
2014    29      3       5.3897          274.0915
2014    29      4       3.88559         269.7111
2014    29      5       3.016837        262.434
2014    29      6       2.728086        257.4981
2014    29      7       2.23913         245.0355
2014    30      0       1.903995        231.8337
2014    30      1       1.571367        214.6572
2014    30      2       1.427545        205.3841
2014    30      3       1.388006        202.4348
2014    30      4       1.632782        217.1321
2014    30      5       1.946602        231.6613
2014    30      6       2.048627        235.014
2014    30      7       1.933827        230.3432
2014    31      0       1.816926        225.2833
2014    31      1       1.666008        218.0069
2014    31      2       1.561498        212.1246
2014    31      3       1.483909        207.3235
2014    31      4       1.615477        214.7087
2014    31      5       1.841           225.6267
2014    31      6       1.967438        230.3738
2014    31      7       1.903649        227.6552
2015    1       0       3.416767        264.5803
2015    1       1       3.269324        262.8093
2015    1       2       3.516626        264.4893
2015    1       3       3.539163        264.2165
2015    1       4       3.360236        262.0874
2015    1       5       3.610496        263.8138
2015    1       6       3.740089        264.8899
2015    1       7       3.744014        264.9437
2015    2       0       3.420992        262.4242
2015    2       1       3.166608        260.2563
2015    2       2       3.363159        262.1419
2015    2       3       4.43578         268.8463
2015    2       4       4.440491        269.8783
2015    2       5       4.28165         269.9376
2015    2       6       4.800083        272.0281
2015    2       7       5.115369        272.6605
2015    3       0       4.341285        270.5127
2015    3       1       3.570093        265.7963
2015    3       2       3.3706          264.0533
2015    3       3       3.533742        265.2327
2015    3       4       3.462557        264.6116
2015    3       5       4.156395        269.1774
2015    3       6       3.802209        267.2915
2015    3       7       3.801488        267.6437
2015    4       0       3.654604        266.9333
2015    4       1       3.290208        263.7614
2015    4       2       2.7546          256.6963
2015    4       3       2.615256        254.3503
2015    4       4       2.77166         257.9696
2015    4       5       3.320084        265.8492
2015    4       6       3.47587         268.2234
2015    4       7       3.515432        269.1484
2015    5       0       3.74757         271.4726
2015    5       1       3.767777        271.361
2015    5       2       3.707189        270.3507
2015    5       3       3.33476         266.7556
2015    5       4       2.934542        261.8047
2015    5       5       3.307257        265.7591
2015    5       6       3.409714        266.5234
2015    5       7       3.331228        265.5474
2015    6       0       3.2197          263.9164
2015    6       1       3.580165        267.0439
2015    6       2       3.90296         268.3091
2015    6       3       4.017177        268.5818
2015    6       4       3.463595        264.529
2015    6       5       2.39903         248.1875
2015    6       6       1.737258        225.2668
2015    6       7       1.681884        224.0119
2015    7       0       1.79499         229.6281
2015    7       1       2.012778        238.0026
2015    7       2       2.274368        245.7666
2015    7       3       2.347585        247.4318
2015    7       4       2.178724        242.6883
2015    7       5       2.058382        238.5106
2015    7       6       1.936699        233.0087
2015    7       7       1.426636        205.1632
2015    8       0       1.380105        202.3785
2015    8       1       1.29602         196.6305
2015    8       2       1.523236        211.3016
2015    8       3       2.009497        233.3138
2015    8       4       2.616354        249.9799
2015    8       5       2.61408         250.0752
2015    8       6       2.53845         249.649
2015    8       7       2.435769        246.252
2015    9       0       1.96808         231.9766
2015    9       1       2.218795        240.5468
2015    9       2       1.867476        227.7769
2015    9       3       1.837658        226.0137
2015    9       4       2.15546         237.0245
2015    9       5       2.51139         246.3732
2015    9       6       2.650664        249.1414
2015    9       7       2.470649        245.345
2015    10      0       2.537397        246.7497
2015    10      1       3.210423        256.751
2015    10      2       2.719841        249.1369
2015    10      3       2.735154        249.7522
2015    10      4       3.367283        258.1821
2015    10      5       3.607971        260.2706
2015    10      6       3.543996        261.1711
2015    10      7       3.655523        262.3191
2015    11      0       3.196872        258.0911
2015    11      1       4.595086        267.324
2015    11      2       3.275866        259.0775
2015    11      3       3.066896        256.3821
2015    11      4       3.603216        262.2522
2015    11      5       3.657902        262.5841
2015    11      6       3.281642        258.8544
2015    11      7       2.915847        254.7754
2015    12      0       3.232711        259.4294
2015    12      1       4.339645        267.3714
2015    12      2       4.227283        267.1105
2015    12      3       4.715715        269.4932
2015    12      4       3.71177         265.4472
2015    12      5       3.905745        267.436
2015    12      6       3.908111        267.586
2015    12      7       4.008057        268.2291
2015    13      0       4.476157        270.6542
2015    13      1       4.909227        271.5145
2015    13      2       4.25398         269.1624
2015    13      3       3.969881        268.2202
2015    13      4       3.965086        268.8005
2015    13      5       4.495138        271.6796
2015    13      6       4.576981        272.088
2015    13      7       4.826393        272.4636
2015    14      0       4.146325        269.0789
2015    14      1       4.064467        268.4185
2015    14      2       4.373018        268.7526
2015    14      3       3.870888        264.6006
2015    14      4       3.997542        265.5725
2015    14      5       3.818316        264.5124
2015    14      6       3.472462        262.6043
2015    14      7       3.474719        263.4467
2015    15      0       4.002798        267.7297
2015    15      1       4.379896        269.0039
2015    15      2       4.24895         268.048
2015    15      3       4.408904        268.6963
2015    15      4       3.872214        266.2165
2015    15      5       3.371914        262.5619
2015    15      6       3.476072        263.8175
2015    15      7       3.808061        266.0492
2015    16      0       3.811926        265.5873
2015    16      1       3.354362        261.7748
2015    16      2       3.010305        257.9459
2015    16      3       3.01014         258.3639
2015    16      4       2.925774        257.3811
2015    16      5       2.958921        258.0632
2015    16      6       2.738202        254.5917
2015    16      7       2.58898         252.2057
2015    17      0       2.648558        253.5084
2015    17      1       2.761523        255.7186
2015    17      2       2.842956        257.1634
2015    17      3       2.625385        253.6831
2015    17      4       1.883919        231.8423
2015    17      5       2.325768        246.6333
2015    17      6       1.802141        228.3543
2015    17      7       2.191126        242.7761
2015    18      0       2.125872        240.1937
2015    18      1       2.487502        249.5676
2015    18      2       2.464003        248.6523
2015    18      3       2.261368        243.6293
2015    18      4       2.399289        247.3686
2015    18      5       2.537671        250.3582
2015    18      6       2.450935        247.7359
2015    18      7       2.357737        244.8879
2015    19      0       2.520832        247.9272
2015    19      1       2.754744        252.3783
2015    19      2       3.13736         257.1687
2015    19      3       3.231098        258.0574
2015    19      4       3.300745        258.5905
2015    19      5       3.422341        259.5505
2015    19      6       3.295549        258.7836
2015    19      7       3.328512        259.2657
2015    20      0       3.318896        259.0016
2015    20      1       3.218551        257.7172
2015    20      2       3.244583        257.8571
2015    20      3       3.067357        255.2627
2015    20      4       3.114419        255.7871
2015    20      5       3.558115        260.189
2015    20      6       3.587641        260.9028
2015    20      7       3.256649        257.996
2015    21      0       4.259518        265.3589
2015    21      1       3.084602        256.9405
2015    21      2       2.665286        249.6726
2015    21      3       3.679464        261.9087
2015    21      4       3.327229        258.3643
2015    21      5       3.430426        259.734
2015    21      6       3.294636        258.5323
2015    21      7       3.017682        255.0826
2015    22      0       2.951511        254.3742
2015    22      1       3.272043        258.6981
2015    22      2       3.291856        258.9966
2015    22      3       3.252175        258.5237
2015    22      4       2.914366        254.2982
2015    22      5       3.132061        257.0722
2015    22      6       3.554449        260.9885
2015    22      7       3.358912        258.9559
2015    23      0       2.951339        254.4021
2015    23      1       3.332865        259.4156
2015    23      2       2.757986        251.2859
2015    23      3       3.129118        256.2822
2015    23      4       3.289085        258.3671
2015    23      5       3.021888        255.5919
2015    23      6       2.61605         248.9873
2015    23      7       2.271812        241.1603
2015    24      0       2.165805        238.0498
2015    24      1       2.139687        237.3158
2015    24      2       2.198731        238.9862
2015    24      3       2.245215        240.1517
2015    24      4       2.255099        240.5181
2015    24      5       2.5531          247.5937
2015    24      6       2.648579        249.5137
2015    24      7       2.465013        245.9158
2015    25      0       2.55993         247.9601
2015    25      1       2.557444        247.7433
2015    25      2       2.482908        246.1964
2015    25      3       2.43047         245.0074
2015    25      4       2.729232        251.2491
2015    25      5       2.660703        249.8058
2015    25      6       2.389228        244.0738
2015    25      7       1.968246        231.2966
2015    26      0       2.057423        234.5153
2015    26      1       2.180542        238.4818
2015    26      2       2.063395        234.5955
2015    26      3       2.058601        234.3089
2015    26      4       2.24178         239.9381
2015    26      5       2.524851        247.091
2015    26      6       2.560341        248.0364
2015    26      7       2.349297        243.3416
2015    27      0       2.44791         245.9649
2015    27      1       2.304937        242.4871
2015    27      2       2.29433         241.8121
2015    27      3       2.247033        240.2112
2015    27      4       2.285917        240.8076
2015    27      5       2.504749        246.4157
2015    27      6       2.713012        250.8892
2015    27      7       2.557169        247.8284
2015    28      0       2.418164        244.8522
2015    28      1       2.259824        240.732
2015    28      2       2.223352        239.4944
2015    28      3       2.266126        240.5934
2015    28      4       2.571128        247.7969
2015    28      5       2.762604        251.9668
2015    28      6       2.790986        252.7183
2015    28      7       2.538134        247.8155
2015    29      0       2.094834        235.4028
2015    29      1       1.919187        228.7587
2015    29      2       1.996737        231.8733
2015    29      3       2.114498        236.135
2015    29      4       2.424812        244.8372
2015    29      5       2.498682        247.0185
2015    29      6       2.496846        247.0686
2015    29      7       2.276983        241.6797
2015    30      0       2.107721        236.5013
2015    30      1       2.12282         236.9422
2015    30      2       2.212178        239.6746
2015    30      3       2.374422        244.1617
2015    30      4       2.275348        241.4157
2015    30      5       2.268302        240.783
2015    30      6       2.213389        239.253
2015    30      7       1.932855        229.9292
2015    31      0       1.963492        231.0911
2015    31      1       2.008123        232.815
2015    31      2       2.286655        241.5369
2015    31      3       2.816169        252.9609
2015    31      4       3.16039         257.6323
2015    31      5       3.198483        258.4739
2015    31      6       4.279215        266.4528
2015    31      7       4.65171         268.6471
2016    1       0       2.931509        256.5816
2016    1       1       3.042888        258.0165
2016    1       2       3.29776         260.9116
2016    1       3       4.740662        268.7117
2016    1       4       4.360219        267.0022
2016    1       5       4.394824        267.3472
2016    1       6       3.936563        265.5455
2016    1       7       4.339094        267.9764
2016    2       0       4.698427        269.2077
2016    2       1       4.622408        268.7513
2016    2       2       4.268488        267.6239
2016    2       3       4.740873        269.1302
2016    2       4       4.625318        268.7575
2016    2       5       4.096981        267.0913
2016    2       6       4.155664        267.244
2016    2       7       3.953928        266.087
2016    3       0       2.849557        255.138
2016    3       1       2.212406        240.6947
2016    3       2       2.13498         238.1905
2016    3       3       2.262079        242.3766
2016    3       4       2.409835        246.6839
2016    3       5       2.457277        248.3615
2016    3       6       2.396214        246.6379
2016    3       7       2.144146        239.82
2016    4       0       2.205674        241.1792
2016    4       1       2.200625        240.6549
2016    4       2       2.27972         242.7137
2016    4       3       2.350894        244.4617
2016    4       4       2.348106        244.5027
2016    4       5       2.666619        251.4297
2016    4       6       2.697444        251.9534
2016    4       7       2.379108        245.3618
2016    5       0       2.236355        241.8504
2016    5       1       2.338385        244.7585
2016    5       2       2.475265        248.479
2016    5       3       2.621022        251.639
2016    5       4       2.690583        252.4055
2016    5       5       2.66891         252.5242
2016    5       6       2.674008        253.1442
2016    5       7       2.665322        253.0497
2016    6       0       2.478922        249.5266
2016    6       1       2.48639         249.8278
2016    6       2       2.554119        251.16
2016    6       3       2.484587        249.5675
2016    6       4       2.636663        252.6203
2016    6       5       2.829216        256.5102
2016    6       6       2.896087        257.6206
2016    6       7       2.795199        256.031
2016    7       0       2.59036         251.9796
2016    7       1       2.325434        245.0994
2016    7       2       2.114361        238.4768
2016    7       3       1.987139        233.7504
2016    7       4       2.092476        236.8032
2016    7       5       2.524406        248.15
2016    7       6       2.659886        250.8562
2016    7       7       2.362117        244.4842
2016    8       0       2.357563        244.3499
2016    8       1       2.859771        254.2104
2016    8       2       2.824525        252.7938
2016    8       3       2.75928         251.8018
2016    8       4       3.052697        255.4069
2016    8       5       3.125678        255.8669
2016    8       6       3.3343          257.9402
2016    8       7       4.030604        263.8085
2016    9       0       4.08734         263.9297
2016    9       1       3.156844        257.3597
2016    9       2       3.647103        262.188
2016    9       3       4.688859        268.6853
2016    9       4       3.975821        265.4324
2016    9       5       3.753724        264.0958
2016    9       6       3.565191        262.5469
2016    9       7       3.654331        262.7367
2016    10      0       3.751175        263.0887
2016    10      1       3.583374        261.6651
2016    10      2       3.612496        261.8925
2016    10      3       4.077516        265.5699
2016    10      4       4.476008        268.2744
2016    10      5       3.814133        265.6266
2016    10      6       4.159548        267.5674
2016    10      7       5.035376        270.4738
2016    11      0       3.444396        262.8013
2016    11      1       2.965935        257.6051
2016    11      2       2.763559        254.5462
2016    11      3       2.425954        247.5054
2016    11      4       2.917357        256.5809
2016    11      5       3.516904        263.5631
2016    11      6       3.760821        265.215
2016    11      7       3.256439        260.594
2016    12      0       2.547419        249.8668
2016    12      1       2.062166        236.5174
2016    12      2       1.984039        233.5645
2016    12      3       2.124379        237.7914
2016    12      4       2.409933        246.0185
2016    12      5       2.765433        253.6233
2016    12      6       3.135225        258.7404
2016    12      7       3.106919        258.425
2016    13      0       2.762134        253.375
2016    13      1       2.408081        246.1564
2016    13      2       2.437295        247.1883
2016    13      3       2.441754        247.4606
2016    13      4       2.41605         246.9371
2016    13      5       2.878028        256.24
2016    13      6       3.042499        259.1105
2016    13      7       3.002752        259.0012
2016    14      0       3.054371        259.9134
2016    14      1       3.406678        263.6682
2016    14      2       3.756959        266.5087
2016    14      3       3.355491        263.0347
2016    14      4       4.069741        268.3433
2016    14      5       3.346672        264.1547
2016    14      6       3.513231        266.6375
2016    14      7       3.560655        267.4325
2016    15      0       3.460875        266.4833
2016    15      1       3.420772        265.3107
2016    15      2       3.525629        265.9509
2016    15      3       3.6441          267.0004
2016    15      4       3.742293        267.9592
2016    15      5       3.917999        269.7803
2016    15      6       4.168724        271.7876
2016    15      7       4.106793        271.7623
2016    16      0       4.077506        271.1908
2016    16      1       4.031805        271.2793
2016    16      2       3.754394        269.2783
2016    16      3       3.424839        266.3993
2016    16      4       3.205814        264.0622
2016    16      5       3.401003        266.1711
2016    16      6       3.508257        267.4937
2016    16      7       3.585877        268.6929
2016    17      0       3.752636        269.8557
2016    17      1       3.486887        267.7352
2016    17      2       3.394043        266.4643
2016    17      3       3.665205        268.5004
2016    17      4       3.289175        264.971
2016    17      5       3.103083        262.5119
2016    17      6       2.793109        257.8742
2016    17      7       2.530146        252.9547
2016    18      0       2.51359         252.5747
2016    18      1       2.720764        256.6091
2016    18      2       3.037372        261.4557
2016    18      3       3.167793        263.2589
2016    18      4       3.423165        265.6187
2016    18      5       3.500148        266.7126
2016    18      6       3.453394        266.4192
2016    18      7       2.993746        261.9854
2016    19      0       2.713945        257.9691
2016    19      1       2.632223        256.1323
2016    19      2       2.674558        256.8826
2016    19      3       2.741746        258.2621
2016    19      4       3.057748        262.7498
2016    19      5       3.42821         266.8499
2016    19      6       3.532842        267.7566
2016    19      7       3.741989        269.0395
2016    20      0       4.109945        271.0479
2016    20      1       4.05072         270.7915
2016    20      2       3.040404        261.4447
2016    20      3       2.812267        258.5041
2016    20      4       3.024565        262.3502
2016    20      5       2.846198        259.7174
2016    20      6       3.221405        265.1985
2016    20      7       3.274476        266.1548
2016    21      0       3.393016        267.2298
2016    21      1       3.364691        267.0489
2016    21      2       3.677883        269.7521
2016    21      3       4.308199        272.9404
2016    21      4       5.896127        276.7722
2016    21      5       5.968863        277.0243
2016    21      6       5.792878        275.9496
2016    21      7       5.831787        275.7634
2016    22      0       5.714643        276.0467
2016    22      1       5.550691        276.124
2016    22      2       5.771549        276.0728
2016    22      3       5.403031        275.2722
2016    22      4       5.229855        275.122
2016    22      5       4.623287        274.1419
2016    22      6       5.427764        275.6749
2016    22      7       6.218466        276.0023
2016    23      0       5.0632          274.5888
2016    23      1       4.410731        272.8622
2016    23      2       4.433601        272.9168
2016    23      3       4.548353        273.2624
2016    23      4       4.96926         274.2388
2016    23      5       5.240241        274.4085
2016    23      6       5.096857        273.7559
2016    23      7       5.011113        273.1193
2016    24      0       5.205453        273.0513
2016    24      1       5.141225        272.5325
2016    24      2       4.553092        270.838
2016    24      3       4.546202        270.9098
2016    24      4       4.02261         269.5858
2016    24      5       4.254028        271.4293
2016    24      6       4.505737        271.414
2016    24      7       4.732928        271.2892
2016    25      0       4.837623        272.2418
2016    25      1       4.711072        272.352
2016    25      2       4.820897        273.1855
2016    25      3       4.630611        273.4014
2016    25      4       4.291049        272.7886
2016    25      5       4.218255        272.2822
2016    25      6       4.939335        274.1013
2016    25      7       5.598838        275.2559
2016    26      0       4.90327         273.5315
2016    26      1       4.938026        273.4987
2016    26      2       5.099028        273.5346
2016    26      3       4.035311        269.2868
2016    26      4       4.378662        270.7958
2016    26      5       4.836446        272.315
2016    26      6       3.76788         267.7415
2016    26      7       3.960599        269.4942
2016    27      0       3.979586        270.1761
2016    27      1       3.830204        269.9822
2016    27      2       4.043718        270.6804
2016    27      3       4.840593        273.3542
2016    27      4       4.964215        273.3656
2016    27      5       4.187587        270.5337
2016    27      6       4.100845        269.8612
2016    27      7       3.714269        267.1253
2016    28      0       3.525855        265.7739
2016    28      1       3.581483        265.7438
2016    28      2       3.490715        264.868
2016    28      3       3.192421        261.7805
2016    28      4       3.253066        263.2905
2016    28      5       2.994781        260.6519
2016    28      6       2.794679        258.1442
2016    28      7       2.360479        248.7064
2016    29      0       2.189474        243.5894
2016    29      1       2.578479        253.5891
2016    29      2       3.156684        262.2812
2016    29      3       3.486784        264.5391
2016    29      4       2.800529        256.3042
2016    29      5       1.743691        226.1
2016    29      6       2.240818        244.5586
2016    29      7       2.46747         250.053
2016    30      0       2.519868        251.6114
2016    30      1       2.620128        253.7743
2016    30      2       2.768423        255.6419
2016    30      3       2.836272        255.9092
2016    30      4       3.126416        259.7644
2016    30      5       3.280815        261.3432
2016    30      6       3.718525        264.2558
2016    30      7       3.355786        260.7358
2016    31      0       3.23947         259.9152
2016    31      1       3.192702        259.1894
2016    31      2       3.84206         264.2683
2016    31      3       3.891868        264.0941
2016    31      4       3.922495        264.4204
2016    31      5       3.720661        263.2345
2016    31      6       3.521686        261.7111
2016    31      7       3.268598        259.4308
2017    1       0       3.181547        260.0444
2017    1       1       3.020461        257.8837
2017    1       2       3.217732        260.3167
2017    1       3       3.742999        265.1898
2017    1       4       4.690405        269.6787
2017    1       5       4.398875        269.1864
2017    1       6       3.882514        266.5971
2017    1       7       3.544084        263.5721
2017    2       0       3.558289        263.0322
2017    2       1       3.504445        261.3178
2017    2       2       3.115973        257.842
2017    2       3       2.923669        255.619
2017    2       4       3.52445         262.418
2017    2       5       2.939091        255.7966
2017    2       6       2.888673        255.1359
2017    2       7       2.873368        254.4512
2017    3       0       2.894105        254.8545
2017    3       1       3.49067         261.9529
2017    3       2       4.115416        266.2979
2017    3       3       3.870192        265.0733
2017    3       4       4.091528        265.7688
2017    3       5       3.897204        264.3807
2017    3       6       3.874704        263.9978
2017    3       7       3.471107        261.2582
2017    4       0       3.512981        262.1637
2017    4       1       3.585013        263.136
2017    4       2       4.093507        266.4384
2017    4       3       4.419826        267.7532
2017    4       4       4.577956        268.7355
2017    4       5       5.48101         271.2316
2017    4       6       4.447012        268.9914
2017    4       7       4.402539        268.8125
2017    5       0       4.401496        268.4099
2017    5       1       5.832984        271.1686
2017    5       2       4.889357        269.2244
2017    5       3       4.143764        266.7348
2017    5       4       4.513722        269.2766
2017    5       5       4.328188        269.1375
2017    5       6       4.641942        270.6221
2017    5       7       3.918284        267.7022
2017    6       0       3.736714        266.3699
2017    6       1       3.354074        263.3114
2017    6       2       3.044854        259.7609
2017    6       3       3.286206        263.536
2017    6       4       4.348701        270.8822
2017    6       5       4.978757        273.2025
2017    6       6       5.010996        273.9767
2017    6       7       3.736246        268.1524
2017    7       0       3.773477        266.8407
2017    7       1       4.056349        268.2839
2017    7       2       4.544956        268.7896
2017    7       3       4.278799        267.2324
2017    7       4       3.784249        264.7798
2017    7       5       3.407269        262.3655
2017    7       6       4.02111         266.7477
2017    7       7       4.034909        266.5548
2017    8       0       3.831065        265.4094
2017    8       1       4.175268        267.3001
2017    8       2       4.071684        266.8465
2017    8       3       4.554238        268.9363
2017    8       4       5.194437        271.4471
2017    8       5       5.015383        271.9766
2017    8       6       5.203377        272.3392
2017    8       7       4.742714        270.1371
2017    9       0       3.71012         264.742
2017    9       1       2.95243         257.269
2017    9       2       2.149152        240.3697
2017    9       3       1.728065        223.6166
2017    9       4       2.002525        234.6704
2017    9       5       2.021556        235.6166
2017    9       6       1.936775        232.4685
2017    9       7       1.426033        207.3127
2017    10      0       1.398888        205.7214
2017    10      1       1.437704        208.2785
2017    10      2       1.508062        212.3394
2017    10      3       1.516355        212.6078
2017    10      4       1.559315        215.0771
2017    10      5       1.686089        221.7249
2017    10      6       2.132514        239.3527
2017    10      7       2.149501        239.8273
2017    11      0       2.318364        244.6848
2017    11      1       2.716869        253.1849
2017    11      2       2.703287        252.7851
2017    11      3       2.711864        252.7768
2017    11      4       2.527048        249.0872
2017    11      5       2.203565        240.9187
2017    11      6       1.947871        232.5606
2017    11      7       2.022935        235.4689
2017    12      0       3.688584        265.1472
2017    12      1       4.61354         269.1324
2017    12      2       3.88336         265.2009
2017    12      3       3.863421        265.5587
2017    12      4       4.133602        267.4978
2017    12      5       5.184361        271.5517
2017    12      6       5.468058        272.6132
2017    12      7       5.059226        272.4518
2017    13      0       5.121177        273.2833
2017    13      1       4.788343        271.8903
2017    13      2       5.128468        272.2248
2017    13      3       4.651675        270.787
2017    13      4       5.476443        272.9442
2017    13      5       5.413732        273.1137
2017    13      6       5.942387        273.7223
2017    13      7       5.107767        272.4408
2017    14      0       5.006782        272.5603
2017    14      1       4.862905        272.5619
2017    14      2       4.738816        272.3831
2017    14      3       4.443589        271.6987
2017    14      4       5.615389        273.955
2017    14      5       5.122041        272.992
2017    14      6       4.576744        271.8088
2017    14      7       5.376912        274.5567
2017    15      0       5.459312        274.7561
2017    15      1       4.80493         272.6703
2017    15      2       3.709045        265.9826
2017    15      3       3.999419        267.1153
2017    15      4       3.650821        264.9354
2017    15      5       3.48447         263.6522
2017    15      6       3.750835        265.4148
2017    15      7       4.583504        269.083
2017    16      0       4.743172        268.8664
2017    16      1       4.496641        267.4903
2017    16      2       4.324289        266.8875
2017    16      3       3.775494        263.941
2017    16      4       4.795296        268.649
2017    16      5       5.42655         271.2007
2017    16      6       5.466074        271.7878
2017    16      7       4.521679        269.4747
2017    17      0       3.50821         263.477
2017    17      1       3.515039        263.3015
2017    17      2       3.46744         263.0054
2017    17      3       5.113566        271.0751
2017    17      4       5.014612        270.5991
2017    17      5       4.790161        269.444
2017    17      6       4.242282        267.0266
2017    17      7       3.958263        265.7969
2017    18      0       4.230358        267.5058
2017    18      1       5.786712        272.5352
2017    18      2       5.026049        271.4186
2017    18      3       4.969755        271.3474
2017    18      4       3.991221        267.0173
2017    18      5       3.980676        267.1568
2017    18      6       4.386181        270.7559
2017    18      7       5.257063        275.2823
2017    19      0       5.12144         275.6091
2017    19      1       3.612268        268.2433
2017    19      2       2.479964        252.0967
2017    19      3       2.362559        249.1107
2017    19      4       3.462491        265.2106
2017    19      5       4.003858        269.6037
2017    19      6       4.894221        273.6428
2017    19      7       5.732666        276.5653
2017    20      0       6.985791        278.6422
2017    20      1       6.716605        278.5433
2017    20      2       6.470967        278.0355
2017    20      3       6.300796        278.0852
2017    20      4       6.125005        278.1219
2017    20      5       6.393442        278.3536
2017    20      6       7.3524          277.8755
2017    20      7       6.02369         276.4987
2017    21      0       4.870162        274.9244
2017    21      1       5.204926        275.0286
2017    21      2       5.131761        274.5467
2017    21      3       4.931866        274.1876
2017    21      4       4.568012        273.8299
2017    21      5       5.206915        275.8947
2017    21      6       5.843481        277.1801
2017    21      7       5.40621         277.1976
2017    22      0       5.651074        278.4474
2017    22      1       5.80778         279.0196
2017    22      2       5.704231        278.1347
2017    22      3       6.134828        278.597
2017    22      4       6.509195        279.3244
2017    22      5       6.47281         279.0544
2017    22      6       5.075692        276.8701
2017    22      7       4.421091        274.9597
2017    23      0       5.430797        276.9051
2017    23      1       6.198006        277.8277
2017    23      2       6.36141         277.783
2017    23      3       6.380852        277.7886
2017    23      4       6.614077        277.9638
2017    23      5       6.388971        278.0854
2017    23      6       5.823817        278.0938
2017    23      7       5.10387         277.625
2017    24      0       4.899546        277.3419
2017    24      1       4.474704        276.5224
2017    24      2       4.558641        276.5901
2017    24      3       4.789717        277.0046
2017    24      4       4.424643        275.9365
2017    24      5       4.934877        277.3974
2017    24      6       5.548952        278.5322
2017    24      7       5.209556        278.2923
2017    25      0       4.947241        277.534
2017    25      1       4.614517        276.6158
2017    25      2       4.76471         277.2231
2017    25      3       4.680326        276.9289
2017    25      4       4.672091        276.9966
2017    25      5       4.658962        276.952
2017    25      6       4.543346        277.6891
2017    25      7       4.535034        277.7723
2017    26      0       4.337728        277.7066
2017    26      1       4.100126        277.2402
2017    26      2       3.980908        276.6151
2017    26      3       3.549262        273.4504
2017    26      4       3.415759        271.8196
2017    26      5       2.97464         265.661
2017    26      6       2.858028        263.5954
2017    26      7       2.951363        265.0311
2017    27      0       2.993536        266.0777
2017    27      1       3.109417        267.8377
2017    27      2       3.274282        268.9545
2017    27      3       3.369999        269.0093
2017    27      4       3.500415        270.2423
2017    27      5       3.442674        270.0552
2017    27      6       3.646467        271.626
2017    27      7       4.004687        273.6242
2017    28      0       3.458181        268.7907
2017    28      1       3.29941         267.0102
2017    28      2       3.440444        267.4799
2017    28      3       2.80086         259.3096
2017    28      4       2.716174        257.2736
2017    28      5       1.97877         237.5543
2017    28      6       1.857874        231.9258
2017    28      7       2.898779        261.0474
2017    29      0       2.964727        262.0636
2017    29      1       2.192425        244.6994
2017    29      2       1.618669        219.8535
2017    29      3       1.521303        214.3039
2017    29      4       1.457208        211.1137
2017    29      5       1.458495        211.622
2017    29      6       1.787239        229.7412
2017    29      7       2.585497        255.0756
2017    30      0       2.91517         260.7214
2017    30      1       3.112064        263.2524
2017    30      2       3.249406        264.6316
2017    30      3       3.087174        263.1274
2017    30      4       2.68562         257.2505
2017    30      5       2.370721        250.1241
2017    30      6       2.163218        244.6102
2017    30      7       2.069842        241.641
2017    31      0       2.202591        245.3544
2017    31      1       2.257643        246.9125
2017    31      2       2.133778        243.7421
2017    31      3       2.27781         248.1683
2017    31      4       2.168078        244.8533
2017    31      5       1.816773        231.4469
2017    31      6       1.556775        218.2952
2017    31      7       1.425234        209.9559
2018    1       0       2.33587         245.9171
2018    1       1       2.340739        246.1643
2018    1       2       2.389412        247.4114
2018    1       3       2.452723        249.1758
2018    1       4       2.700068        254.3164
2018    1       5       3.607316        265.031
2018    1       6       3.975042        269.1338
2018    1       7       4.245721        270.2596
2018    2       0       4.217481        270.3314
2018    2       1       5.24064         273.4914
2018    2       2       5.281171        274.0
2018    2       3       4.979922        273.2683
2018    2       4       5.968744        274.5914
2018    2       5       5.245876        271.9546
2018    2       6       4.942069        270.2097
2018    2       7       4.188411        267.0215
2018    3       0       3.127449        258.3271
2018    3       1       2.682004        251.2589
2018    3       2       2.680267        250.5977
2018    3       3       3.043548        256.3301
2018    3       4       2.618072        249.7203
2018    3       5       2.76615         252.4408
2018    3       6       3.267951        258.5769
2018    3       7       3.520442        260.9763
2018    4       0       3.379338        259.8061
2018    4       1       3.062062        256.7807
2018    4       2       2.707517        251.1334
2018    4       3       3.084841        256.9877
2018    4       4       3.746177        263.7142
2018    4       5       3.732222        263.7632
2018    4       6       3.057657        257.2937
2018    4       7       2.559287        248.9616
2018    5       0       2.276573        242.6002
2018    5       1       2.151799        238.8233
2018    5       2       2.080369        236.0888
2018    5       3       2.529134        248.2753
2018    5       4       3.182471        258.03
2018    5       5       3.113835        257.3217
2018    5       6       2.732537        251.7302
2018    5       7       2.499441        247.1972
2018    6       0       2.10131         236.973
2018    6       1       2.211427        240.5025
2018    6       2       2.2328          241.3978
2018    6       3       2.41154         245.9373
2018    6       4       2.416165        246.3473
2018    6       5       2.542598        249.4746
2018    6       6       2.845254        255.0314
2018    6       7       2.862539        256.077
2018    7       0       4.231009        269.4634
2018    7       1       5.200127        272.1203
2018    7       2       4.139416        267.0535
2018    7       3       4.767377        269.1846
2018    7       4       3.951604        264.9975
2018    7       5       3.608401        262.6539
2018    7       6       3.9015          265.1645
2018    7       7       3.488145        262.3433
2018    8       0       3.133933        259.7324
2018    8       1       2.990166        258.0765
2018    8       2       3.24163         261.7773
2018    8       3       4.571657        269.5944
2018    8       4       5.231937        270.3098
2018    8       5       5.741465        276.415
2018    8       6       5.135104        279.3221
2018    8       7       5.97518         275.4133
2018    9       0       5.15351         274.9916
2018    9       1       4.822181        272.089
2018    9       2       2.97789         256.9514
2018    9       3       4.175594        266.937
2018    9       4       4.489907        268.312
2018    9       5       3.815025        265.3917
2018    9       6       4.283795        267.3419
2018    9       7       4.363121        267.837
2018    10      0       3.652667        263.8642
2018    10      1       3.512995        262.7952
2018    10      2       4.106121        266.0012
2018    10      3       3.96795         264.9608
2018    10      4       4.606427        268.0305
2018    10      5       4.942887        269.1912
2018    10      6       4.991477        269.4266
2018    10      7       3.63347         263.36
2018    11      0       4.227551        266.4409
2018    11      1       4.557093        268.9078
2018    11      2       3.983216        267.0939
2018    11      3       3.983455        267.8835
2018    11      4       4.675196        271.44
2018    11      5       5.382009        274.1683
2018    11      6       5.446231        274.5885
2018    11      7       5.115993        274.3032
2018    12      0       5.129331        274.5977
2018    12      1       4.604876        272.5467
2018    12      2       3.954075        268.9712
2018    12      3       3.065488        261.6962
2018    12      4       2.512006        252.4548
2018    12      5       2.270098        245.7214
2018    12      6       2.274           244.7068
2018    12      7       2.262933        245.9956
2018    13      0       2.630243        255.9546
2018    13      1       3.732051        269.9937
2018    13      2       5.705473        276.6037
2018    13      3       5.293989        275.0528
2018    13      4       5.467844        274.6929
2018    13      5       5.448826        274.375
2018    13      6       5.618793        274.9525
2018    13      7       5.557185        274.5891
2018    14      0       5.024341        273.2648
2018    14      1       4.839843        272.7754
2018    14      2       4.97061         272.7577
2018    14      3       5.232637        272.9236
2018    14      4       4.880156        272.4704
2018    14      5       4.131772        270.3822
2018    14      6       4.141262        270.8475
2018    14      7       4.189975        271.4283
2018    15      0       4.679097        273.0844
2018    15      1       4.694121        272.7932
2018    15      2       6.187246        274.2075
2018    15      3       5.007287        272.4655
2018    15      4       4.537911        271.1217
2018    15      5       4.441123        270.3536
2018    15      6       4.816804        271.0648
2018    15      7       5.285242        271.8194
2018    16      0       4.820512        270.8515
2018    16      1       4.402586        269.3637
2018    16      2       4.219868        268.5226
2018    16      3       3.321446        262.5052
2018    16      4       2.70084         254.2424
2018    16      5       1.634902        219.5108
2018    16      6       1.309316        199.2878
2018    16      7       1.430292        207.2284
2018    17      0       1.650002        219.4856
2018    17      1       1.743628        223.875
2018    17      2       1.810424        226.8595
2018    17      3       2.118352        239.3006
2018    17      4       2.43466         248.6065
2018    17      5       2.563712        251.7209
2018    17      6       2.252681        244.2125
2018    17      7       1.963087        234.636
2018    18      0       2.264183        245.0238
2018    18      1       3.372973        265.0361
2018    18      2       4.39534         271.7102
2018    18      3       6.04778         275.3154
2018    18      4       5.869992        275.1294
2018    18      5       5.369243        274.0297
2018    18      6       5.280834        272.977
2018    18      7       4.688049        271.211
2018    19      0       4.527007        270.2761
2018    19      1       4.597631        270.3597
2018    19      2       4.480411        269.9088
2018    19      3       4.298618        269.1871
2018    19      4       3.495929        264.8319
2018    19      5       3.845713        267.8232
2018    19      6       3.48164         265.571
2018    19      7       3.263198        263.8742
2018    20      0       3.254693        263.9042
2018    20      1       3.869902        268.6779
2018    20      2       4.586651        270.8439
2018    20      3       4.837046        271.9411
2018    20      4       4.916104        272.3255
2018    20      5       5.949776        274.4484
2018    20      6       5.738421        274.4318
2018    20      7       5.448475        274.5034
2018    21      0       5.405048        274.7527
2018    21      1       5.043876        273.8989
2018    21      2       4.559992        272.5992
2018    21      3       4.711852        273.0436
2018    21      4       5.100853        273.8278
2018    21      5       5.358598        273.785
2018    21      6       4.866286        272.2272
2018    21      7       4.885041        271.9219
2018    22      0       4.536308        270.7743
2018    22      1       4.704562        271.1767
2018    22      2       4.742551        271.0427
2018    22      3       4.893057        271.2339
2018    22      4       4.994127        271.1686
2018    22      5       4.621112        269.8579
2018    22      6       4.518159        269.0583
2018    22      7       4.193397        267.0981
2018    23      0       3.324255        260.6276
2018    23      1       2.747281        252.6937
2018    23      2       2.268661        241.9019
2018    23      3       1.918874        230.1568
2018    23      4       1.8675          227.886
2018    23      5       1.910876        229.7677
2018    23      6       1.728454        221.926
2018    23      7       1.653779        218.5663
2018    24      0       1.896037        230.0852
2018    24      1       2.084395        237.2522
2018    24      2       2.135159        238.5438
2018    24      3       2.435166        246.5033
2018    24      4       2.891365        254.8435
2018    24      5       3.046118        257.3631
2018    24      6       2.976352        256.5912
2018    24      7       2.749238        252.9571
2018    25      0       2.464981        247.7858
2018    25      1       2.48441         248.8082
2018    25      2       2.936493        257.467
2018    25      3       3.696261        265.5015
2018    25      4       4.509259        269.7308
2018    25      5       3.783726        266.3838
2018    25      6       3.836576        267.3073
2018    25      7       3.998288        268.2816
2018    26      0       3.460729        264.1609
2018    26      1       3.166596        261.003
2018    26      2       3.153733        261.5728
2018    26      3       3.382546        264.8379
2018    26      4       4.18776         270.9942
2018    26      5       3.856647        269.4018
2018    26      6       3.50946         266.3584
2018    26      7       4.017974        268.9317
2018    27      0       4.530164        271.3708
2018    27      1       5.001057        272.9931
2018    27      2       5.521221        274.6487
2018    27      3       6.236412        275.9059
2018    27      4       6.488221        275.5059
2018    27      5       5.498866        274.6674
2018    27      6       4.516511        273.092
2018    27      7       3.857213        270.589
2018    28      0       3.66296         269.8712
2018    28      1       3.999425        272.2791
2018    28      2       4.700502        275.1371
2018    28      3       5.386865        277.2744
2018    28      4       5.449245        277.9541
2018    28      5       5.887929        278.6573
2018    28      6       6.657403        280.0745
2018    28      7       6.972747        281.8551
2018    29      0       6.023983        282.8196
2018    29      1       5.64017         282.6951
2018    29      2       5.306136        282.634
2018    29      3       5.927563        283.5766
2018    29      4       5.137074        282.3907
2018    29      5       5.07096         281.0693
2018    29      6       6.568607        282.5457
2018    29      7       6.867804        279.4682
2018    30      0       3.977925        271.7363
2018    30      1       3.969949        271.8829
2018    30      2       3.945196        271.3838
2018    30      3       4.159644        272.5203
2018    30      4       4.208126        272.0963
2018    30      5       4.366151        272.7817
2018    30      6       5.650881        276.4144
2018    30      7       5.20053         274.9636
2018    31      0       5.141173        273.8891
2018    31      1       4.213068        269.9336
2018    31      2       4.205155        269.8
2018    31      3       3.918376        267.8355
2018    31      4       3.839092        267.354
2018    31      5       3.827431        268.1323
2018    31      6       3.750375        267.9183
2018    31      7       3.470856        265.9021
