####################################################################################################
# Month: 06Jun                                                                                     #
# Station: BMAC                                                                                    #
# Frequency: 345 GHz                                                                               #
# Columns are: year    day     segment         tau     Tb (K)                                      #
####################################################################################################
2009    1       0       0.7951531       149.4876
2009    1       1       0.8552189       156.4258
2009    1       2       0.972589        168.4896
2009    1       3       1.116286        181.3495
2009    1       4       1.0384          173.7111
2009    1       5       0.8812534       157.522
2009    1       6       0.6547136       129.8101
2009    1       7       0.4917758       105.6769
2009    2       0       0.5216775       110.6974
2009    2       1       0.6569746       130.8952
2009    2       2       0.7916985       148.0808
2009    2       3       0.9299779       163.7227
2009    2       4       0.9395931       164.664
2009    2       5       0.9178351       161.8397
2009    2       6       0.8372297       152.4066
2009    2       7       0.8059659       148.2738
2009    3       0       0.8403862       152.0518
2009    3       1       0.5843083       120.6165
2009    3       2       0.4736944       103.8842
2009    3       3       0.5556212       116.2571
2009    3       4       0.762645        143.1436
2009    3       5       0.9678733       165.1281
2009    3       6       1.383901        198.6781
2009    3       7       1.310862        194.8104
2009    4       0       1.46481         206.7438
2009    4       1       1.614915        215.3091
2009    4       2       1.826186        225.1998
2009    4       3       1.448868        205.786
2009    4       4       0.7652543       146.4
2009    4       5       0.5080132       111.0519
2009    4       6       0.4045748       93.8723
2009    4       7       0.2335609       61.25187
2009    5       0       0.2746239       69.25914
2009    5       1       0.1645857       45.29427
2009    5       2       0.2352318       59.21525
2009    5       3       0.3046992       72.27365
2009    5       4       0.3895834       87.15418
2009    5       5       0.9619522       164.8138
2009    5       6       1.268538        193.9562
2009    5       7       1.090721        178.6542
2009    6       0       1.282136        193.6654
2009    6       1       1.301236        195.9709
2009    6       2       1.271332        192.9309
2009    6       3       1.341018        197.5467
2009    6       4       1.25232         190.4296
2009    6       5       1.359933        196.8553
2009    6       6       1.390194        200.3369
2009    6       7       0.9581963       166.459
2009    7       0       0.6766745       134.1565
2009    7       1       0.4717739       104.0444
2009    7       2       0.2027232       53.95694
2009    7       3       0.1433269       40.75906
2009    7       4       0.2044994       54.04726
2009    7       5       0.2189856       57.07318
2009    7       6       0.2164586       56.52638
2009    7       7       0.2667362       66.74589
2009    8       0       0.5092581       109.0534
2009    8       1       0.7931427       147.0322
2009    8       2       0.7771313       145.5059
2009    8       3       0.6786183       133.3549
2009    8       4       0.4566573       100.1882
2009    8       5       0.3898176       88.32827
2009    8       6       0.5818039       118.6914
2009    8       7       0.8181854       149.6712
2009    9       0       0.8909413       158.5768
2009    9       1       0.8476936       154.5013
2009    9       2       0.7455358       142.7884
2009    9       3       0.6822646       134.9523
2009    9       4       0.5888216       122.2773
2009    9       5       0.5760981       120.384
2009    9       6       0.4969318       108.5226
2009    9       7       0.4769336       105.6328
2009    10      0       0.4730712       105.0578
2009    10      1       0.6750479       134.5394
2009    10      2       0.6567341       131.7697
2009    10      3       0.6572137       130.9394
2009    10      4       1.050292        173.6309
2009    10      5       1.246911        190.2864
2009    10      6       1.352381        198.0583
2009    10      7       1.522928        208.7434
2009    11      0       1.837816        223.9903
2009    11      1       1.80013         222.7969
2009    11      2       1.599173        213.2493
2009    11      3       1.498152        207.5634
2009    11      4       1.301509        195.6481
2009    11      5       1.286499        194.8586
2009    11      6       1.129037        182.908
2009    11      7       0.8884811       160.6033
2009    12      0       0.6606319       133.2806
2009    12      1       0.5343219       114.9008
2009    12      2       0.5066002       110.5451
2009    12      3       0.4440611       100.4885
2009    12      4       0.425775        97.17547
2009    12      5       0.4407701       99.47705
2009    12      6       0.3892203       90.3237
2009    12      7       0.3372342       80.74866
2009    13      0       0.2530302       64.19783
2009    13      1       0.1898736       50.38
2009    13      2       0.1835946       49.5183
2009    13      3       0.3600857       85.54735
2009    13      4       0.8333118       155.5407
2009    13      5       0.915274        164.3742
2009    13      6       1.075543        179.557
2009    13      7       1.536314        213.1472
2009    14      0       0.7882347       150.5951
2009    14      1       0.1903945       51.74761
2009    14      2       0.1529146       43.37725
2009    14      3       0.1669822       46.59518
2009    14      4       0.1645085       45.95828
2009    14      5       0.1315603       38.37623
2009    14      6       0.155369        43.25111
2009    14      7       0.1669598       45.69547
2009    15      0       0.1968544       51.73428
2009    15      1       0.2868559       69.55985
2009    15      2       0.3895975       87.99975
2009    15      3       0.3596188       84.08289
2009    15      4       0.3937826       90.47053
2009    15      5       0.3699978       87.5955
2009    15      6       0.6919269       138.5957
2009    15      7       0.9074428       163.3612
2009    16      0       0.7498795       145.6544
2009    16      1       0.7550965       146.3869
2009    16      2       0.7277282       142.0771
2009    16      3       0.5412156       114.8437
2009    16      4       0.4601074       100.8618
2009    16      5       0.5287859       110.953
2009    16      6       0.5305775       110.7837
2009    16      7       0.4468369       98.4804
2009    17      0       0.339082        80.8533
2009    17      1       0.2346918       61.03117
2009    17      2       0.1818749       49.71159
2009    17      3       0.1853505       50.23196
2009    17      4       0.3462451       82.8494
2009    17      5       0.3944954       91.88855
2009    17      6       0.2625647       66.93612
2009    17      7       0.1922141       52.08626
2009    18      0       0.1757148       48.33822
2009    18      1       0.1543003       43.43814
2009    18      2       0.1675781       46.44051
2009    18      3       0.2347188       60.97317
2009    18      4       0.4792667       106.1634
2009    18      5       0.5910466       123.5921
2009    18      6       0.5257458       113.9664
2009    18      7       0.4252079       97.49434
2009    19      0       0.3179146       78.0084
2009    19      1       0.1999357       53.88007
2009    19      2       0.2357695       61.4434
2009    19      3       0.3777509       88.87169
2009    19      4       0.6908386       137.2017
2009    19      5       0.7733109       147.3212
2009    19      6       0.599644        124.2098
2009    19      7       0.5596355       117.9596
2009    20      0       0.6872443       134.9429
2009    20      1       0.862068        155.5511
2009    20      2       1.025783        172.2377
2009    20      3       1.191226        186.4678
2009    20      4       1.417542        202.3244
2009    20      5       1.331553        197.0541
2009    20      6       1.313996        195.6806
2009    20      7       1.520989        208.4865
2009    21      0       1.23063         190.4133
2009    21      1       1.065187        176.9936
2009    21      2       1.176998        185.8817
2009    21      3       1.184859        186.5605
2009    21      4       1.425218        203.1857
2009    21      5       0.7837314       146.8855
2009    21      6       1.176134        186.071
2009    21      7       1.407371        203.9366
2009    22      0       1.567408        212.9596
2009    22      1       0.6494666       132.1342
2009    22      2       1.524014        209.9472
2009    22      3       1.67711         218.6213
2009    22      4       1.49625         208.7367
2009    22      5       0.8267479       153.1542
2009    22      6       1.21312         190.5239
2009    22      7       1.366492        201.6657
2009    23      0       1.040595        174.9857
2009    23      1       0.9843532       167.9694
2009    23      2       0.4150697       94.0667
2009    23      3       0.8665546       155.3799
2009    23      4       0.6174128       126.295
2009    23      5       0.8019238       149.795
2009    23      6       0.6022845       123.629
2009    23      7       0.6047691       123.6813
2009    24      0       0.7050686       137.0128
2009    24      1       0.425412        95.75111
2009    24      2       0.1959414       51.4673
2009    24      3       0.3261541       76.99946
2009    24      4       0.4338502       96.78482
2009    24      5       0.4262383       96.33008
2009    24      6       0.4962542       106.942
2009    24      7       0.5548823       116.9948
2009    25      0       0.5771574       121.0398
2009    25      1       0.615257        127.2862
2009    25      2       0.3472683       83.37665
2009    25      3       0.4149059       94.04795
2009    25      4       0.8562359       152.7593
2009    25      5       0.8538359       151.7175
2009    25      6       0.6621929       127.6591
2009    25      7       0.596671        118.5993
2009    26      0       0.4180729       92.41935
2009    26      1       0.2870209       70.06129
2009    26      2       0.3035337       74.1711
2009    26      3       0.369464        86.86887
2009    26      4       0.5749332       121.0098
2009    26      5       0.7178329       140.7386
2009    26      6       0.7515879       144.8024
2009    26      7       0.7511687       144.0586
2009    27      0       0.8037407       149.9709
2009    27      1       0.8113968       150.6726
2009    27      2       0.7101686       137.8415
2009    27      3       0.6698232       132.5041
2009    27      4       0.4814027       104.9199
2009    27      5       0.3254959       77.50821
2009    27      6       0.1693961       46.00082
2009    27      7       0.192855        51.23506
2009    28      0       0.3437506       81.32197
2009    28      1       0.3299865       79.06072
2009    28      2       0.4054022       92.88359
2009    28      3       0.4689054       103.7846
2009    28      4       0.6859102       135.3715
2009    28      5       0.2676021       66.67895
2009    28      6       0.1163257       33.93936
2009    28      7       0.1357229       38.3063
2009    29      0       0.1443892       40.69976
2009    29      1       0.1731742       46.93984
2009    29      2       0.2096633       54.9078
2009    29      3       0.2511972       63.42543
2009    29      4       0.3025621       73.66978
2009    29      5       0.3367129       80.29677
2009    29      6       0.3576855       84.05219
2009    29      7       0.368244        85.9087
2009    30      0       0.3668466       85.75798
2009    30      1       0.3383752       80.574
2009    30      2       0.2832894       70.10029
2009    30      3       0.2582416       65.20232
2009    30      4       0.2782484       69.20968
2009    30      5       0.2853565       70.46198
2009    30      6       0.2570805       64.57438
2009    30      7       0.2418586       61.15218
2010    1       0       0.2058798       53.57159
2010    1       1       0.2120135       55.18267
2010    1       2       0.2135712       55.66247
2010    1       3       0.22018         56.87045
2010    1       4       0.254694        63.57712
2010    1       5       0.2799122       67.9197
2010    1       6       0.3108744       73.14935
2010    1       7       0.33203         77.29509
2010    2       0       0.2705757       66.71669
2010    2       1       0.2254147       58.03635
2010    2       2       0.195716        51.80465
2010    2       3       0.2003298       52.29836
2010    2       4       0.3037271       72.43754
2010    2       5       0.332449        78.2768
2010    2       6       0.2339212       59.63868
2010    2       7       0.1811121       49.34853
2010    3       0       0.1813707       49.49659
2010    3       1       0.2192624       57.63076
2010    3       2       0.2571139       65.17355
2010    3       3       0.2379661       60.99633
2010    3       4       0.3560834       82.78006
2010    3       5       0.5137233       107.9881
2010    3       6       0.6320217       124.0678
2010    3       7       0.5376409       111.5222
2010    4       0       0.8190529       151.8237
2010    4       1       1.108023        180.9226
2010    4       2       0.8884499       158.6348
2010    4       3       1.317133        195.2674
2010    4       4       0.6178208       124.7792
2010    4       5       0.8222663       151.1536
2010    4       6       0.5218755       111.2107
2010    4       7       0.3310612       78.64167
2010    5       0       0.3259968       77.74197
2010    5       1       0.4362118       96.90235
2010    5       2       0.6649786       131.1214
2010    5       3       0.8585638       156.1546
2010    5       4       0.9520388       166.7454
2010    5       5       0.9156738       163.1217
2010    5       6       0.7538495       145.3027
2010    5       7       0.4556959       102.296
2010    6       0       0.3169648       77.09754
2010    6       1       0.3395059       80.74953
2010    6       2       0.4204034       94.91399
2010    6       3       0.4829384       104.7573
2010    6       4       0.5414226       114.3393
2010    6       5       0.4432852       98.60325
2010    6       6       0.516002        111.168
2010    6       7       0.460509        102.1058
2010    7       0       0.5175112       112.188
2010    7       1       0.5189695       112.6994
2010    7       2       0.4687096       104.4984
2010    7       3       0.4277263       97.75368
2010    7       4       0.4086648       94.3207
2010    7       5       0.395422        91.73539
2010    7       6       0.3370511       80.86099
2010    7       7       0.307827        75.21133
2010    8       0       0.2982389       74.12736
2010    8       1       0.3313622       81.11924
2010    8       2       0.368101        87.97011
2010    8       3       0.348682        84.53994
2010    8       4       0.3810515       89.56596
2010    8       5       0.2574477       65.46322
2010    8       6       0.3186229       76.62065
2010    8       7       0.3757301       86.15737
2010    9       0       0.3371278       79.68175
2010    9       1       0.2762868       68.01609
2010    9       2       0.289843        70.17453
2010    9       3       0.7143225       136.5138
2010    9       4       0.9539808       163.5704
2010    9       5       1.090645        176.3633
2010    9       6       0.9202449       159.8717
2010    9       7       0.8127845       148.4905
2010    10      0       0.7901248       146.2676
2010    10      1       0.7959605       147.0052
2010    10      2       0.7132263       136.8748
2010    10      3       1.004965        168.504
2010    10      4       1.201083        185.8674
2010    10      5       1.224999        187.8167
2010    10      6       1.440781        202.4665
2010    10      7       1.291566        193.7326
2010    11      0       1.148167        183.3717
2010    11      1       1.432202        204.5848
2010    11      2       1.240945        190.9652
2010    11      3       0.9680288       166.7838
2010    11      4       1.2022          186.671
2010    11      5       1.002333        170.6785
2010    11      6       1.209356        188.4568
2010    11      7       1.15658         184.5457
2010    12      0       0.8663839       157.6114
2010    12      1       0.6925339       136.906
2010    12      2       0.456833        102.4934
2010    12      3       0.3686934       87.30114
2010    12      4       0.3224878       78.79529
2010    12      5       0.2494782       63.54835
2010    12      6       0.2299602       59.12846
2010    12      7       0.2016892       53.10776
2010    13      0       0.1990056       52.29468
2010    13      1       0.3341098       78.03911
2010    13      2       0.2827735       68.54446
2010    13      3       0.2979653       72.14375
2010    13      4       0.2892736       70.84721
2010    13      5       0.3394658       80.46917
2010    13      6       0.3678317       85.86783
2010    13      7       0.1538435       43.29378
2010    14      0       0.1188701       34.32465
2010    14      1       0.2396626       59.0204
2010    14      2       0.3468979       80.70043
2010    14      3       0.3975366       89.8135
2010    14      4       0.4872785       104.2033
2010    14      5       0.428373        94.50267
2010    14      6       0.5572564       113.8671
2010    14      7       0.4660092       100.8897
2010    15      0       0.6545036       127.5897
2010    15      1       0.7668271       140.0772
2010    15      2       0.6831577       129.4184
2010    15      3       0.6611964       126.5835
2010    15      4       0.5750974       115.5924
2010    15      5       0.284436        68.60128
2010    15      6       0.2116098       54.14562
2010    15      7       0.2126863       54.4309
2010    16      0       0.2012657       52.3991
2010    16      1       0.1972331       51.26575
2010    16      2       0.2001934       51.33161
2010    16      3       0.2423972       59.7649
2010    16      4       0.6992884       132.2402
2010    16      5       0.8852239       153.5495
2010    16      6       0.5017383       105.1404
2010    16      7       0.5497232       113.3668
2010    17      0       0.1963775       51.75708
2010    17      1       0.07654111      25.01609
2010    17      2       0.09599486      29.77156
2010    17      3       0.07391446      24.52343
2010    17      4       0.09011033      28.33386
2010    17      5       0.09376243      29.14878
2010    17      6       0.07528549      24.74472
2010    17      7       0.06918438      23.25173
2010    18      0       0.06612732      22.58235
2010    18      1       0.06857183      23.18608
2010    18      2       0.06297787      21.81796
2010    18      3       0.06217291      21.51442
2010    18      4       0.07715868      25.00609
2010    18      5       0.101239        30.44832
2010    18      6       0.1007112       30.42879
2010    18      7       0.1066362       31.73338
2010    19      0       0.1126424       32.97714
2010    19      1       0.109253        32.25142
2010    19      2       0.1002234       30.16808
2010    19      3       0.1042936       31.04897
2010    19      4       0.1073389       31.82951
2010    19      5       0.1410995       40.00347
2010    19      6       0.2175664       56.87873
2010    19      7       0.2914642       70.64928
2010    20      0       0.334164        78.46036
2010    20      1       0.3847435       87.76325
2010    20      2       0.3867722       88.73262
2010    20      3       0.3358848       80.28336
2010    20      4       0.278002        69.74392
2010    20      5       0.2419023       62.44566
2010    20      6       0.2197619       57.97895
2010    20      7       0.22277         58.65867
2010    21      0       0.2062759       55.34839
2010    21      1       0.1906836       52.07843
2010    21      2       0.1585908       44.67695
2010    21      3       0.1661746       45.91355
2010    21      4       0.2149825       56.34471
2010    21      5       0.2585909       65.50443
2010    21      6       0.2805367       69.7226
2010    21      7       0.2824683       70.39579
2010    22      0       0.3255419       78.64815
2010    22      1       0.3352672       80.26514
2010    22      2       0.4695778       102.7881
2010    22      3       0.6193652       124.7858
2010    22      4       0.8038144       147.3368
2010    22      5       0.8469219       152.3744
2010    22      6       0.7995579       146.5468
2010    22      7       0.6739301       131.0459
2010    23      0       0.6226664       124.3359
2010    23      1       0.3084503       74.46486
2010    23      2       0.1740185       47.64484
2010    23      3       0.1837303       49.65081
2010    23      4       0.2101668       55.18201
2010    23      5       0.1808085       48.25122
2010    23      6       0.1811382       48.0277
2010    23      7       0.1774199       47.43126
2010    24      0       0.199164        52.21699
2010    24      1       0.2276976       58.6319
2010    24      2       0.3154302       76.48262
2010    24      3       0.3443785       82.93042
2010    24      4       0.4269723       97.45028
2010    24      5       0.6567627       132.2835
2010    24      6       0.7443179       143.9149
2010    24      7       0.6209739       127.9631
2010    25      0       0.4605003       103.5539
2010    25      1       0.4090674       95.15068
2010    25      2       0.3810996       90.40914
2010    25      3       0.3755169       89.48496
2010    25      4       0.3781337       90.11721
2010    25      5       0.3542136       85.78396
2010    25      6       0.3827315       90.77152
2010    25      7       0.4460116       101.7748
2010    26      0       0.4688612       105.6906
2010    26      1       0.4486722       102.4484
2010    26      2       0.4471527       102.3308
2010    26      3       0.4312999       99.87243
2010    26      4       0.4368141       100.9061
2010    26      5       0.4402001       101.2375
2010    26      6       0.3310363       81.13939
2010    26      7       0.2618831       67.31123
2010    27      0       0.229009        60.34616
2010    27      1       0.2320818       61.23802
2010    27      2       0.2231503       59.44952
2010    27      3       0.1916061       52.5267
2010    27      4       0.1636993       46.15984
2010    27      5       0.1456587       41.89713
2010    27      6       0.1667575       46.64176
2010    27      7       0.1875547       51.35
2010    28      0       0.2214996       58.61981
2010    28      1       0.2731236       69.21783
2010    28      2       0.2802106       70.49992
2010    28      3       0.2947862       73.16904
2010    28      4       0.2827114       70.65939
2010    28      5       0.2133841       56.25752
2010    28      6       0.1556378       43.76889
2010    28      7       0.1256308       37.04872
2010    29      0       0.1304604       38.22878
2010    29      1       0.1446447       41.48278
2010    29      2       0.1867082       50.88893
2010    29      3       0.2001667       53.92036
2010    29      4       0.1803149       49.65136
2010    29      5       0.1794102       49.57207
2010    29      6       0.1962772       53.39566
2010    29      7       0.2330667       61.50486
2010    30      0       0.2101656       56.4477
2010    30      1       0.2142635       57.11501
2010    30      2       0.2653546       67.64318
2010    30      3       0.2910866       72.44323
2010    30      4       0.6856036       134.8793
2010    30      5       0.8645909       156.7691
2010    30      6       0.6093871       125.2086
2010    30      7       0.340994        81.38364
2011    1       0       0.1883519       49.80772
2011    1       1       0.1914476       50.66216
2011    1       2       0.2379243       60.3172
2011    1       3       0.2901193       70.58974
2011    1       4       0.3136857       74.90495
2011    1       5       0.3796353       86.86487
2011    1       6       0.4337383       96.91586
2011    1       7       0.468936        102.7248
2011    2       0       0.7394786       141.3336
2011    2       1       0.7327032       140.3705
2011    2       2       0.6356693       128.3238
2011    2       3       0.5232802       111.8821
2011    2       4       0.4834553       105.8859
2011    2       5       0.4942928       107.2262
2011    2       6       0.4698181       103.0939
2011    2       7       0.3821704       87.68004
2011    3       0       0.284439        69.65923
2011    3       1       0.2502753       62.74571
2011    3       2       0.2517377       63.22194
2011    3       3       0.2579764       64.57434
2011    3       4       0.2662405       66.40842
2011    3       5       0.3017932       73.50914
2011    3       6       0.3191131       76.87645
2011    3       7       0.3167243       76.14113
2011    4       0       0.3834741       87.59359
2011    4       1       0.4224582       94.10953
2011    4       2       0.4041446       91.30663
2011    4       3       0.3884602       88.48965
2011    4       4       0.3432853       80.54281
2011    4       5       0.3311154       77.8411
2011    4       6       0.3569          82.3102
2011    4       7       0.3983384       89.96773
2011    5       0       0.4569569       99.7851
2011    5       1       0.4719168       102.1797
2011    5       2       0.3573196       83.95802
2011    5       3       0.278412        69.15709
2011    5       4       0.3066592       74.70111
2011    5       5       0.4256992       95.31777
2011    5       6       0.380592        87.59401
2011    5       7       0.2752973       67.73141
2011    6       0       0.2135127       54.52074
2011    6       1       0.2517231       61.1464
2011    6       2       0.2998409       70.17461
2011    6       3       0.311693        72.85381
2011    6       4       0.3968753       89.14286
2011    6       5       0.6101204       122.4995
2011    6       6       0.7357861       139.93
2011    6       7       1.086982        177.3611
2011    7       0       1.409963        201.352
2011    7       1       1.022663        171.9121
2011    7       2       1.224494        189.1035
2011    7       3       1.292964        195.076
2011    7       4       1.617109        214.0598
2011    7       5       1.439801        205.1811
2011    7       6       1.389765        201.8187
2011    7       7       1.385194        202.4736
2011    8       0       1.597919        213.2358
2011    8       1       1.89637         227.3729
2011    8       2       2.029343        233.1142
2011    8       3       1.519245        210.1892
2011    8       4       1.551099        209.2964
2011    8       5       1.102056        177.0088
2011    8       6       0.5993362       122.2853
2011    8       7       0.4650756       102.2642
2011    9       0       0.6902167       133.9914
2011    9       1       0.5711095       117.1052
2011    9       2       0.509312        108.315
2011    9       3       0.5724855       118.7235
2011    9       4       0.9178685       161.9587
2011    9       5       1.34733         197.4132
2011    9       6       1.662041        215.7199
2011    9       7       1.834896        224.3025
2011    10      0       1.009797        169.8076
2011    10      1       1.535048        211.1445
2011    10      2       1.428604        204.5578
2011    10      3       1.59136         214.1963
2011    10      4       1.6447          217.5467
2011    10      5       1.40874         204.982
2011    10      6       1.052536        178.1143
2011    10      7       0.7674635       148.3317
2011    11      0       0.554011        119.3686
2011    11      1       0.4625537       104.3272
2011    11      2       0.401482        93.16297
2011    11      3       0.4150123       95.0826
2011    11      4       0.5231917       112.4824
2011    11      5       0.5077398       110.7252
2011    11      6       0.5041227       110.3831
2011    11      7       0.4431943       100.5062
2011    12      0       0.453318        101.9982
2011    12      1       0.5466322       116.4037
2011    12      2       0.6278088       127.7409
2011    12      3       0.8458343       155.1703
2011    12      4       1.022005        173.4688
2011    12      5       0.6543462       131.6939
2011    12      6       0.4525695       101.4299
2011    12      7       0.3545716       84.67334
2011    13      0       0.1893918       51.89122
2011    13      1       0.1131761       34.42129
2011    13      2       0.1024323       31.77771
2011    13      3       0.1106016       33.54155
2011    13      4       0.1486778       41.97714
2011    13      5       0.2565431       64.47564
2011    13      6       0.3622321       84.71914
2011    13      7       0.3795891       88.11722
2011    14      0       0.3584871       84.56187
2011    14      1       0.312916        76.37823
2011    14      2       0.2425647       62.49979
2011    14      3       0.1437893       41.33258
2011    14      4       0.07727402      25.5493
2011    14      5       0.1405682       39.26793
2011    14      6       0.2662639       64.38389
2011    14      7       0.3236133       76.13094
2011    15      0       0.2948465       71.83014
2011    15      1       0.2872016       70.90263
2011    15      2       0.3549329       84.09444
2011    15      3       0.4875258       107.3041
2011    15      4       0.6836823       136.9379
2011    15      5       0.8116114       153.0271
2011    15      6       0.7996313       151.8149
2011    15      7       0.819598        153.8615
2011    16      0       0.7111089       140.1469
2011    16      1       0.3234638       78.94669
2011    16      2       0.1417346       40.44254
2011    16      3       0.2045266       54.58795
2011    16      4       0.6860793       135.6572
2011    16      5       0.6224348       126.1268
2011    16      6       0.3368687       81.15932
2011    16      7       0.2579521       65.75977
2011    17      0       0.1909502       52.03834
2011    17      1       0.1956397       52.6298
2011    17      2       0.1114268       33.43724
2011    17      3       0.1198836       34.85748
2011    17      4       0.1404902       38.96018
2011    17      5       0.1634947       44.04198
2011    17      6       0.1380378       38.91875
2011    17      7       0.1455848       40.71828
2011    18      0       0.1772          47.49272
2011    18      1       0.2091972       53.9962
2011    18      2       0.2164387       55.36458
2011    18      3       0.1822142       48.7116
2011    18      4       0.1769927       47.92479
2011    18      5       0.1641054       45.68667
2011    18      6       0.166003        46.30746
2011    18      7       0.1848313       50.78056
2011    19      0       0.2282832       60.21181
2011    19      1       0.2059697       55.58545
2011    19      2       0.1384857       40.48245
2011    19      3       0.1311016       38.5912
2011    19      4       0.1324352       38.52049
2011    19      5       0.1652152       45.27474
2011    19      6       0.2354804       59.67599
2011    19      7       0.358164        83.56582
2011    20      0       0.3528648       84.08193
2011    20      1       0.180375        49.71391
2011    20      2       0.1490715       42.19288
2011    20      3       0.1652214       45.5808
2011    20      4       0.2040177       53.82293
2011    20      5       0.2032988       53.69174
2011    20      6       0.1560189       43.495
2011    20      7       0.1366063       38.90533
2011    21      0       0.1540717       42.79522
2011    21      1       0.1788669       48.19742
2011    21      2       0.2127541       55.41057
2011    21      3       0.2323687       59.65729
2011    21      4       0.2293738       59.21409
2011    21      5       0.2248298       58.4483
2011    21      6       0.2204941       57.55191
2011    21      7       0.2223888       57.89105
2011    22      0       0.2209656       57.74312
2011    22      1       0.2177153       57.07279
2011    22      2       0.2132205       55.79363
2011    22      3       0.2002565       52.76933
2011    22      4       0.1936053       51.04922
2011    22      5       0.2447076       60.99402
2011    22      6       0.3778967       85.81851
2011    22      7       0.7636247       141.9543
2011    23      0       0.6490767       128.5928
2011    23      1       0.6039865       120.6258
2011    23      2       0.7060202       134.634
2011    23      3       0.8887461       157.1665
2011    23      4       0.9859116       168.0015
2011    23      5       0.9401786       163.8476
2011    23      6       1.001908        170.133
2011    23      7       0.919889        162.2558
2011    24      0       0.5987716       123.1927
2011    24      1       0.1303208       37.94248
2011    24      2       0.1368945       39.11816
2011    24      3       0.2545904       63.36378
2011    24      4       0.2215592       56.29424
2011    24      5       0.2040601       53.30079
2011    24      6       0.3100278       74.44087
2011    24      7       0.6434133       126.1497
2011    25      0       0.4686862       100.7145
2011    25      1       0.3822268       86.72877
2011    25      2       0.3715572       85.26879
2011    25      3       0.3245393       77.06274
2011    25      4       0.3186998       75.51601
2011    25      5       0.3703394       84.34836
2011    25      6       0.4948184       105.466
2011    25      7       0.5640167       117.2761
2011    26      0       0.345361        82.02782
2011    26      1       0.1628372       45.14516
2011    26      2       0.1497199       41.80988
2011    26      3       0.1898505       50.55825
2011    26      4       0.2239077       58.03588
2011    26      5       0.2397434       61.091
2011    26      6       0.2588056       65.06753
2011    26      7       0.2426868       61.78122
2011    27      0       0.2508297       63.07328
2011    27      1       0.3186525       75.19536
2011    27      2       0.3484947       80.77771
2011    27      3       0.3015182       72.74819
2011    27      4       0.2477561       62.49702
2011    27      5       0.2541152       63.80941
2011    27      6       0.2985788       72.34076
2011    27      7       0.339691        80.3571
2011    28      0       0.2884856       70.82591
2011    28      1       0.2691719       67.41885
2011    28      2       0.2397285       61.57086
2011    28      3       0.2244708       58.41003
2011    28      4       0.2632043       66.02206
2011    28      5       0.2731195       67.83291
2011    28      6       0.276014        68.43793
2011    28      7       0.2574241       65.07793
2011    29      0       0.2249959       58.63231
2011    29      1       0.1990017       53.25572
2011    29      2       0.1797149       49.14809
2011    29      3       0.1864976       50.6538
2011    29      4       0.1927547       52.01753
2011    29      5       0.2083827       55.27326
2011    29      6       0.218151        57.29257
2011    29      7       0.271451        68.13735
2011    30      0       0.2056119       54.39274
2011    30      1       0.1833659       49.48109
2011    30      2       0.2028394       53.85365
2011    30      3       0.1899639       51.0829
2011    30      4       0.1317244       37.91629
2011    30      5       0.1110885       33.30732
2011    30      6       0.1365874       39.3652
2011    30      7       0.1309271       37.9187
2012    1       0       0.1591292       44.56312
2012    1       1       0.1442179       41.24484
2012    1       2       0.1510484       42.6919
2012    1       3       0.198514        53.15688
2012    1       4       0.170477        46.93906
2012    1       5       0.2925484       71.26816
2012    1       6       0.5705479       119.6832
2012    1       7       0.4570583       101.8803
2012    2       0       0.4629098       102.7692
2012    2       1       0.3942549       90.45992
2012    2       2       0.5157427       110.802
2012    2       3       0.6145553       125.1299
2012    2       4       0.9590512       167.1284
2012    2       5       1.091647        180.2342
2012    2       6       0.726358        140.9955
2012    2       7       0.3042792       73.79645
2012    3       0       0.3287144       79.4703
2012    3       1       0.4925868       108.047
2012    3       2       0.5439731       116.7229
2012    3       3       0.3750135       88.41732
2012    3       4       0.3619434       85.64209
2012    3       5       0.4116841       94.43764
2012    3       6       0.4233767       96.7674
2012    3       7       0.3738039       88.31088
2012    4       0       0.311209        76.67944
2012    4       1       0.2676353       68.15881
2012    4       2       0.2191328       58.08628
2012    4       3       0.1965336       53.18975
2012    4       4       0.2242775       58.99477
2012    4       5       0.2469859       63.64786
2012    4       6       0.2126561       56.51128
2012    4       7       0.2357069       61.46208
2012    5       0       0.2611712       66.68776
2012    5       1       0.2302595       60.13017
2012    5       2       0.1905476       51.4082
2012    5       3       0.1944652       52.07682
2012    5       4       0.2970988       73.1768
2012    5       5       0.492889        107.6498
2012    5       6       0.5329114       114.2248
2012    5       7       0.532368        113.6874
2012    6       0       0.6828864       133.7916
2012    6       1       0.7789851       146.1062
2012    6       2       0.7155828       137.9379
2012    6       3       0.5588449       116.1865
2012    6       4       0.588328        120.6838
2012    6       5       0.3212093       76.30787
2012    6       6       0.2593587       64.471
2012    6       7       0.3442672       80.23387
2012    7       0       0.4837364       103.5865
2012    7       1       0.6536157       128.7462
2012    7       2       1.136934        181.9415
2012    7       3       1.407579        203.2375
2012    7       4       1.383844        200.9019
2012    7       5       1.144947        182.5397
2012    7       6       0.9366433       163.8963
2012    7       7       0.8968409       158.6495
2012    8       0       1.02606         171.1802
2012    8       1       1.16152         183.2035
2012    8       2       1.017947        170.4375
2012    8       3       0.3588676       84.05113
2012    8       4       0.5606378       117.0139
2012    8       5       0.5237407       110.5999
2012    8       6       0.5434291       113.0732
2012    8       7       0.6595961       129.2934
2012    9       0       0.5681631       116.529
2012    9       1       0.4340133       95.69
2012    9       2       0.4008526       90.10089
2012    9       3       0.6436801       126.4511
2012    9       4       0.7318121       137.2792
2012    9       5       0.6756531       130.6018
2012    9       6       0.5529363       113.8831
2012    9       7       0.5002738       106.4683
2012    10      0       0.6549106       128.3153
2012    10      1       0.5089017       107.9284
2012    10      2       0.3760228       85.95232
2012    10      3       0.229534        58.59205
2012    10      4       0.1611943       44.32029
2012    10      5       0.1565494       43.14432
2012    10      6       0.2792028       67.97622
2012    10      7       0.3634118       84.12014
2012    11      0       0.4475451       99.00866
2012    11      1       0.4968434       106.9599
2012    11      2       0.4356232       97.18058
2012    11      3       0.3233853       77.70533
2012    11      4       0.1911181       50.96373
2012    11      5       0.1928295       51.56162
2012    11      6       0.1804013       49.47731
2012    11      7       0.1742977       47.98445
2012    12      0       0.1851431       49.8926
2012    12      1       0.1956875       52.10563
2012    12      2       0.1864906       50.14018
2012    12      3       0.1498282       42.28088
2012    12      4       0.1573344       44.3001
2012    12      5       0.1629053       45.5995
2012    12      6       0.1691735       46.63015
2012    12      7       0.1930878       51.69517
2012    13      0       0.2151215       56.34678
2012    13      1       0.2616932       65.67631
2012    13      2       0.3010783       73.3661
2012    13      3       0.294108        72.19308
2012    13      4       0.2979524       72.9243
2012    13      5       0.2920025       71.48266
2012    13      6       0.2968617       71.96714
2012    13      7       0.304609        73.26101
2012    14      0       0.2876802       70.00024
2012    14      1       0.2843855       69.32153
2012    14      2       0.2852197       69.82337
2012    14      3       0.2693544       66.51899
2012    14      4       0.2781045       68.59576
2012    14      5       0.2446198       62.31232
2012    14      6       0.1818424       49.40901
2012    14      7       0.1743205       47.83905
2012    15      0       0.2037555       53.82342
2012    15      1       0.2099022       55.06094
2012    15      2       0.232588        59.75295
2012    15      3       0.2320141       59.81503
2012    15      4       0.1942845       52.36307
2012    15      5       0.2038487       54.5097
2012    15      6       0.2250247       58.80268
2012    15      7       0.2873972       71.3799
2012    16      0       0.3481898       83.01677
2012    16      1       0.3889488       90.41627
2012    16      2       0.4178313       95.55987
2012    16      3       0.4223576       96.4472
2012    16      4       0.4707039       104.4826
2012    16      5       0.4480576       100.9216
2012    16      6       0.3580793       85.2067
2012    16      7       0.3108686       76.3497
2012    17      0       0.2805524       70.35224
2012    17      1       0.2584862       65.83559
2012    17      2       0.3382286       81.43243
2012    17      3       0.3851925       89.79969
2012    17      4       0.6017624       124.6658
2012    17      5       0.7933771       149.475
2012    17      6       0.8544182       156.5125
2012    17      7       0.9263911       164.4511
2012    18      0       0.7302231       142.0368
2012    18      1       0.482148        106.1168
2012    18      2       0.6806445       134.9072
2012    18      3       0.9615312       166.1136
2012    18      4       1.437114        203.9387
2012    18      5       1.301391        195.24
2012    18      6       1.185689        186.4814
2012    18      7       1.192817        186.9709
2012    19      0       1.454712        205.5058
2012    19      1       1.038667        174.2191
2012    19      2       0.8857455       158.4937
2012    19      3       0.842021        153.5666
2012    19      4       0.8749784       157.1473
2012    19      5       0.705536        138.2201
2012    19      6       0.2843415       71.43689
2012    19      7       0.1306202       38.4824
2012    20      0       0.1525156       43.03242
2012    20      1       0.1899926       50.98467
2012    20      2       0.2345406       60.25103
2012    20      3       0.3228709       77.79393
2012    20      4       0.4830682       105.8125
2012    20      5       0.496189        107.7083
2012    20      6       0.3396262       80.40281
2012    20      7       0.3222564       76.25736
2012    21      0       0.5818893       118.9324
2012    21      1       1.177716        184.4507
2012    21      2       1.350965        197.4276
2012    21      3       1.402256        200.8419
2012    21      4       1.492108        206.2763
2012    21      5       1.455517        204.3476
2012    21      6       1.722958        219.0345
2012    21      7       0.9194199       162.6836
2012    22      0       0.7474078       143.2722
2012    22      1       1.510432        209.5241
2012    22      2       1.657679        216.904
2012    22      3       0.9452096       166.5862
2012    22      4       1.753453        221.4925
2012    22      5       1.018015        172.9173
2012    22      6       1.122197        182.5879
2012    22      7       0.1735115       48.40801
2012    23      0       0.1461943       42.12276
2012    23      1       0.1588128       45.00345
2012    23      2       0.1916754       52.28545
2012    23      3       0.4737088       105.3865
2012    23      4       1.29398         196.4956
2012    23      5       1.724159        219.6556
2012    23      6       1.480186        205.291
2012    23      7       1.204959        185.3416
2012    24      0       0.6485485       128.9182
2012    24      1       0.5228348       111.5445
2012    24      2       0.3429848       81.47961
2012    24      3       0.5092239       108.2334
2012    24      4       0.9244561       160.9051
2012    24      5       1.285609        190.909
2012    24      6       1.040524        170.7242
2012    24      7       0.6917732       132.3518
2012    25      0       0.6047691       120.5398
2012    25      1       0.7324659       138.1908
2012    25      2       0.6312375       125.857
2012    25      3       0.3475394       82.57474
2012    25      4       0.2852703       70.94804
2012    25      5       0.2530881       64.11415
2012    25      6       0.3135661       74.97932
2012    25      7       0.5493682       113.4539
2012    26      0       0.5744067       117.6113
2012    26      1       0.5489801       115.3297
2012    26      2       0.5119786       111.3191
2012    26      3       0.5265326       114.2228
2012    26      4       0.4096675       95.6193
2012    26      5       0.160044        45.47419
2012    26      6       0.2443626       63.61027
2012    26      7       0.3103778       77.07086
2012    27      0       0.1635697       45.94547
2012    27      1       0.1134197       34.22934
2012    27      2       0.1009613       31.08636
2012    27      3       0.09098897      28.63666
2012    27      4       0.08149075      26.11023
2012    27      5       0.1264831       36.55851
2012    27      6       0.1418911       40.20355
2012    27      7       0.1828879       48.74877
2012    28      0       0.1716622       46.08342
2012    28      1       0.1644651       44.31569
2012    28      2       0.1273361       36.31033
2012    28      3       0.1538162       42.34451
2012    28      4       0.1737289       46.6226
2012    28      5       0.1620878       44.36548
2012    28      6       0.2697299       68.0524
2012    28      7       0.4155252       95.77721
2012    29      0       0.4219171       96.52332
2012    29      1       0.4262895       97.37264
2012    29      2       0.4362479       100.0784
2012    29      3       0.2581153       66.78029
2012    29      4       0.2083633       55.6409
2012    29      5       0.1783609       49.02863
2012    29      6       0.1644336       46.21026
2012    29      7       0.1797632       49.22252
2012    30      0       0.2349297       60.5156
2012    30      1       0.2437616       62.68063
2012    30      2       0.2456213       63.16391
2012    30      3       0.264612        66.90345
2012    30      4       0.2636264       66.9218
2012    30      5       0.2612127       66.45236
2012    30      6       0.2362556       61.07454
2012    30      7       0.181101        49.20278
2013    1       0       0.4997143       108.0147
2013    1       1       0.4313716       97.37283
2013    1       2       0.4695789       104.3518
2013    1       3       0.8364149       154.9626
2013    1       4       1.017526        173.9292
2013    1       5       1.086551        180.038
2013    1       6       1.032325        175.2178
2013    1       7       0.9000227       162.2622
2013    2       0       0.8100799       152.4753
2013    2       1       0.7836525       149.7572
2013    2       2       0.7990936       152.123
2013    2       3       0.5916091       124.8425
2013    2       4       0.3377283       82.27709
2013    2       5       0.1483907       42.33774
2013    2       6       0.1246288       36.31943
2013    2       7       0.1546572       43.19768
2013    3       0       0.2173515       55.73037
2013    3       1       0.3318182       77.27741
2013    3       2       0.3781671       85.78794
2013    3       3       0.3833747       86.97644
2013    3       4       0.3574485       82.85053
2013    3       5       0.3547952       82.06032
2013    3       6       0.4048066       89.78639
2013    3       7       0.451909        96.84933
2013    4       0       0.3837733       85.56698
2013    4       1       0.3399518       77.88919
2013    4       2       0.3723572       83.67186
2013    4       3       0.4595699       97.98773
2013    4       4       0.4909506       103.1033
2013    4       5       0.3496298       80.717
2013    4       6       0.242505        60.97352
2013    4       7       0.1728403       46.83789
2013    5       0       0.1271732       36.63483
2013    5       1       0.1178168       34.52061
2013    5       2       0.1516369       42.30534
2013    5       3       0.151325        42.39375
2013    5       4       0.1670016       45.97286
2013    5       5       0.191195        51.2193
2013    5       6       0.2435753       62.12656
2013    5       7       0.1252259       36.92215
2013    6       0       0.129779        37.74094
2013    6       1       0.1809529       49.47888
2013    6       2       0.2250739       59.25456
2013    6       3       0.1619504       45.52666
2013    6       4       0.09689945      30.2618
2013    6       5       0.09601277      29.69842
2013    6       6       0.1894204       49.95764
2013    6       7       0.3976671       90.38282
2013    7       0       0.5376271       113.1064
2013    7       1       1.128114        182.7267
2013    7       2       1.186377        187.8894
2013    7       3       0.9389386       165.6624
2013    7       4       1.018695        173.6083
2013    7       5       1.022165        173.6917
2013    7       6       0.950577        166.4962
2013    7       7       1.157049        185.4853
2013    8       0       0.7694015       146.0184
2013    8       1       1.021311        171.7541
2013    8       2       1.102701        179.5667
2013    8       3       1.180026        186.2218
2013    8       4       0.9906718       169.9824
2013    8       5       0.7294266       141.4773
2013    8       6       0.5062322       110.2288
2013    8       7       0.3832225       89.19005
2013    9       0       0.6155705       124.8541
2013    9       1       0.6208275       124.7914
2013    9       2       0.7266567       136.8917
2013    9       3       0.8237059       147.1812
2013    9       4       0.2919566       71.32296
2013    9       5       0.06586662      22.48028
2013    9       6       0.08145983      26.31234
2013    9       7       0.1087999       32.74322
2013    10      0       0.1567865       43.2698
2013    10      1       0.199704        52.68338
2013    10      2       0.227711        58.79139
2013    10      3       0.2372654       61.04513
2013    10      4       0.2208567       57.8895
2013    10      5       0.2088854       55.18847
2013    10      6       0.2058312       54.26246
2013    10      7       0.2175181       56.82665
2013    11      0       0.1871998       50.87801
2013    11      1       0.1414365       40.84476
2013    11      2       0.1342          39.06084
2013    11      3       0.1356941       39.50369
2013    11      4       0.1419721       40.97427
2013    11      5       0.1408612       40.78672
2013    11      6       0.1258879       37.40256
2013    11      7       0.1315016       38.70371
2013    12      0       0.1341437       39.10014
2013    12      1       0.1311635       38.04511
2013    12      2       0.1328537       38.25169
2013    12      3       0.1342954       38.6662
2013    12      4       0.1471648       41.80613
2013    12      5       0.151224        42.84129
2013    12      6       0.1467599       41.79222
2013    12      7       0.154483        43.59201
2013    13      0       0.2004298       53.84269
2013    13      1       0.2551336       65.4095
2013    13      2       0.3526202       83.86818
2013    13      3       0.4353103       98.50836
2013    13      4       0.4242043       97.09465
2013    13      5       0.3989806       92.71125
2013    13      6       0.3470025       83.27123
2013    13      7       0.2987946       73.93341
2013    14      0       0.2524557       64.65596
2013    14      1       0.1743507       48.1812
2013    14      2       0.1757249       48.40303
2013    14      3       0.1698887       47.16735
2013    14      4       0.153231        43.50263
2013    14      5       0.1515772       43.2623
2013    14      6       0.1774843       49.03683
2013    14      7       0.1836409       50.13794
2013    15      0       0.1258082       37.02198
2013    15      1       0.1393209       40.10104
2013    15      2       0.1217963       36.13559
2013    15      3       0.1366571       39.69703
2013    15      4       0.1796747       49.4935
2013    15      5       0.1988747       53.67194
2013    15      6       0.1477455       42.30668
2013    15      7       0.1271651       37.43628
2013    16      0       0.1465291       41.80005
2013    16      1       0.1674911       46.44138
2013    16      2       0.1818994       49.54745
2013    16      3       0.1887856       51.20851
2013    16      4       0.2107042       55.95632
2013    16      5       0.2084001       55.45864
2013    16      6       0.1472467       42.13293
2013    16      7       0.1089119       33.14748
2013    17      0       0.1191203       35.35553
2013    17      1       0.1107481       33.5949
2013    17      2       0.1787811       49.29052
2013    17      3       0.2642206       67.40071
2013    17      4       0.2406569       62.64383
2013    17      5       0.2011498       54.40688
2013    17      6       0.1686831       47.31918
2013    17      7       0.1420952       41.26679
2013    18      0       0.1207456       35.89342
2013    18      1       0.1410987       39.88831
2013    18      2       0.2075041       54.47239
2013    18      3       0.2030487       53.87287
2013    18      4       0.1852844       50.52035
2013    18      5       0.1883967       51.30582
2013    18      6       0.1729256       46.83977
2013    18      7       0.1682773       46.32342
2013    19      0       0.2967093       73.35262
2013    19      1       0.4505875       101.2125
2013    19      2       0.4451316       100.4704
2013    19      3       0.4290136       97.96563
2013    19      4       0.4777658       106.3258
2013    19      5       0.5585243       118.7884
2013    19      6       0.4337823       99.13881
2013    19      7       0.35157         84.09924
2013    20      0       0.3690947       86.98344
2013    20      1       0.3936509       91.52504
2013    20      2       0.4489209       101.0867
2013    20      3       0.4697539       104.2726
2013    20      4       0.5303593       113.721
2013    20      5       0.5574385       117.8752
2013    20      6       0.4641745       103.2892
2013    20      7       0.394205        91.67198
2013    21      0       0.3115205       76.35138
2013    21      1       0.2657252       67.36866
2013    21      2       0.2401818       62.25659
2013    21      3       0.2188186       57.62452
2013    21      4       0.2122669       56.04561
2013    21      5       0.2084354       55.11774
2013    21      6       0.2129875       56.54861
2013    21      7       0.2167972       57.44638
2013    22      0       0.2118298       56.33081
2013    22      1       0.1959349       52.78203
2013    22      2       0.1728368       47.42202
2013    22      3       0.1908898       50.86413
2013    22      4       0.1992236       53.35472
2013    22      5       0.2105733       55.69423
2013    22      6       0.1774454       48.40548
2013    22      7       0.1850989       49.46243
2013    23      0       0.1611266       44.72379
2013    23      1       0.1686484       46.13675
2013    23      2       0.1553287       43.93092
2013    23      3       0.1676417       46.81111
2013    23      4       0.1791294       49.5946
2013    23      5       0.1567707       44.48915
2013    23      6       0.1207931       36.06759
2013    23      7       0.1110517       33.62853
2013    24      0       0.1113383       33.56501
2013    24      1       0.1200816       35.48121
2013    24      2       0.138061        39.67532
2013    24      3       0.1441082       41.40259
2013    24      4       0.1389407       40.54821
2013    24      5       0.1318672       38.84698
2013    24      6       0.1589501       45.27405
2013    24      7       0.1614293       46.15233
2013    25      0       0.1620688       46.39727
2013    25      1       0.1690781       47.89099
2013    25      2       0.1636222       46.73009
2013    25      3       0.186544        51.72301
2013    25      4       0.2689151       69.45795
2013    25      5       0.3761198       89.3228
2013    25      6       0.4107905       95.28583
2013    25      7       0.3186325       77.73279
2013    26      0       0.3866517       89.1803
2013    26      1       0.8624203       155.3637
2013    26      2       1.052297        175.3752
2013    26      3       0.8049502       149.4481
2013    26      4       0.6985242       136.8955
2013    26      5       0.6564829       131.1921
2013    26      6       0.4332542       97.31484
2013    26      7       0.3227149       77.23896
2013    27      0       0.2690108       66.46383
2013    27      1       0.1944083       51.1788
2013    27      2       0.1828222       48.76339
2013    27      3       0.2371859       60.21882
2013    27      4       0.4230997       95.02597
2013    27      5       0.5523322       115.0108
2013    27      6       0.3138772       75.99823
2013    27      7       0.1611208       45.14361
2013    28      0       0.1513376       42.9932
2013    28      1       0.1749988       47.85329
2013    28      2       0.1958479       51.86299
2013    28      3       0.307418        73.91872
2013    28      4       0.4381167       97.65452
2013    28      5       0.454024        100.2833
2013    28      6       0.3489946       81.58986
2013    28      7       0.405029        91.45928
2013    29      0       0.4608004       101.2838
2013    29      1       0.4924634       106.7304
2013    29      2       0.4433057       98.94061
2013    29      3       0.4238976       96.15799
2013    29      4       0.5038215       109.0931
2013    29      5       0.5593623       117.6933
2013    29      6       0.6299057       128.1186
2013    29      7       0.7521825       143.7862
2013    30      0       0.6954821       136.6526
2013    30      1       0.6530972       130.5102
2013    30      2       0.6947002       134.968
2013    30      3       0.8870493       157.7762
2013    30      4       0.9423617       163.9719
2013    30      5       1.173512        183.4737
2013    30      6       1.226774        187.7225
2013    30      7       1.249643        190.3392
2014    1       0       0.1681419       47.21318
2014    1       1       0.1796043       49.58314
2014    1       2       0.2411303       63.12427
2014    1       3       0.3863299       91.6293
2014    1       4       0.5517958       118.5788
2014    1       5       0.5037061       110.3102
2014    1       6       0.5466806       116.0182
2014    1       7       0.4223967       95.52648
2014    2       0       0.1427318       40.52642
2014    2       1       0.08806891      27.41669
2014    2       2       0.1134821       32.99081
2014    2       3       0.137045        38.5406
2014    2       4       0.1998836       52.13628
2014    2       5       0.2255562       57.6506
2014    2       6       0.1834871       48.68516
2014    2       7       0.2087516       53.51433
2014    3       0       0.1790087       47.76598
2014    3       1       0.1509859       42.54529
2014    3       2       0.1746946       48.12031
2014    3       3       0.175803        48.67282
2014    3       4       0.1493538       42.65158
2014    3       5       0.1303144       37.91088
2014    3       6       0.2507809       64.02625
2014    3       7       0.354198        85.05348
2014    4       0       0.3055595       76.19184
2014    4       1       0.244143        63.74865
2014    4       2       0.2627455       67.41072
2014    4       3       0.3529604       85.10377
2014    4       4       0.4830012       107.7461
2014    4       5       0.4407966       100.5086
2014    4       6       0.3922377       91.74071
2014    4       7       0.4813201       106.6316
2014    5       0       0.6377023       129.6006
2014    5       1       0.6282118       127.2779
2014    5       2       0.8115561       149.5159
2014    5       3       1.110596        178.883
2014    5       4       0.8602448       153.4172
2014    5       5       0.7181238       135.8282
2014    5       6       0.499081        104.9436
2014    5       7       0.2442338       60.84386
2014    6       0       0.1990913       52.05978
2014    6       1       0.1482232       41.24972
2014    6       2       0.2105437       54.46067
2014    6       3       0.2803403       68.20728
2014    6       4       0.3962539       89.37816
2014    6       5       0.5923495       121.3348
2014    6       6       0.7067786       136.6778
2014    6       7       0.8355069       152.3592
2014    7       0       0.9386644       164.3831
2014    7       1       0.8459671       154.9505
2014    7       2       0.766962        145.4689
2014    7       3       0.6423149       129.5298
2014    7       4       0.6260672       127.2985
2014    7       5       0.5432967       115.1292
2014    7       6       0.4783579       105.267
2014    7       7       0.4257311       96.69522
2014    8       0       0.3658339       86.12289
2014    8       1       0.3530897       83.59008
2014    8       2       0.3205064       77.64973
2014    8       3       0.2714068       68.31183
2014    8       4       0.2080996       55.26999
2014    8       5       0.160007        44.57368
2014    8       6       0.1347044       38.63123
2014    8       7       0.1056164       31.90207
2014    9       0       0.1063716       32.10553
2014    9       1       0.1144465       34.24206
2014    9       2       0.1255924       36.87553
2014    9       3       0.1227859       36.13282
2014    9       4       0.1250422       36.53063
2014    9       5       0.1619019       44.8987
2014    9       6       0.2391219       61.5534
2014    9       7       0.2604041       65.78299
2014    10      0       0.1961842       52.45967
2014    10      1       0.1237264       35.94573
2014    10      2       0.1172922       34.37754
2014    10      3       0.09461494      29.17845
2014    10      4       0.08704737      27.39861
2014    10      5       0.08745051      27.55531
2014    10      6       0.09059994      28.42608
2014    10      7       0.1051406       31.78451
2014    11      0       0.1034015       31.36401
2014    11      1       0.08688282      27.6641
2014    11      2       0.08977943      28.49458
2014    11      3       0.08093136      26.46501
2014    11      4       0.08530774      27.53265
2014    11      5       0.08552725      27.53837
2014    11      6       0.1062385       32.53926
2014    11      7       0.2131684       57.05428
2014    12      0       0.250647        65.03535
2014    12      1       0.2571417       66.31887
2014    12      2       0.2343469       61.64106
2014    12      3       0.1699068       47.51389
2014    12      4       0.09881646      30.83721
2014    12      5       0.09843767      30.60085
2014    12      6       0.1156353       34.86707
2014    12      7       0.1329268       38.73845
2014    13      0       0.1492176       42.02496
2014    13      1       0.1562359       43.14154
2014    13      2       0.1577568       43.82165
2014    13      3       0.1479022       42.05505
2014    13      4       0.1437696       41.32628
2014    13      5       0.1558915       44.18357
2014    13      6       0.1408467       40.94938
2014    13      7       0.1313651       38.86369
2014    14      0       0.1219649       36.7558
2014    14      1       0.119913        36.22988
2014    14      2       0.1089726       33.62361
2014    14      3       0.1125175       34.54633
2014    14      4       0.1705204       48.14332
2014    14      5       0.3160358       78.89039
2014    14      6       0.3608983       87.27959
2014    14      7       0.4271453       99.04296
2014    15      0       0.4690145       105.7106
2014    15      1       0.4915838       109.1497
2014    15      2       0.2261301       59.87162
2014    15      3       0.3156352       77.81137
2014    15      4       0.3535019       85.68038
2014    15      5       0.1884107       52.20292
2014    15      6       0.110854        34.02453
2014    15      7       0.1084295       33.32998
2014    16      0       0.156532        44.59209
2014    16      1       0.1952186       53.16736
2014    16      2       0.2258293       59.47869
2014    16      3       0.2347061       61.01338
2014    16      4       0.2398005       62.3019
2014    16      5       0.2437766       63.09143
2014    16      6       0.2341273       61.32515
2014    16      7       0.2238304       59.29915
2014    17      0       0.2077672       55.95224
2014    17      1       0.1921857       52.64091
2014    17      2       0.1929076       52.88216
2014    17      3       0.2063087       55.81432
2014    17      4       0.2536805       65.77375
2014    17      5       0.2671607       67.95245
2014    17      6       0.3383299       81.56472
2014    17      7       0.8164391       152.5612
2014    18      0       0.8640074       157.6061
2014    18      1       0.7160508       140.1892
2014    18      2       0.7009766       138.4539
2014    18      3       0.6409758       130.656
2014    18      4       0.4807614       106.7007
2014    18      5       0.3707396       87.5417
2014    18      6       0.2719078       68.4595
2014    18      7       0.2279381       59.20308
2014    19      0       0.1328318       38.7729
2014    19      1       0.06622609      22.81017
2014    19      2       0.06573353      22.552
2014    19      3       0.0934207       29.42285
2014    19      4       0.1513979       42.77828
2014    19      5       0.1812565       49.30141
2014    19      6       0.2012679       53.60571
2014    19      7       0.2429067       62.57333
2014    20      0       0.220455        58.02134
2014    20      1       0.2783926       69.09709
2014    20      2       0.203327        54.60525
2014    20      3       0.2031213       54.2924
2014    20      4       0.2995343       73.99124
2014    20      5       0.3071493       75.7638
2014    20      6       0.2911489       72.79637
2014    20      7       0.2647562       67.60945
2014    21      0       0.2926773       73.09256
2014    21      1       0.2876551       72.32534
2014    21      2       0.2662476       68.10657
2014    21      3       0.2549626       65.80529
2014    21      4       0.2580611       66.47691
2014    21      5       0.2160109       57.57624
2014    21      6       0.1483948       42.41345
2014    21      7       0.1345816       39.04816
2014    22      0       0.1349297       39.01725
2014    22      1       0.1122993       33.59738
2014    22      2       0.1190974       34.7706
2014    22      3       0.1663518       44.85311
2014    22      4       0.1974912       51.25499
2014    22      5       0.2203821       55.73871
2014    22      6       0.1985687       51.5848
2014    22      7       0.1814603       48.33821
2014    23      0       0.1449225       40.77879
2014    23      1       0.1266095       36.69901
2014    23      2       0.1251047       36.34072
2014    23      3       0.1450281       40.92331
2014    23      4       0.1641142       45.08308
2014    23      5       0.1685741       46.10989
2014    23      6       0.2078536       54.97395
2014    23      7       0.245583        62.91648
2014    24      0       0.2739046       68.75711
2014    24      1       0.2681269       68.01041
2014    24      2       0.2666706       67.87475
2014    24      3       0.2623727       67.07501
2014    24      4       0.2506306       64.92045
2014    24      5       0.2309223       61.08311
2014    24      6       0.2168426       58.28344
2014    24      7       0.2158309       57.94796
2014    25      0       0.1805416       50.03985
2014    25      1       0.156199        44.24046
2014    25      2       0.2082737       55.28138
2014    25      3       0.2846027       71.63597
2014    25      4       0.3732598       89.15826
2014    25      5       0.4452374       102.1341
2014    25      6       0.5118868       113.0556
2014    25      7       0.5399773       117.083
2014    26      0       0.513347        112.6923
2014    26      1       0.4502934       102.2989
2014    26      2       0.6815752       136.7988
2014    26      3       1.360861        202.3348
2014    26      4       1.604672        216.4845
2014    26      5       1.384482        201.9908
2014    26      6       0.5765011       120.6145
2014    26      7       0.1940158       52.28365
2014    27      0       0.1175799       35.2815
2014    27      1       0.1082102       32.99434
2014    27      2       0.1151215       34.57649
2014    27      3       0.1602663       44.78257
2014    27      4       0.2568304       64.79249
2014    27      5       0.2838606       70.01913
2014    27      6       0.2645102       66.19227
2014    27      7       0.277206        68.50419
2014    28      0       0.2968213       72.23972
2014    28      1       0.3079085       74.33059
2014    28      2       0.3017833       73.42443
2014    28      3       0.3212361       77.25919
2014    28      4       0.3359205       80.21053
2014    28      5       0.3369526       80.37821
2014    28      6       0.2785752       69.8145
2014    28      7       0.2182135       57.63785
2014    29      0       0.1457405       41.67973
2014    29      1       0.1611939       45.12548
2014    29      2       0.2195551       57.88284
2014    29      3       0.3705938       87.56256
2014    29      4       0.8576788       156.9052
2014    29      5       0.8643902       157.6076
2014    29      6       0.6808358       135.4484
2014    29      7       0.6531864       131.5041
2014    30      0       0.6603282       132.5203
2014    30      1       0.548811        116.4931
2014    30      2       0.4452234       99.34523
2014    30      3       0.4476174       99.22826
2014    30      4       0.601719        123.7456
2014    30      5       0.6414121       129.7109
2014    30      6       0.6500689       131.0144
2014    30      7       0.4836464       106.3763
2015    1       0       0.9066723       162.0183
2015    1       1       0.8531576       156.387
2015    1       2       0.8413879       154.8602
2015    1       3       0.8390585       154.3695
2015    1       4       1.011478        172.1492
2015    1       5       1.02003         173.0211
2015    1       6       0.9649068       167.8829
2015    1       7       0.8512345       156.1108
2015    2       0       0.8405187       154.7065
2015    2       1       0.8952371       160.544
2015    2       2       0.758099        145.1961
2015    2       3       0.6654672       133.7712
2015    2       4       0.8367947       155.2786
2015    2       5       0.9177397       164.5517
2015    2       6       0.6618638       134.7649
2015    2       7       0.4209183       97.95045
2015    3       0       1.149918        186.4758
2015    3       1       1.625112        218.5256
2015    3       2       0.8382459       157.189
2015    3       3       0.5411083       116.5918
2015    3       4       0.1699722       47.0443
2015    3       5       0.39939         92.12798
2015    3       6       0.4370641       97.94928
2015    3       7       0.4594154       101.7937
2015    4       0       0.7103781       138.002
2015    4       1       0.8293611       152.2006
2015    4       2       0.4760321       103.578
2015    4       3       0.5734196       118.9211
2015    4       4       0.7044351       134.7864
2015    4       5       0.9299004       159.8871
2015    4       6       0.328046        77.97265
2015    4       7       0.09627429      30.11189
2015    5       0       0.08812661      28.03656
2015    5       1       0.09860959      30.40154
2015    5       2       0.1066985       31.96251
2015    5       3       0.1175521       34.33611
2015    5       4       0.1482068       41.06576
2015    5       5       0.183697        48.70245
2015    5       6       0.221635        56.55101
2015    5       7       0.2562278       63.51116
2015    6       0       0.2745832       66.92529
2015    6       1       0.2655753       64.85551
2015    6       2       0.3005053       71.12573
2015    6       3       0.3219919       75.14103
2015    6       4       0.586836        117.6131
2015    6       5       0.6375742       125.3504
2015    6       6       0.4925275       104.7314
2015    6       7       0.2553835       64.04752
2015    7       0       0.31343         75.75764
2015    7       1       0.3733965       86.61588
2015    7       2       0.4284414       95.49299
2015    7       3       0.373322        86.26897
2015    7       4       0.4005751       91.04253
2015    7       5       0.388214        88.93081
2015    7       6       0.3565674       83.11079
2015    7       7       0.2835903       69.45198
2015    8       0       0.3386859       79.65966
2015    8       1       0.3392121       80.36578
2015    8       2       0.2714417       68.06533
2015    8       3       0.2332916       60.47121
2015    8       4       0.211749        56.0886
2015    8       5       0.1642735       45.75923
2015    8       6       0.1223025       36.22961
2015    8       7       0.113881        34.02267
2015    9       0       0.1355966       38.71582
2015    9       1       0.1986356       52.38266
2015    9       2       0.2300817       58.9314
2015    9       3       0.243714        61.90218
2015    9       4       0.353486        83.48575
2015    9       5       0.4574868       101.7003
2015    9       6       0.3040481       74.65897
2015    9       7       0.2225086       58.55268
2015    10      0       0.1906125       51.82275
2015    10      1       0.1756439       48.37542
2015    10      2       0.2032685       53.93662
2015    10      3       0.2906055       71.09336
2015    10      4       0.4852179       105.3141
2015    10      5       0.6436528       128.1347
2015    10      6       0.7081216       136.1819
2015    10      7       0.624002        125.1252
2015    11      0       0.6385324       126.9038
2015    11      1       0.9427033       161.8558
2015    11      2       1.145706        181.1174
2015    11      3       1.042874        172.7933
2015    11      4       1.202779        185.8498
2015    11      5       1.242905        187.9946
2015    11      6       1.072132        174.838
2015    11      7       0.9919033       167.6437
2015    12      0       0.9197254       160.7721
2015    12      1       0.7124256       138.1537
2015    12      2       0.376901        87.81523
2015    12      3       0.2497781       63.04266
2015    12      4       0.3413787       81.26202
2015    12      5       0.2570868       65.20006
2015    12      6       0.2020028       53.71752
2015    12      7       0.2062899       54.69588
2015    13      0       0.2499874       63.80238
2015    13      1       0.3264692       79.00639
2015    13      2       0.3237164       78.73872
2015    13      3       0.2516876       65.0462
2015    13      4       0.2939822       73.3749
2015    13      5       0.3404952       81.97781
2015    13      6       0.3385245       81.60492
2015    13      7       0.3004117       74.06768
2015    14      0       0.2514843       64.13038
2015    14      1       0.2376411       60.6309
2015    14      2       0.2823469       69.01637
2015    14      3       0.2874086       70.18282
2015    14      4       0.3043737       73.20646
2015    14      5       0.3592437       83.21228
2015    14      6       0.382906        87.88577
2015    14      7       0.3504371       82.28972
2015    15      0       0.3198458       76.52869
2015    15      1       0.2680749       66.22348
2015    15      2       0.2479819       62.25713
2015    15      3       0.228334        58.66349
2015    15      4       0.1933352       51.644
2015    15      5       0.1982793       52.68098
2015    15      6       0.2333696       59.54639
2015    15      7       0.2571557       64.39057
2015    16      0       0.2590958       64.8432
2015    16      1       0.3301438       77.9031
2015    16      2       0.3617635       85.18013
2015    16      3       0.491284        107.7073
2015    16      4       0.4372958       98.94787
2015    16      5       0.4297379       96.09413
2015    16      6       0.3876444       89.55788
2015    16      7       0.5553503       115.019
2015    17      0       0.9271896       156.5338
2015    17      1       0.6198369       123.0759
2015    17      2       0.5452085       113.0155
2015    17      3       0.6254674       126.1947
2015    17      4       0.7642126       144.6407
2015    17      5       0.4087421       93.07828
2015    17      6       0.4219448       95.1663
2015    17      7       0.4902026       107.8299
2015    18      0       0.6390755       129.9816
2015    18      1       0.5580806       118.0936
2015    18      2       0.4017736       92.81933
2015    18      3       0.3155245       76.86855
2015    18      4       0.2612021       66.67107
2015    18      5       0.2276499       59.32081
2015    18      6       0.1646761       45.86887
2015    18      7       0.1435915       41.2351
2015    19      0       0.1471638       42.0117
2015    19      1       0.1709588       47.18796
2015    19      2       0.2216748       58.03344
2015    19      3       0.3151556       76.99451
2015    19      4       0.3432895       82.28369
2015    19      5       0.3264936       78.97641
2015    19      6       0.3005247       73.88358
2015    19      7       0.286456        70.99155
2015    20      0       0.2671395       67.10794
2015    20      1       0.2554762       64.87159
2015    20      2       0.2612378       65.94136
2015    20      3       0.2646927       66.59764
2015    20      4       0.2336138       60.91342
2015    20      5       0.2003976       54.3085
2015    20      6       0.1515346       43.58541
2015    20      7       0.1199261       36.06154
2015    21      0       0.1135708       34.45694
2015    21      1       0.1129484       34.32067
2015    21      2       0.1173312       35.32244
2015    21      3       0.126317        37.51763
2015    21      4       0.143382        41.53717
2015    21      5       0.1587905       45.15251
2015    21      6       0.1416529       41.26616
2015    21      7       0.1770007       49.42674
2015    22      0       0.1984801       54.11675
2015    22      1       0.199482        54.12016
2015    22      2       0.1878028       51.41505
2015    22      3       0.1743258       48.34378
2015    22      4       0.1840402       50.4669
2015    22      5       0.1886203       51.44354
2015    22      6       0.1466246       42.05905
2015    22      7       0.1308838       38.41946
2015    23      0       0.1520593       43.22993
2015    23      1       0.1419304       40.95052
2015    23      2       0.1455575       41.78069
2015    23      3       0.1642977       45.83761
2015    23      4       0.1867779       50.63165
2015    23      5       0.1823586       49.51122
2015    23      6       0.1787921       48.59423
2015    23      7       0.1750231       47.93036
2015    24      0       0.1777145       48.80615
2015    24      1       0.1748541       48.05263
2015    24      2       0.1710865       47.19096
2015    24      3       0.1696427       46.85689
2015    24      4       0.2087307       55.56269
2015    24      5       0.2843426       70.93186
2015    24      6       0.2778703       69.5161
2015    24      7       0.3206967       77.73271
2015    25      0       0.3908089       90.19096
2015    25      1       0.4369479       97.7534
2015    25      2       0.4739625       103.3664
2015    25      3       0.7016556       136.0101
2015    25      4       0.9435176       163.1605
2015    25      5       1.083238        176.2257
2015    25      6       0.9617438       165.5095
2015    25      7       0.7995925       148.4683
2015    26      0       0.7711557       145.3215
2015    26      1       0.783844        147.0548
2015    26      2       0.7304865       140.7704
2015    26      3       0.7089284       138.1581
2015    26      4       0.9026147       160.3002
2015    26      5       1.077402        177.0766
2015    26      6       0.9169442       162.1698
2015    26      7       0.89838         160.0517
2015    27      0       0.8577213       154.9603
2015    27      1       0.8654697       156.2504
2015    27      2       1.061185        175.2732
2015    27      3       1.821518        223.7778
2015    27      4       1.540719        210.4327
2015    27      5       1.388336        198.9568
2015    27      6       1.058785        172.9826
2015    27      7       0.5457511       114.8785
2015    28      0       0.3097066       75.94134
2015    28      1       0.3046569       74.73375
2015    28      2       0.2830812       70.65687
2015    28      3       0.2847235       71.57307
2015    28      4       0.2049786       54.7032
2015    28      5       0.1923713       51.69041
2015    28      6       0.2043998       54.1402
2015    28      7       0.2043795       53.71536
2015    29      0       0.188457        49.85538
2015    29      1       0.1715973       46.3348
2015    29      2       0.1950492       50.85364
2015    29      3       0.148255        41.1634
2015    29      4       0.1989263       52.86366
2015    29      5       0.3595158       84.36651
2015    29      6       0.3790908       87.27443
2015    29      7       0.3219046       76.7101
2015    30      0       0.2842539       69.5119
2015    30      1       0.2785684       68.31391
2015    30      2       0.261965        65.05764
2015    30      3       0.2435471       61.29522
2015    30      4       0.2489327       62.55477
2015    30      5       0.2222953       57.16816
2015    30      6       0.2007956       52.25203
2015    30      7       0.2087746       53.87
2016    1       0       0.1498727       42.13318
2016    1       1       0.1338797       37.94928
2016    1       2       0.1589453       43.33069
2016    1       3       0.1988018       51.79921
2016    1       4       0.2298634       58.48398
2016    1       5       0.2525199       63.79343
2016    1       6       0.2986388       73.35613
2016    1       7       0.3921898       90.48302
2016    2       0       0.4251451       96.41599
2016    2       1       0.4453863       99.57756
2016    2       2       0.4325808       97.34581
2016    2       3       0.5058301       109.1776
2016    2       4       0.6612211       131.916
2016    2       5       0.638394        128.4621
2016    2       6       0.6213169       125.7632
2016    2       7       0.7093891       138.1836
2016    3       0       0.780895        147.3083
2016    3       1       0.8365558       153.8669
2016    3       2       0.768854        146.2407
2016    3       3       0.7594286       144.9016
2016    3       4       0.7338847       141.7641
2016    3       5       0.7446442       143.1808
2016    3       6       0.809149        151.1076
2016    3       7       0.7963425       149.8591
2016    4       0       0.6896779       136.628
2016    4       1       0.6551962       131.6878
2016    4       2       0.7077224       138.1229
2016    4       3       0.679524        134.2703
2016    4       4       0.8625133       156.1352
2016    4       5       0.7772286       146.5195
2016    4       6       0.5297821       113.1777
2016    4       7       0.4577791       101.5101
2016    5       0       0.3798241       88.11966
2016    5       1       0.3563892       83.78143
2016    5       2       0.290702        71.10982
2016    5       3       0.3599662       84.36401
2016    5       4       0.4561855       101.3477
2016    5       5       0.3371613       80.86169
2016    5       6       0.1200651       35.46868
2016    5       7       0.1198189       35.46316
2016    6       0       0.1883382       50.63063
2016    6       1       0.2834038       70.40923
2016    6       2       0.287914        72.10095
2016    6       3       0.2615143       67.06656
2016    6       4       0.2631822       67.44321
2016    6       5       0.2574549       66.21609
2016    6       6       0.2346001       61.35422
2016    6       7       0.2556171       65.64852
2016    7       0       0.2020438       54.32292
2016    7       1       0.1803065       49.40728
2016    7       2       0.188176        50.94016
2016    7       3       0.2007273       53.41286
2016    7       4       0.2329666       60.13168
2016    7       5       0.2912313       71.84241
2016    7       6       0.2896823       71.33341
2016    7       7       0.2524025       63.52949
2016    8       0       0.2579503       64.3364
2016    8       1       0.2902057       70.49373
2016    8       2       0.3076516       73.81387
2016    8       3       0.3005975       72.66597
2016    8       4       0.2605966       64.53315
2016    8       5       0.3045557       73.15342
2016    8       6       0.3496205       81.7581
2016    8       7       0.4111113       92.18997
2016    9       0       0.4765625       104.5301
2016    9       1       0.5867221       121.4774
2016    9       2       0.7292609       141.3272
2016    9       3       0.7459          144.0651
2016    9       4       0.7964363       150.7096
2016    9       5       0.6126845       127.0492
2016    9       6       0.5699053       119.7906
2016    9       7       0.6663063       132.3984
2016    10      0       0.616217        125.0993
2016    10      1       0.8576445       155.0668
2016    10      2       1.300893        195.3507
2016    10      3       1.82563         224.7355
2016    10      4       1.703364        220.7377
2016    10      5       1.27136         195.424
2016    10      6       1.13433         183.3423
2016    10      7       1.305094        195.8647
2016    11      0       0.5289153       113.1081
2016    11      1       0.1723668       47.25604
2016    11      2       0.08182846      26.3484
2016    11      3       0.06778549      22.79153
2016    11      4       0.09883669      29.92243
2016    11      5       0.18278         47.82104
2016    11      6       0.1312425       37.36119
2016    11      7       0.1370227       38.03876
2016    12      0       0.1330414       37.16572
2016    12      1       0.1361884       37.82465
2016    12      2       0.1520465       41.05064
2016    12      3       0.167608        44.22759
2016    12      4       0.1794006       46.78784
2016    12      5       0.2178677       54.9709
2016    12      6       0.3363487       77.40917
2016    12      7       0.8135729       146.6306
2016    13      0       1.358636        195.7007
2016    13      1       1.339367        194.687
2016    13      2       0.5544305       115.728
2016    13      3       0.3323243       78.61583
2016    13      4       0.324531        77.56775
2016    13      5       0.3222897       77.17277
2016    13      6       0.3822522       87.14439
2016    13      7       0.5273505       110.1622
2016    14      0       0.8697359       153.129
2016    14      1       1.248068        188.7719
2016    14      2       1.46232         204.9266
2016    14      3       1.293355        195.0336
2016    14      4       1.050425        175.6937
2016    14      5       1.310039        195.79
2016    14      6       1.419195        203.7012
2016    14      7       1.127148        182.7254
2016    15      0       1.165798        185.7205
2016    15      1       0.8239714       152.3182
2016    15      2       0.7245747       139.6216
2016    15      3       0.6264278       126.1482
2016    15      4       0.5225629       110.714
2016    15      5       0.8252261       151.0172
2016    15      6       0.7781283       146.7875
2016    15      7       0.7365509       142.1567
2016    16      0       0.5372836       114.133
2016    16      1       0.2622378       65.74617
2016    16      2       0.2665898       66.77833
2016    16      3       0.2994551       72.66608
2016    16      4       0.3038996       73.44431
2016    16      5       0.278317        68.83689
2016    16      6       0.2722707       67.81775
2016    16      7       0.2593643       65.41095
2016    17      0       0.2580926       65.11151
2016    17      1       0.2529808       64.18472
2016    17      2       0.2605386       65.81682
2016    17      3       0.2648939       66.96063
2016    17      4       0.3100351       76.20949
2016    17      5       0.3538249       84.34794
2016    17      6       0.3041966       74.99975
2016    17      7       0.2301786       60.01074
2016    18      0       0.180916        49.39271
2016    18      1       0.2141248       56.03965
2016    18      2       0.24723         62.88669
2016    18      3       0.2728377       68.11875
2016    18      4       0.3522968       83.68446
2016    18      5       0.5111653       110.6295
2016    18      6       0.469409        103.9998
2016    18      7       0.471192        104.4878
2016    19      0       0.2811996       70.10383
2016    19      1       0.2200605       57.54116
2016    19      2       0.2353605       60.71017
2016    19      3       0.2501978       63.85465
2016    19      4       0.2696816       67.91073
2016    19      5       0.2731517       68.34701
2016    19      6       0.2846758       70.44082
2016    19      7       0.2775205       69.09783
2016    20      0       0.3020412       74.01033
2016    20      1       0.292168        71.90106
2016    20      2       0.3254298       78.16375
2016    20      3       0.4343751       98.04845
2016    20      4       0.3463767       83.06182
2016    20      5       0.3139634       76.8917
2016    20      6       0.3251886       78.5881
2016    20      7       0.3458934       80.68068
2016    21      0       0.384609        87.95512
2016    21      1       0.3414564       81.07494
2016    21      2       0.1910179       51.51024
2016    21      3       0.116785        34.30241
2016    21      4       0.1697737       45.99233
2016    21      5       0.1537391       42.70377
2016    21      6       0.1739833       46.482
2016    21      7       0.2269244       56.98848
2016    22      0       0.2552302       62.36347
2016    22      1       0.2568835       62.51721
2016    22      2       0.2570261       63.05119
2016    22      3       0.2806669       68.27356
2016    22      4       0.3586185       83.26778
2016    22      5       0.3955544       90.07792
2016    22      6       0.3446029       81.29722
2016    22      7       0.2898061       71.21023
2016    23      0       0.2601529       65.45561
2016    23      1       0.2438948       62.14778
2016    23      2       0.2213576       57.80203
2016    23      3       0.1931148       52.16736
2016    23      4       0.1792253       49.45709
2016    23      5       0.1756419       48.48164
2016    23      6       0.1455543       41.72219
2016    23      7       0.1302127       38.12123
2016    24      0       0.1133149       34.06791
2016    24      1       0.1028257       31.43991
2016    24      2       0.09970045      30.39427
2016    24      3       0.1124482       33.24312
2016    24      4       0.1319442       37.75038
2016    24      5       0.1590068       43.71518
2016    24      6       0.1652262       44.96979
2016    24      7       0.1899738       50.2693
2016    25      0       0.188664        49.9467
2016    25      1       0.1457712       41.08689
2016    25      2       0.1840815       48.89675
2016    25      3       0.2057879       53.68435
2016    25      4       0.1663831       45.69477
2016    25      5       0.178793        48.44705
2016    25      6       0.1818024       48.96168
2016    25      7       0.1894043       50.30414
2016    26      0       0.1984335       52.18861
2016    26      1       0.2309776       58.20423
2016    26      2       0.2408537       60.34668
2016    26      3       0.4849883       102.3023
2016    26      4       0.2192279       56.68127
2016    26      5       0.2317539       58.98508
2016    26      6       0.2361526       60.03048
2016    26      7       0.2909173       70.09232
2016    27      0       0.2469998       61.09573
2016    27      1       0.1813202       47.67036
2016    27      2       0.129245        37.00756
2016    27      3       0.129787        37.96551
2016    27      4       0.1144584       34.59454
2016    27      5       0.1091044       33.27203
2016    27      6       0.1109376       33.57601
2016    27      7       0.1480951       42.48183
2016    28      0       0.2535186       65.63436
2016    28      1       0.2902219       72.94797
2016    28      2       0.2305595       60.59401
2016    28      3       0.1923004       52.13352
2016    28      4       0.2060975       55.1235
2016    28      5       0.1880146       51.28035
2016    28      6       0.1487611       42.35483
2016    28      7       0.1234731       36.56321
2016    29      0       0.1379961       40.05247
2016    29      1       0.1446407       41.49634
2016    29      2       0.1368742       39.66739
2016    29      3       0.1248926       36.87072
2016    29      4       0.1167988       34.90846
2016    29      5       0.11734         35.08255
2016    29      6       0.1206563       35.94401
2016    29      7       0.1114474       33.66526
2016    30      0       0.1108799       33.53528
2016    30      1       0.1164126       34.94682
2016    30      2       0.1266348       37.32078
2016    30      3       0.1478273       42.26546
2016    30      4       0.1405671       40.61167
2016    30      5       0.1209798       36.02577
2016    30      6       0.1117804       33.88149
2016    30      7       0.0925637       29.06011
2017    1       0       0.2477778       64.152
2017    1       1       0.2636254       67.14703
2017    1       2       0.2744742       69.16434
2017    1       3       0.2551707       65.29115
2017    1       4       0.3076562       75.82064
2017    1       5       0.325224        79.10441
2017    1       6       0.3952103       91.92514
2017    1       7       0.6088433       126.3525
2017    2       0       0.7985231       150.6572
2017    2       1       0.8936326       161.2887
2017    2       2       0.9894224       171.2213
2017    2       3       0.9927409       171.7133
2017    2       4       0.9413471       166.7998
2017    2       5       0.7752535       148.719
2017    2       6       0.5743505       122.2227
2017    2       7       0.4816146       107.7451
2017    3       0       0.3750427       89.49107
2017    3       1       0.3029048       75.96592
2017    3       2       0.2470841       64.65015
2017    3       3       0.2163321       58.21749
2017    3       4       0.1944616       53.20947
2017    3       5       0.2012067       54.48744
2017    3       6       0.208077        55.57333
2017    3       7       0.206771        55.25365
2017    4       0       0.2098368       55.87071
2017    4       1       0.2406303       62.45723
2017    4       2       0.2603419       66.56012
2017    4       3       0.2446134       63.60881
2017    4       4       0.3206528       79.28852
2017    4       5       0.474059        106.2144
2017    4       6       0.3499228       84.62101
2017    4       7       0.2305769       61.12824
2017    5       0       0.1980236       53.69605
2017    5       1       0.2304425       60.15069
2017    5       2       0.2534603       64.49223
2017    5       3       0.2926877       71.75498
2017    5       4       0.3546187       83.52396
2017    5       5       0.3754049       86.7954
2017    5       6       0.3120588       74.90246
2017    5       7       0.2225496       57.37103
2017    6       0       0.2008046       53.22121
2017    6       1       0.164682        45.83576
2017    6       2       0.1614798       45.22412
2017    6       3       0.1586346       44.44657
2017    6       4       0.1898556       51.33256
2017    6       5       0.2224896       58.3546
2017    6       6       0.2706216       68.37706
2017    6       7       0.3011143       74.82214
2017    7       0       0.2793836       70.44098
2017    7       1       0.3080036       76.87931
2017    7       2       0.3519948       86.23985
2017    7       3       0.3637379       88.46934
2017    7       4       0.3474804       85.049
2017    7       5       0.2695712       68.95112
2017    7       6       0.1754034       47.96637
2017    7       7       0.1418781       40.23015
2017    8       0       0.1841522       48.79072
2017    8       1       0.08999086      28.50152
2017    8       2       0.1143665       34.27387
2017    8       3       0.1437701       40.80469
2017    8       4       0.2582          64.81136
2017    8       5       0.2485247       62.51028
2017    8       6       0.1278963       37.10198
2017    8       7       0.1367824       38.42276
2017    9       0       0.1783663       47.79771
2017    9       1       0.2133474       55.46742
2017    9       2       0.4247413       94.86362
2017    9       3       0.7490329       142.0773
2017    9       4       0.6333987       127.9366
2017    9       5       0.4652696       102.5578
2017    9       6       0.3029961       73.07934
2017    9       7       0.2071699       54.24446
2017    10      0       0.2626954       64.3781
2017    10      1       0.2452586       61.14846
2017    10      2       0.154565        42.79214
2017    10      3       0.1170009       34.28244
2017    10      4       0.1441543       40.76802
2017    10      5       0.2864428       72.03024
2017    10      6       0.8080963       152.9543
2017    10      7       0.8331774       155.0632
2017    11      0       0.7588474       144.3242
2017    11      1       0.6637746       132.5825
2017    11      2       0.3666514       86.24915
2017    11      3       0.2851685       70.84975
2017    11      4       0.2815401       69.24733
2017    11      5       0.4046271       90.94821
2017    11      6       0.9176533       161.5533
2017    11      7       1.292603        196.6731
2017    12      0       1.35641         201.8025
2017    12      1       1.465047        208.353
2017    12      2       1.640416        216.9156
2017    12      3       1.436865        205.5605
2017    12      4       1.284013        195.9267
2017    12      5       0.9157879       163.0776
2017    12      6       0.7948886       150.3973
2017    12      7       0.7260297       142.5652
2017    13      0       0.5737999       121.6915
2017    13      1       0.596876        125.335
2017    13      2       0.4664926       104.991
2017    13      3       0.2703104       68.84051
2017    13      4       0.3051922       75.89252
2017    13      5       0.5702455       121.0413
2017    13      6       0.7238856       142.0918
2017    13      7       0.6877583       137.5044
2017    14      0       0.7127444       140.3305
2017    14      1       0.7114661       139.0725
2017    14      2       0.7114899       138.739
2017    14      3       0.6475473       130.5341
2017    14      4       0.7193481       140.2242
2017    14      5       0.6535609       131.7255
2017    14      6       0.6761127       134.9283
2017    14      7       0.8272913       154.2415
2017    15      0       0.9955302       171.7614
2017    15      1       0.8592684       157.4769
2017    15      2       0.4742635       105.5032
2017    15      3       0.2373846       61.91576
2017    15      4       0.277667        69.78704
2017    15      5       0.1118556       33.87926
2017    15      6       0.08436672      27.21042
2017    15      7       0.08302129      26.68697
2017    16      0       0.09764728      30.1829
2017    16      1       0.1181649       35.03123
2017    16      2       0.142214        40.47364
2017    16      3       0.149335        42.26632
2017    16      4       0.1333699       38.80062
2017    16      5       0.1196175       35.42603
2017    16      6       0.1380595       39.05294
2017    16      7       0.155034        42.78036
2017    17      0       0.1342481       37.98692
2017    17      1       0.1163314       34.06283
2017    17      2       0.1422126       40.41587
2017    17      3       0.1821126       49.46375
2017    17      4       0.372167        87.4074
2017    17      5       0.5873318       121.5572
2017    17      6       0.434882        96.8354
2017    17      7       0.2232381       57.32269
2017    18      0       0.1535366       42.67401
2017    18      1       0.1312059       37.58299
2017    18      2       0.1408306       39.68441
2017    18      3       0.2437037       61.82704
2017    18      4       0.5479782       115.1389
2017    18      5       0.6502123       129.5758
2017    18      6       0.6469715       129.248
2017    18      7       0.5822178       120.0639
2017    19      0       0.634936        127.2187
2017    19      1       0.818293        150.3832
2017    19      2       0.9030035       160.223
2017    19      3       1.06615         175.5421
2017    19      4       1.201378        187.9388
2017    19      5       1.039877        175.4913
2017    19      6       0.9400858       166.3282
2017    19      7       0.6961606       138.4123
2017    20      0       0.6432734       131.0905
2017    20      1       0.534967        114.9925
2017    20      2       0.4626474       103.3133
2017    20      3       0.3937179       91.41357
2017    20      4       0.4522964       100.8688
2017    20      5       0.4876629       105.7874
2017    20      6       0.3899111       89.44682
2017    20      7       0.2063948       55.24017
2017    21      0       0.1458063       41.72349
2017    21      1       0.1578923       44.28
2017    21      2       0.1689071       46.42865
2017    21      3       0.1828537       49.06144
2017    21      4       0.2172074       56.40396
2017    21      5       0.2646914       66.70156
2017    21      6       0.3097933       75.44669
2017    21      7       0.2967066       72.59975
2017    22      0       0.273896        67.60568
2017    22      1       0.1923033       50.96537
2017    22      2       0.1665559       46.00507
2017    22      3       0.1653079       45.89499
2017    22      4       0.1714657       47.1596
2017    22      5       0.1652535       45.88128
2017    22      6       0.2187746       57.60749
2017    22      7       0.291694        72.52871
2017    23      0       0.4170167       95.32094
2017    23      1       0.1783194       48.71889
2017    23      2       0.07134671      23.77646
2017    23      3       0.0681259       22.95332
2017    23      4       0.08377499      26.75512
2017    23      5       0.1103444       33.03488
2017    23      6       0.1385189       39.46278
2017    23      7       0.1897775       50.70591
2017    24      0       0.1910272       50.94492
2017    24      1       0.1743848       47.46359
2017    24      2       0.2050523       54.3784
2017    24      3       0.2324627       60.31563
2017    24      4       0.2382642       61.63858
2017    24      5       0.2370156       61.07053
2017    24      6       0.2475845       63.3044
2017    24      7       0.2300098       59.64013
2017    25      0       0.2130733       55.98104
2017    25      1       0.2069137       54.60024
2017    25      2       0.185697        49.94471
2017    25      3       0.1770407       47.83047
2017    25      4       0.1629722       44.80065
2017    25      5       0.2017063       53.56889
2017    25      6       0.148067        41.65221
2017    25      7       0.1570789       43.74495
2017    26      0       0.1704256       46.67304
2017    26      1       0.1639749       45.13689
2017    26      2       0.1406875       39.88963
2017    26      3       0.13084         37.60211
2017    26      4       0.1622954       44.8282
2017    26      5       0.1506708       42.58968
2017    26      6       0.1552935       43.75104
2017    26      7       0.2178061       57.38867
2017    27      0       0.3655608       86.63596
2017    27      1       0.6059571       125.3452
2017    27      2       0.4002779       92.79281
2017    27      3       0.6838852       134.9346
2017    27      4       1.193978        186.9372
2017    27      5       0.9146731       161.8385
2017    27      6       1.223694        189.7881
2017    27      7       1.353464        199.4727
2017    28      0       0.8580355       157.46
2017    28      1       1.416377        204.4964
2017    28      2       0.6753509       135.5754
2017    28      3       0.3304118       80.34467
2017    28      4       0.3483001       83.50906
2017    28      5       0.1917944       52.15066
2017    28      6       0.1923924       51.92885
2017    28      7       0.141451        40.81689
2017    29      0       0.1383708       39.86579
2017    29      1       0.1869689       50.47737
2017    29      2       0.3032497       74.50928
2017    29      3       0.3708686       87.95193
2017    29      4       0.3339058       81.30309
2017    29      5       0.2663634       68.02392
2017    29      6       0.1800909       49.72326
2017    29      7       0.1599418       45.05801
2017    30      0       0.1099729       33.4075
2017    30      1       0.09982266      30.93474
2017    30      2       0.1146595       34.48223
2017    30      3       0.1272568       37.36261
2017    30      4       0.2888016       72.28924
2017    30      5       0.7646155       146.2391
2017    30      6       0.932402        164.7368
2017    30      7       1.270875        194.5526
2018    1       0       0.2596048       66.24991
2018    1       1       0.2727899       69.29623
2018    1       2       0.2189284       57.90063
2018    1       3       0.232743        61.02493
2018    1       4       0.2566996       65.80662
2018    1       5       0.3739049       87.93665
2018    1       6       0.4235694       96.57008
2018    1       7       0.4045364       93.61055
2018    2       0       0.433142        98.60299
2018    2       1       0.4435482       100.5393
2018    2       2       0.4401868       100.2767
2018    2       3       0.3393617       82.61707
2018    2       4       0.2160663       57.96614
2018    2       5       0.1708264       47.61802
2018    2       6       0.1560376       43.66648
2018    2       7       0.162051        44.67364
2018    3       0       0.1578963       43.71941
2018    3       1       0.165803        45.61857
2018    3       2       0.1924457       51.42869
2018    3       3       0.1930828       51.74599
2018    3       4       0.1714519       46.93039
2018    3       5       0.4229693       94.94602
2018    3       6       0.4675878       102.5472
2018    3       7       0.2147          56.70712
2018    4       0       0.1439769       40.6394
2018    4       1       0.1940746       51.3232
2018    4       2       0.2091019       54.89513
2018    4       3       0.2563638       64.441
2018    4       4       0.3103522       75.35469
2018    4       5       0.3772541       87.76688
2018    4       6       0.4726241       104.0014
2018    4       7       0.5684898       119.1969
2018    5       0       0.5277912       113.7331
2018    5       1       0.5453168       116.1303
2018    5       2       0.5261964       113.3374
2018    5       3       0.4966674       108.9646
2018    5       4       0.4912066       108.0867
2018    5       5       0.502638        109.897
2018    5       6       0.4754232       105.541
2018    5       7       0.4294039       97.86911
2018    6       0       0.3854755       90.11371
2018    6       1       0.3217931       78.38519
2018    6       2       0.287314        71.79374
2018    6       3       0.2698899       68.42088
2018    6       4       0.2594277       66.37223
2018    6       5       0.2482664       64.06773
2018    6       6       0.2376753       61.85798
2018    6       7       0.2288258       60.07683
2018    7       0       0.1927309       52.49978
2018    7       1       0.1619734       45.71473
2018    7       2       0.1531217       43.27955
2018    7       3       0.1952025       52.12883
2018    7       4       0.2245002       57.74217
2018    7       5       0.3287573       77.99197
2018    7       6       0.3212888       76.32874
2018    7       7       0.3256021       76.49051
2018    8       0       0.3414246       80.73774
2018    8       1       0.3263826       77.88663
2018    8       2       0.2876568       69.75008
2018    8       3       0.3400178       80.04993
2018    8       4       0.3796701       87.5095
2018    8       5       0.3694473       85.74931
2018    8       6       0.3487317       81.25121
2018    8       7       0.2480458       62.9224
2018    9       0       0.2138096       55.79865
2018    9       1       0.209546        54.66968
2018    9       2       0.22266         57.67375
2018    9       3       0.1893592       50.39771
2018    9       4       0.1964299       51.405
2018    9       5       0.1927765       51.07736
2018    9       6       0.1958078       51.55925
2018    9       7       0.2062602       53.75173
2018    10      0       0.2466752       62.3925
2018    10      1       0.2686685       66.91842
2018    10      2       0.2787738       69.05152
2018    10      3       0.3153221       76.00761
2018    10      4       0.3919018       89.98397
2018    10      5       0.4769889       104.3715
2018    10      6       0.3715322       86.80151
2018    10      7       0.2007026       53.95134
2018    11      0       0.1417814       41.01253
2018    11      1       0.09639631      30.12356
2018    11      2       0.1219933       35.94898
2018    11      3       0.1462908       41.66673
2018    11      4       0.1845924       50.15248
2018    11      5       0.2191512       57.60364
2018    11      6       0.2328574       60.49012
2018    11      7       0.2415324       62.30793
2018    12      0       0.2304839       60.02849
2018    12      1       0.2165404       57.16676
2018    12      2       0.2185844       57.73067
2018    12      3       0.2124669       56.56133
2018    12      4       0.1829777       50.18087
2018    12      5       0.1682328       46.98607
2018    12      6       0.1614491       45.45612
2018    12      7       0.1690326       46.89039
2018    13      0       0.1777554       48.27108
2018    13      1       0.1656526       45.8152
2018    13      2       0.189058        50.99122
2018    13      3       0.2185001       57.55637
2018    13      4       0.2173901       57.8302
2018    13      5       0.2214446       58.83287
2018    13      6       0.1981185       53.56373
2018    13      7       0.1828091       49.87916
2018    14      0       0.1915436       51.47999
2018    14      1       0.1910057       51.19831
2018    14      2       0.1806903       49.12524
2018    14      3       0.1749835       48.33128
2018    14      4       0.1608599       46.32642
2018    14      5       0.1605384       46.27113
2018    14      6       0.205401        55.60898
2018    14      7       0.2765986       70.64075
2018    15      0       0.3502769       84.13773
2018    15      1       0.3786227       88.9287
2018    15      2       0.4599035       103.849
2018    15      3       0.3921102       92.21972
2018    15      4       0.31659         78.07837
2018    15      5       0.2303948       60.55963
2018    15      6       0.2778985       69.09135
2018    15      7       0.2128779       56.36001
2018    16      0       0.1508775       43.21177
2018    16      1       0.1205939       35.31391
2018    16      2       0.1166188       34.40474
2018    16      3       0.1965073       51.33501
2018    16      4       0.1967161       51.93354
2018    16      5       0.272974        67.52836
2018    16      6       0.4686915       103.5441
2018    16      7       0.907136        164.1154
2018    17      0       0.9126326       165.3688
2018    17      1       0.9532556       169.0474
2018    17      2       1.004689        174.6054
2018    17      3       0.8694312       160.7224
2018    17      4       0.5654443       120.8741
2018    17      5       0.6221102       128.8743
2018    17      6       0.7392417       145.4155
2018    17      7       0.6469695       133.3163
2018    18      0       0.4116933       95.58244
2018    18      1       0.4279557       98.74508
2018    18      2       0.4265535       98.76957
2018    18      3       0.4802018       107.7431
2018    18      4       0.5917084       124.913
2018    18      5       0.6266934       129.9312
2018    18      6       0.5566873       119.7529
2018    18      7       0.4951294       110.3078
2018    19      0       0.4891082       109.2283
2018    19      1       0.5830647       123.6543
2018    19      2       0.6275713       129.9537
2018    19      3       0.6474566       132.2943
2018    19      4       0.7403389       144.2785
2018    19      5       0.8650259       158.6289
2018    19      6       0.8552933       157.2455
2018    19      7       0.6827552       136.3128
2018    20      0       0.5055629       110.432
2018    20      1       0.4111176       94.60251
2018    20      2       0.3429873       82.4266
2018    20      3       0.351741        84.25675
2018    20      4       0.4803335       106.4898
2018    20      5       0.4659983       104.2393
2018    20      6       0.3098214       76.65855
2018    20      7       0.2335402       61.12913
2018    21      0       0.3068419       75.63519
2018    21      1       0.3771616       88.94819
2018    21      2       0.4323223       98.9314
2018    21      3       0.4415147       100.6163
2018    21      4       0.5437115       117.109
2018    21      5       0.5394752       116.3148
2018    21      6       0.4563679       102.8645
2018    21      7       0.3563854       85.01651
2018    22      0       0.2242212       58.94364
2018    22      1       0.1663118       46.28579
2018    22      2       0.1344792       39.15071
2018    22      3       0.09701519      30.6096
2018    22      4       0.1490153       42.8493
2018    22      5       0.1733165       48.20207
2018    22      6       0.1621217       45.4627
2018    22      7       0.1526023       43.23749
2018    23      0       0.1387243       40.111
2018    23      1       0.1226342       36.57202
2018    23      2       0.1516574       43.27242
2018    23      3       0.1734021       48.12903
2018    23      4       0.1966795       53.15629
2018    23      5       0.2037196       55.00835
2018    23      6       0.2345164       61.34405
2018    23      7       0.2083142       54.12717
2018    24      0       0.1975593       52.31451
2018    24      1       0.1732008       47.5457
2018    24      2       0.1872615       50.73516
2018    24      3       0.2055438       54.59333
2018    24      4       0.196416        52.7018
2018    24      5       0.186497        50.33677
2018    24      6       0.2144693       56.3577
2018    24      7       0.209407        55.31045
2018    25      0       0.1604778       44.73761
2018    25      1       0.1481302       41.58531
2018    25      2       0.168327        45.66302
2018    25      3       0.1955887       51.10283
2018    25      4       0.2554225       63.8713
2018    25      5       0.3184898       76.56676
2018    25      6       0.2883022       71.06908
2018    25      7       0.3115865       75.89303
2018    26      0       0.3590164       84.95574
2018    26      1       0.3178143       77.28546
2018    26      2       0.2861481       71.20883
2018    26      3       0.3043523       74.91522
2018    26      4       0.4176465       95.5653
2018    26      5       0.4813198       106.1045
2018    26      6       0.4478425       100.4752
2018    26      7       0.3616394       85.28011
2018    27      0       0.5038342       109.2868
2018    27      1       0.6133678       125.3669
2018    27      2       0.6424516       129.4925
2018    27      3       0.8145323       151.0868
2018    27      4       1.065516        176.2054
2018    27      5       1.184914        186.062
2018    27      6       1.022888        171.9912
2018    27      7       0.550159        116.0024
2018    28      0       0.281606        69.42468
2018    28      1       0.22849         58.30381
2018    28      2       0.2897378       69.14718
2018    28      3       0.3815281       85.83207
2018    28      4       0.6940473       133.2891
2018    28      5       0.7130493       136.2594
2018    28      6       0.7094493       135.6769
2018    28      7       0.9126764       157.9293
2018    29      0       0.990992        166.3403
2018    29      1       1.185889        184.5962
2018    29      2       0.8287201       152.0481
2018    29      3       0.5889462       122.0814
2018    29      4       0.7465788       142.6452
2018    29      5       0.7916011       147.4963
2018    29      6       0.9554845       165.193
2018    29      7       1.000172        171.1797
2018    30      0       0.8173782       151.7215
2018    30      1       0.8586705       156.4874
2018    30      2       0.8299147       153.6299
2018    30      3       0.4350563       98.75351
2018    30      4       0.2207354       58.20299
2018    30      5       0.1786874       49.24265
2018    30      6       0.1242375       36.96199
2018    30      7       0.1008909       31.21588
