####################################################################################################
# Month: 06Jun                                                                                     #
# Station: FUJI                                                                                    #
# Frequency: 345 GHz                                                                               #
# Columns are: year    day     segment         tau     Tb (K)                                      #
####################################################################################################
2009    1       0       0.1090838       33.05037
2009    1       1       0.1279099       37.37934
2009    1       2       0.4052171       92.10562
2009    1       3       0.2146207       56.28944
2009    1       4       0.1367213       39.37493
2009    1       5       0.3361345       80.0558
2009    1       6       0.2305339       59.5311
2009    1       7       0.2186686       56.97597
2009    2       0       0.2498206       62.88648
2009    2       1       0.3075392       72.83579
2009    2       2       0.3633345       82.78405
2009    2       3       0.4856238       102.7465
2009    2       4       0.5915684       117.8966
2009    2       5       0.9323006       158.5513
2009    2       6       0.9293683       158.7087
2009    2       7       1.175413        180.5982
2009    3       0       1.402558        198.1946
2009    3       1       1.566414        209.3575
2009    3       2       1.759576        219.5899
2009    3       3       1.71047         217.6837
2009    3       4       1.523837        207.8499
2009    3       5       1.2719          191.2289
2009    3       6       0.8095239       149.0085
2009    3       7       1.101162        177.3169
2009    4       0       1.07313         175.4742
2009    4       1       0.6524559       128.9918
2009    4       2       0.3695514       85.22083
2009    4       3       0.3427474       80.26084
2009    4       4       0.349563        80.32138
2009    4       5       0.5635735       113.9856
2009    4       6       1.036833        170.3343
2009    4       7       1.493383        205.1826
2009    5       0       1.758667        219.8693
2009    5       1       1.899047        226.5428
2009    5       2       1.985056        230.1576
2009    5       3       1.953025        229.3197
2009    5       4       2.08904         235.1461
2009    5       5       2.123069        236.2427
2009    5       6       1.483945        208.4109
2009    5       7       1.885311        227.3691
2009    6       0       1.840502        227.4966
2009    6       1       0.8684939       158.4657
2009    6       2       0.9146975       162.9648
2009    6       3       0.2625282       66.9954
2009    6       4       0.331418        79.98029
2009    6       5       0.4352574       98.25343
2009    6       6       0.3115365       75.98649
2009    6       7       0.1342537       39.08174
2009    7       0       0.07760638      25.66937
2009    7       1       0.09313089      29.36504
2009    7       2       0.09583465      30.04404
2009    7       3       0.09785889      30.34553
2009    7       4       0.1050766       31.49201
2009    7       5       0.1218786       34.90531
2009    7       6       0.1385033       38.38643
2009    7       7       0.2167905       55.4042
2009    8       0       0.3335236       78.16499
2009    8       1       0.3622741       84.75758
2009    8       2       0.3750137       86.84893
2009    8       3       0.3263092       78.2199
2009    8       4       0.2306478       58.59587
2009    8       5       0.2762719       66.86382
2009    8       6       0.4947545       103.8891
2009    8       7       0.3971077       88.45431
2009    9       0       0.5568459       113.9112
2009    9       1       1.139155        179.3073
2009    9       2       1.081295        174.5303
2009    9       3       1.282505        190.6292
2009    9       4       1.222281        187.845
2009    9       5       1.195959        186.3009
2009    9       6       1.277282        192.4418
2009    9       7       1.430753        202.649
2009    10      0       1.506872        208.0315
2009    10      1       1.504788        208.6402
2009    10      2       1.490714        208.1619
2009    10      3       1.636163        216.3386
2009    10      4       1.792993        224.2005
2009    10      5       1.953236        229.9842
2009    10      6       2.073799        234.5095
2009    10      7       2.24742         241.5406
2009    11      0       1.271203        192.5901
2009    11      1       0.5077997       106.9949
2009    11      2       0.1360392       38.17712
2009    11      3       0.08686304      27.23136
2009    11      4       0.09702305      30.05759
2009    11      5       0.1641369       44.16968
2009    11      6       0.1913678       49.7636
2009    11      7       0.2198677       55.56342
2009    12      0       0.4064268       88.85979
2009    12      1       0.626268        122.6989
2009    12      2       0.5955929       119.4029
2009    12      3       0.7624687       142.1624
2009    12      4       0.7633443       141.9419
2009    12      5       0.7994099       146.1278
2009    12      6       0.9664612       165.031
2009    12      7       1.062986        174.0957
2009    13      0       1.038864        171.1641
2009    13      1       0.8092526       147.8618
2009    13      2       0.8746235       155.6305
2009    13      3       0.9031563       159.1189
2009    13      4       0.8562078       153.9703
2009    13      5       1.088051        175.7611
2009    13      6       1.100375        176.4426
2009    13      7       1.365357        197.7457
2009    14      0       0.9882052       166.824
2009    14      1       0.6232712       125.0827
2009    14      2       0.6812309       133.5477
2009    14      3       0.3778929       87.04768
2009    14      4       0.3001832       72.46237
2009    14      5       0.3229617       76.97456
2009    14      6       0.2658946       66.31266
2009    14      7       0.2301491       59.07029
2009    15      0       0.2647269       65.96361
2009    15      1       0.4191884       94.01532
2009    15      2       0.8153057       149.788
2009    15      3       0.8629116       155.5568
2009    15      4       0.9095805       159.8893
2009    15      5       0.9606062       164.2138
2009    15      6       0.9087177       158.5544
2009    15      7       0.7762343       144.3125
2009    16      0       0.6778685       132.417
2009    16      1       0.7875818       145.677
2009    16      2       0.999371        167.2357
2009    16      3       0.8623056       154.0446
2009    16      4       0.823882        148.9506
2009    16      5       1.059719        172.8628
2009    16      6       0.7349381       138.5985
2009    16      7       0.4456267       97.33565
2009    17      0       0.295631        71.67399
2009    17      1       0.4591951       99.9015
2009    17      2       0.4938201       105.2947
2009    17      3       0.6489509       127.7628
2009    17      4       0.8944817       157.548
2009    17      5       1.097302        177.2244
2009    17      6       0.879316        156.368
2009    17      7       0.8244171       149.5634
2009    18      0       1.127239        178.8027
2009    18      1       1.287607        190.4029
2009    18      2       1.456023        201.8217
2009    18      3       1.061186        175.8782
2009    18      4       0.8939731       159.6938
2009    18      5       0.6219797       126.9638
2009    18      6       0.3036372       74.74245
2009    18      7       0.1824096       49.77867
2009    19      0       0.2063874       53.831
2009    19      1       0.267422        66.19118
2009    19      2       0.2912699       71.25265
2009    19      3       0.3602922       83.32647
2009    19      4       0.4036929       90.47826
2009    19      5       0.3271644       77.87631
2009    19      6       0.374024        86.13189
2009    19      7       0.4313628       95.34988
2009    20      0       0.488659        104.9511
2009    20      1       0.5524853       114.252
2009    20      2       0.4124721       91.83542
2009    20      3       0.385335        87.63526
2009    20      4       0.5169867       111.7043
2009    20      5       0.7834837       147.9771
2009    20      6       1.252841        193.6449
2009    20      7       1.392441        202.9284
2009    21      0       2.352781        245.5344
2009    21      1       2.825239        256.526
2009    21      2       1.929839        233.7807
2009    21      3       1.522584        214.0477
2009    21      4       1.178083        189.7696
2009    21      5       0.9432029       167.1593
2009    21      6       1.031314        174.5736
2009    21      7       1.447773        207.4993
2009    22      0       1.623523        217.9014
2009    22      1       2.659281        252.7026
2009    22      2       2.371801        247.3193
2009    22      3       1.548023        214.1959
2009    22      4       2.482662        249.6228
2009    22      5       2.15172         241.8629
2009    22      6       2.572799        253.2252
2009    22      7       2.460331        248.9756
2009    23      0       2.014628        233.447
2009    23      1       0.4495155       98.33877
2009    23      2       0.1991659       51.41435
2009    23      3       0.4644815       99.31621
2009    23      4       1.023584        171.2623
2009    23      5       1.450463        205.5272
2009    23      6       1.458767        206.1983
2009    23      7       2.771626        254.6893
2009    24      0       2.820525        256.6494
2009    24      1       2.689282        255.5016
2009    24      2       1.073159        177.367
2009    24      3       1.0549          175.4333
2009    24      4       1.339523        197.2866
2009    24      5       1.480646        206.5276
2009    24      6       1.316331        194.8751
2009    24      7       0.819151        148.7574
2009    25      0       0.6958229       133.275
2009    25      1       0.46484         101.0291
2009    25      2       0.3155626       75.65765
2009    25      3       0.253697        63.10538
2009    25      4       0.2255332       56.60171
2009    25      5       0.2427402       59.93903
2009    25      6       0.2888139       69.15889
2009    25      7       0.210072        55.29041
2009    26      0       0.2892008       71.25088
2009    26      1       0.3317372       78.8274
2009    26      2       0.3916489       89.79582
2009    26      3       0.4024534       92.25598
2009    26      4       0.3917511       91.14701
2009    26      5       0.4150335       95.43383
2009    26      6       0.4159079       95.65585
2009    26      7       0.3477529       83.58467
2009    27      0       0.4067724       94.23878
2009    27      1       0.417986        95.76504
2009    27      2       0.5440896       115.6828
2009    27      3       0.7390139       142.0257
2009    27      4       0.888717        159.0982
2009    27      5       0.9802222       167.6002
2009    27      6       1.031946        171.3707
2009    27      7       1.005537        168.7614
2009    28      0       1.210563        186.3662
2009    28      1       1.714535        219.5087
2009    28      2       1.975525        232.6926
2009    28      3       1.483114        210.9278
2009    28      4       1.046177        178.6209
2009    28      5       0.8732061       160.5612
2009    28      6       0.7546861       145.552
2009    28      7       0.760117        146.1273
2009    29      0       0.8651779       157.1508
2009    29      1       1.2785          194.6528
2009    29      2       2.287464        243.987
2009    29      3       2.366834        247.0595
2009    29      4       2.777203        255.8143
2009    29      5       3.161591        262.1742
2009    29      6       2.833673        257.0598
2009    29      7       2.525728        252.4695
2009    30      0       2.740753        257.1427
2009    30      1       2.82514         258.0013
2009    30      2       2.775826        257.1325
2009    30      3       3.30209         264.5787
2009    30      4       3.33189         264.9671
2009    30      5       2.945711        260.9398
2009    30      6       1.944892        235.1549
2009    30      7       2.099381        240.7027
2010    1       0       0.2056108       53.10926
2010    1       1       0.2261467       57.55005
2010    1       2       0.2150895       55.20929
2010    1       3       0.1496804       41.02715
2010    1       4       0.1154762       33.67991
2010    1       5       0.1206725       34.81028
2010    1       6       0.1174999       34.17719
2010    1       7       0.1053127       31.49255
2010    2       0       0.09135653      28.36893
2010    2       1       0.09165712      28.56014
2010    2       2       0.1554086       43.02847
2010    2       3       0.1958704       51.57544
2010    2       4       0.2101619       54.46044
2010    2       5       0.2026019       52.88149
2010    2       6       0.2197205       56.33139
2010    2       7       0.2188732       56.19831
2010    3       0       0.2563507       63.86806
2010    3       1       0.4358068       96.06738
2010    3       2       0.6398765       125.6648
2010    3       3       0.7314837       137.2082
2010    3       4       0.8602643       152.4568
2010    3       5       0.7985808       145.4708
2010    3       6       0.2435219       61.54124
2010    3       7       0.115158        34.00973
2010    4       0       0.1331802       37.90885
2010    4       1       0.2406196       60.62112
2010    4       2       0.3647298       84.45254
2010    4       3       0.3851996       87.96413
2010    4       4       0.3876254       88.29062
2010    4       5       0.3466603       80.94216
2010    4       6       0.3178057       76.03693
2010    4       7       0.2609622       65.41457
2010    5       0       0.2795626       69.03312
2010    5       1       0.2590877       65.31594
2010    5       2       0.2291344       59.35776
2010    5       3       0.09911503      30.74608
2010    5       4       0.09093324      28.69199
2010    5       5       0.1081511       32.54039
2010    5       6       0.1338463       38.44014
2010    5       7       0.1372746       39.55482
2010    6       0       0.1524799       42.80348
2010    6       1       0.1723893       46.85989
2010    6       2       0.21463         55.242
2010    6       3       0.2917543       70.31899
2010    6       4       0.301532        71.93744
2010    6       5       0.2844447       68.81728
2010    6       6       0.3038694       71.59332
2010    6       7       0.3532167       80.2455
2010    7       0       0.4625382       98.4165
2010    7       1       0.5158331       106.3676
2010    7       2       0.8550088       150.6145
2010    7       3       0.894222        157.8276
2010    7       4       1.127239        180.0126
2010    7       5       1.446425        203.2195
2010    7       6       1.314384        194.7861
2010    7       7       1.253077        191.038
2010    8       0       1.36773         198.4532
2010    8       1       1.36265         199.3479
2010    8       2       0.9832346       168.9281
2010    8       3       1.176133        184.8114
2010    8       4       1.10951         179.0864
2010    8       5       0.9107949       160.7028
2010    8       6       0.7999134       147.9996
2010    8       7       0.7446559       140.7256
2010    9       0       0.8074543       147.5259
2010    9       1       0.8631632       153.7944
2010    9       2       0.8829579       156.5423
2010    9       3       0.842592        152.4683
2010    9       4       0.983081        167.1821
2010    9       5       0.9688953       166.1188
2010    9       6       0.5619262       117.7317
2010    9       7       0.2956243       72.17286
2010    10      0       0.3236426       76.72211
2010    10      1       0.3448988       81.70861
2010    10      2       0.4126253       94.4222
2010    10      3       0.3180891       77.71693
2010    10      4       0.1682858       46.75291
2010    10      5       0.1247689       36.71453
2010    10      6       0.1163506       34.36016
2010    10      7       0.145445        40.60856
2010    11      0       0.195684        51.58967
2010    11      1       0.2493291       62.48962
2010    11      2       0.2469154       61.99186
2010    11      3       0.2282452       58.2667
2010    11      4       0.237769        59.9982
2010    11      5       0.2477276       61.86072
2010    11      6       0.2316579       58.60978
2010    11      7       0.2016411       52.55313
2010    12      0       0.1944834       51.23033
2010    12      1       0.1920869       50.86195
2010    12      2       0.1740953       47.32253
2010    12      3       0.1621635       44.87286
2010    12      4       0.1602432       44.40335
2010    12      5       0.1525891       42.69386
2010    12      6       0.1632722       44.75324
2010    12      7       0.1967636       51.15694
2010    13      0       0.396605        87.74437
2010    13      1       0.8580513       151.7925
2010    13      2       1.547209        209.5269
2010    13      3       1.993248        232.9855
2010    13      4       1.916916        231.3142
2010    13      5       2.01697         233.9631
2010    13      6       2.222304        240.8233
2010    13      7       1.778197        224.2302
2010    14      0       1.090755        178.6552
2010    14      1       1.241836        189.4872
2010    14      2       1.621791        215.5927
2010    14      3       1.374896        200.7211
2010    14      4       1.210018        188.6225
2010    14      5       0.7491871       143.3532
2010    14      6       0.6687295       134.1684
2010    14      7       0.5656566       119.2571
2010    15      0       0.8548127       156.457
2010    15      1       1.214106        189.9278
2010    15      2       1.982584        232.2951
2010    15      3       2.308144        243.7192
2010    15      4       2.520238        249.3292
2010    15      5       2.370098        245.0986
2010    15      6       2.0565          237.1225
2010    15      7       2.254229        243.6502
2010    16      0       2.310041        244.7897
2010    16      1       0.377383        89.6829
2010    16      2       0.1871132       51.45468
2010    16      3       0.2938014       73.64279
2010    16      4       0.2448312       63.55948
2010    16      5       0.2948427       72.39369
2010    16      6       0.3835305       88.11398
2010    16      7       0.4771978       103.4668
2010    17      0       0.4274936       96.34175
2010    17      1       0.392369        89.98786
2010    17      2       0.327323        78.53063
2010    17      3       0.2953105       72.35903
2010    17      4       0.3249172       77.48567
2010    17      5       0.5910207       120.0389
2010    17      6       0.839883        152.2028
2010    17      7       1.30127         195.427
2010    18      0       1.892598        229.2784
2010    18      1       2.625167        251.9266
2010    18      2       2.746883        254.9003
2010    18      3       2.897453        257.8903
2010    18      4       2.658192        252.8138
2010    18      5       2.413928        247.2007
2010    18      6       2.532514        250.8082
2010    18      7       2.899342        258.1271
2010    19      0       1.81629         226.0587
2010    19      1       1.601954        216.2514
2010    19      2       1.128693        184.0919
2010    19      3       0.7524541       143.7283
2010    19      4       0.7564123       143.9222
2010    19      5       0.619455        124.5654
2010    19      6       0.804215        147.8533
2010    19      7       1.426335        202.0422
2010    20      0       1.579069        211.1988
2010    20      1       1.723535        219.227
2010    20      2       1.752496        221.3428
2010    20      3       1.570795        212.5549
2010    20      4       1.48839         206.9147
2010    20      5       1.761464        221.5137
2010    20      6       1.968055        230.502
2010    20      7       1.980657        231.0375
2010    21      0       2.041285        233.9043
2010    21      1       0.7985118       147.602
2010    21      2       0.5856652       121.5359
2010    21      3       0.5200826       111.09
2010    21      4       0.756216        142.6005
2010    21      5       0.9709412       166.2393
2010    21      6       1.423484        202.0287
2010    21      7       1.746319        219.1408
2010    22      0       1.864921        224.7725
2010    22      1       1.849633        225.3494
2010    22      2       1.561492        212.1664
2010    22      3       0.8993324       159.8161
2010    22      4       0.6678153       131.7861
2010    22      5       0.9625699       165.3811
2010    22      6       2.092025        235.1834
2010    22      7       2.212434        239.7293
2010    23      0       2.050657        234.9826
2010    23      1       2.131067        237.7164
2010    23      2       1.999889        232.9515
2010    23      3       1.78271         224.1295
2010    23      4       1.285106        193.7651
2010    23      5       0.9961258       168.6186
2010    23      6       0.5562002       116.2709
2010    23      7       0.3038182       73.09679
2010    24      0       0.2402463       61.21437
2010    24      1       0.2332716       60.45795
2010    24      2       0.2411502       62.52253
2010    24      3       0.2660003       67.76873
2010    24      4       0.2987305       74.0929
2010    24      5       0.3301428       79.52427
2010    24      6       0.3951848       90.72969
2010    24      7       0.4181231       94.94213
2010    25      0       0.4126833       93.9062
2010    25      1       0.4368909       97.6287
2010    25      2       0.5393085       112.9247
2010    25      3       0.6731649       131.5033
2010    25      4       0.9984613       170.034
2010    25      5       1.630464        217.3223
2010    25      6       2.104277        237.2533
2010    25      7       2.209754        240.8999
2010    26      0       2.363013        245.2556
2010    26      1       2.657277        252.4793
2010    26      2       2.669741        253.5814
2010    26      3       2.768845        255.9445
2010    26      4       2.628665        252.4952
2010    26      5       2.792684        255.857
2010    26      6       2.638736        253.1085
2010    26      7       2.736005        255.0556
2010    27      0       3.01823         259.725
2010    27      1       2.656109        253.2491
2010    27      2       2.802267        255.9258
2010    27      3       2.863961        256.6651
2010    27      4       2.81937         255.9032
2010    27      5       2.625013        252.0622
2010    27      6       2.565836        250.6744
2010    27      7       2.151701        239.9922
2010    28      0       1.99401         234.6529
2010    28      1       1.785165        226.701
2010    28      2       1.769381        226.2065
2010    28      3       2.056309        238.14
2010    28      4       2.062591        237.4372
2010    28      5       2.072995        237.4763
2010    28      6       2.076235        237.5042
2010    28      7       2.254761        242.5096
2010    29      0       2.25271         242.5539
2010    29      1       1.876589        229.9962
2010    29      2       1.852148        229.0229
2010    29      3       2.105839        239.7006
2010    29      4       2.052514        237.7106
2010    29      5       2.21882         241.8898
2010    29      6       2.12331         238.7184
2010    29      7       1.481334        209.5794
2010    30      0       1.498018        210.8273
2010    30      1       1.553511        214.1165
2010    30      2       1.509642        210.8714
2010    30      3       1.57191         213.3084
2010    30      4       1.8099          224.6718
2010    30      5       1.905639        228.57
2010    30      6       1.617585        214.878
2010    30      7       1.349367        198.4939
2011    1       0       1.309313        192.6491
2011    1       1       1.139265        180.6914
2011    1       2       0.9625147       165.9298
2011    1       3       0.9207016       161.5407
2011    1       4       0.8238613       150.5785
2011    1       5       0.5040581       107.8632
2011    1       6       0.5234739       110.4531
2011    1       7       0.740623        139.5622
2011    2       0       0.8608785       152.3409
2011    2       1       1.029111        169.6332
2011    2       2       0.8221186       149.0058
2011    2       3       0.8142954       148.9308
2011    2       4       0.6591765       129.0442
2011    2       5       0.6660333       130.0469
2011    2       6       0.6344541       125.8275
2011    2       7       0.4172015       91.94674
2011    3       0       0.2733338       64.8147
2011    3       1       0.1701648       44.77798
2011    3       2       0.2219116       55.0172
2011    3       3       0.1903898       48.98656
2011    3       4       0.1495735       40.86612
2011    3       5       0.1363804       38.32441
2011    3       6       0.08939032      27.96201
2011    3       7       0.07243905      24.04085
2011    4       0       0.1361405       38.1163
2011    4       1       0.1912487       50.0001
2011    4       2       0.1647827       44.67413
2011    4       3       0.2305654       59.05831
2011    4       4       0.3925201       90.3005
2011    4       5       0.3932643       90.63301
2011    4       6       0.3790649       87.75848
2011    4       7       0.3520452       81.97934
2011    5       0       0.3905184       87.71919
2011    5       1       0.701963        133.1408
2011    5       2       1.155647        180.6196
2011    5       3       0.9989704       167.1044
2011    5       4       0.7118116       137.1332
2011    5       5       0.5019541       107.8407
2011    5       6       0.1550711       43.25311
2011    5       7       0.07955596      25.72573
2011    6       0       0.09097534      28.79556
2011    6       1       0.09438425      29.38463
2011    6       2       0.09346443      28.87655
2011    6       3       0.1392642       38.68729
2011    6       4       0.2060599       52.58404
2011    6       5       0.309038        72.18929
2011    6       6       0.5908618       117.3378
2011    6       7       1.143644        179.2713
2011    7       0       1.514368        206.9446
2011    7       1       1.407387        201.6988
2011    7       2       1.147839        184.05
2011    7       3       1.156736        185.1348
2011    7       4       1.27937         195.7486
2011    7       5       1.29632         197.5176
2011    7       6       1.673912        219.0579
2011    7       7       1.758146        222.9052
2011    8       0       1.230045        191.1886
2011    8       1       0.8086017       151.3894
2011    8       2       0.5889373       123.3728
2011    8       3       0.4335915       98.81367
2011    8       4       0.3299065       79.22741
2011    8       5       0.2741343       68.06609
2011    8       6       0.2890301       70.21998
2011    8       7       0.2977474       71.35077
2011    9       0       0.2320406       59.21146
2011    9       1       0.2737409       67.44016
2011    9       2       0.7964438       148.1892
2011    9       3       0.9325238       163.6645
2011    9       4       0.5905239       121.4172
2011    9       5       0.442077        98.66165
2011    9       6       0.4675962       102.0121
2011    9       7       0.6457872       126.6392
2011    10      0       0.6320765       124.8816
2011    10      1       1.158684        182.608
2011    10      2       1.286871        193.136
2011    10      3       1.642122        214.8993
2011    10      4       1.67344         216.3332
2011    10      5       2.006609        232.7236
2011    10      6       2.379132        245.3607
2011    10      7       2.441693        247.1436
2011    11      0       2.308718        244.1631
2011    11      1       1.88059         231.7053
2011    11      2       0.9510223       167.8834
2011    11      3       0.7692121       147.5063
2011    11      4       0.5218217       112.9659
2011    11      5       0.4283309       97.5034
2011    11      6       0.3794343       86.27534
2011    11      7       0.7106784       135.9805
2011    12      0       0.9266727       160.5053
2011    12      1       1.358738        197.328
2011    12      2       1.74106         220.0623
2011    12      3       1.955335        229.9932
2011    12      4       2.002443        232.6779
2011    12      5       2.060745        235.1477
2011    12      6       2.233053        241.184
2011    12      7       1.709164        222.2588
2011    13      0       0.4519695       99.575
2011    13      1       0.2718762       66.00432
2011    13      2       0.2886788       69.49192
2011    13      3       0.4005599       91.70983
2011    13      4       0.5160109       110.7137
2011    13      5       0.5066249       109.6655
2011    13      6       0.6126144       126.0487
2011    13      7       0.1889243       51.33818
2011    14      0       0.2176136       57.59059
2011    14      1       0.1922403       51.49393
2011    14      2       0.2435883       62.46801
2011    14      3       0.288179        70.30447
2011    14      4       0.2391856       60.78109
2011    14      5       0.3124391       74.08724
2011    14      6       0.3876267       87.54029
2011    14      7       0.5225405       109.529
2011    15      0       0.6658991       129.217
2011    15      1       0.6968939       133.8332
2011    15      2       0.6996403       134.6049
2011    15      3       0.6977241       134.3514
2011    15      4       0.6214298       124.5673
2011    15      5       0.6262213       125.1023
2011    15      6       0.7613811       142.6856
2011    15      7       1.037691        172.1203
2011    16      0       1.406288        201.1655
2011    16      1       1.808539        223.6366
2011    16      2       2.14625         237.4925
2011    16      3       2.357249        243.8146
2011    16      4       2.564843        249.6557
2011    16      5       2.482888        247.6979
2011    16      6       2.301785        243.435
2011    16      7       1.892559        229.249
2011    17      0       1.023255        175.2475
2011    17      1       0.5738003       120.6937
2011    17      2       0.610558        125.341
2011    17      3       0.7143258       139.0534
2011    17      4       0.6763221       133.1311
2011    17      5       0.6660651       131.3025
2011    17      6       0.8161433       148.7667
2011    17      7       1.153815        181.8568
2011    18      0       1.341917        196.4208
2011    18      1       1.726013        219.9976
2011    18      2       1.974509        230.8494
2011    18      3       1.777594        222.3424
2011    18      4       1.60293         213.2115
2011    18      5       1.599409        212.4324
2011    18      6       1.551913        209.7272
2011    18      7       1.620039        213.8249
2011    19      0       1.716281        218.9553
2011    19      1       1.693154        218.2891
2011    19      2       1.667771        218.1363
2011    19      3       1.607743        215.4999
2011    19      4       1.515074        210.6013
2011    19      5       1.555054        212.1228
2011    19      6       1.501876        208.8482
2011    19      7       1.90027         229.2577
2011    20      0       2.047122        234.6406
2011    20      1       2.296039        243.3989
2011    20      2       2.147522        238.6562
2011    20      3       2.030778        234.6116
2011    20      4       1.920401        229.9282
2011    20      5       1.647871        217.3707
2011    20      6       1.773109        222.797
2011    20      7       1.100687        179.9618
2011    21      0       1.681007        219.6775
2011    21      1       0.8220233       152.5256
2011    21      2       0.8778954       159.6629
2011    21      3       0.7194067       141.0445
2011    21      4       0.4658593       104.1985
2011    21      5       0.2938372       72.8371
2011    21      6       0.2639922       66.51297
2011    21      7       0.1870106       50.28724
2011    22      0       0.1725171       47.18893
2011    22      1       0.122831        35.97323
2011    22      2       0.4765644       106.5149
2011    22      3       1.195479        189.4107
2011    22      4       1.56328         211.6489
2011    22      5       2.064799        233.7128
2011    22      6       2.169746        238.41
2011    22      7       2.133536        238.211
2011    23      0       1.945658        231.6301
2011    23      1       1.650597        219.2988
2011    23      2       1.684804        221.4426
2011    23      3       1.507419        212.1383
2011    23      4       1.452685        209.0406
2011    23      5       1.348959        202.1847
2011    23      6       1.286766        198.0428
2011    23      7       1.026512        176.4049
2011    24      0       0.9153887       165.3586
2011    24      1       1.202518        192.4991
2011    24      2       1.340828        203.1416
2011    24      3       1.289522        198.9833
2011    24      4       1.217883        192.3671
2011    24      5       1.056363        179.1028
2011    24      6       1.465038        210.3336
2011    24      7       1.215271        191.3788
2011    25      0       1.226178        190.9458
2011    25      1       1.287614        194.8583
2011    25      2       1.287941        194.6918
2011    25      3       1.215734        188.8646
2011    25      4       0.7783813       144.6313
2011    25      5       0.7145369       136.25
2011    25      6       1.269033        192.9614
2011    25      7       1.38968         201.4237
2011    26      0       1.473779        206.3921
2011    26      1       1.621972        215.6333
2011    26      2       1.143359        182.9813
2011    26      3       1.773419        224.8032
2011    26      4       1.999881        234.3844
2011    26      5       1.665893        219.5933
2011    26      6       1.207736        189.9714
2011    26      7       1.105447        181.2714
2011    27      0       1.327231        199.2115
2011    27      1       1.475677        209.408
2011    27      2       1.399301        204.9333
2011    27      3       1.331992        200.6492
2011    27      4       1.361288        203.3691
2011    27      5       1.635393        219.9377
2011    27      6       2.031609        236.4291
2011    27      7       2.304097        244.0614
2011    28      0       2.123169        238.3678
2011    28      1       1.982295        233.7204
2011    28      2       1.536745        213.2937
2011    28      3       1.156192        186.7118
2011    28      4       0.9924459       171.9605
2011    28      5       0.9544283       168.4194
2011    28      6       0.8540984       157.9231
2011    28      7       0.472276        105.7278
2011    29      0       0.3628902       86.63508
2011    29      1       0.8068538       151.7015
2011    29      2       1.263427        195.1454
2011    29      3       1.222229        192.4079
2011    29      4       0.9804592       169.9924
2011    29      5       0.8845502       159.1097
2011    29      6       0.8862031       158.8682
2011    29      7       1.108681        180.2864
2011    30      0       1.229576        190.9303
2011    30      1       1.295037        195.6566
2011    30      2       1.851186        226.3473
2011    30      3       1.684127        219.5109
2011    30      4       1.482412        208.493
2011    30      5       1.34235         199.6362
2011    30      6       1.549993        212.8046
2011    30      7       2.213607        240.19
2012    1       0       0.6791587       131.7781
2012    1       1       0.214954        55.60671
2012    1       2       0.5857029       119.5113
2012    1       3       0.5565274       115.3713
2012    1       4       0.4734345       102.4004
2012    1       5       0.3335983       77.93989
2012    1       6       0.337243        78.4233
2012    1       7       0.388576        87.09168
2012    2       0       0.4341765       94.23133
2012    2       1       0.5613545       112.9607
2012    2       2       0.6626264       127.4623
2012    2       3       0.8165479       147.0299
2012    2       4       1.091501        174.8843
2012    2       5       1.235947        187.4702
2012    2       6       1.358618        195.9651
2012    2       7       1.36874         196.2169
2012    3       0       1.174322        183.0613
2012    3       1       1.088518        176.326
2012    3       2       0.9649077       165.4674
2012    3       3       0.8983612       158.5591
2012    3       4       0.9877413       166.5671
2012    3       5       0.8563486       153.738
2012    3       6       0.1913793       51.2812
2012    3       7       0.201068        52.94691
2012    4       0       0.2142049       55.56419
2012    4       1       0.247107        61.15639
2012    4       2       0.3279014       75.54906
2012    4       3       0.4026208       88.53374
2012    4       4       0.4974891       103.8141
2012    4       5       0.6270176       122.9667
2012    4       6       0.8360118       149.6636
2012    4       7       0.9978537       167.1072
2012    5       0       1.068054        173.7535
2012    5       1       1.016927        169.2998
2012    5       2       0.9105308       158.678
2012    5       3       0.8423175       151.328
2012    5       4       0.8748288       154.9528
2012    5       5       0.8343473       151.5149
2012    5       6       0.7065873       137.5898
2012    5       7       0.6529137       130.6238
2012    6       0       0.465352        103.0308
2012    6       1       0.396449        91.34894
2012    6       2       0.3825265       88.66498
2012    6       3       0.3138559       76.3563
2012    6       4       0.1921822       51.6142
2012    6       5       0.1906702       51.04241
2012    6       6       0.2203434       56.73818
2012    6       7       0.2575212       63.66722
2012    7       0       0.256518        63.20057
2012    7       1       0.3038343       72.01228
2012    7       2       0.4033824       89.25882
2012    7       3       0.5333336       109.7733
2012    7       4       0.5801627       116.804
2012    7       5       0.5852292       118.1304
2012    7       6       0.6513802       128.1309
2012    7       7       0.7477243       140.9903
2012    8       0       0.8428914       152.1395
2012    8       1       0.9960315       168.3826
2012    8       2       1.279287        192.7136
2012    8       3       1.369563        199.1627
2012    8       4       1.403801        201.6595
2012    8       5       1.589095        214.0456
2012    8       6       1.984983        234.5318
2012    8       7       1.751431        224.0316
2012    9       0       0.6578517       131.3493
2012    9       1       0.7453993       142.4721
2012    9       2       0.930565        164.3865
2012    9       3       0.7622302       145.8577
2012    9       4       0.6310206       129.1224
2012    9       5       0.6741679       135.0726
2012    9       6       0.5094805       111.3921
2012    9       7       0.3851616       90.35427
2012    10      0       0.40497         93.25736
2012    10      1       0.3866585       90.00522
2012    10      2       0.5929543       123.7538
2012    10      3       0.670306        134.467
2012    10      4       0.4795299       106.4243
2012    10      5       0.2896499       72.56577
2012    10      6       0.2985341       73.96267
2012    10      7       0.3150723       76.36897
2012    11      0       0.3292896       78.44146
2012    11      1       0.4092789       92.12762
2012    11      2       0.5082436       107.3317
2012    11      3       0.8623314       153.0673
2012    11      4       1.04047         171.7613
2012    11      5       1.430078        203.2924
2012    11      6       2.014837        233.5016
2012    11      7       2.303848        243.9688
2012    12      0       2.562095        250.0371
2012    12      1       2.55514         249.6546
2012    12      2       2.654594        252.0213
2012    12      3       2.51677         248.965
2012    12      4       2.561711        249.6919
2012    12      5       2.285371        242.541
2012    12      6       1.626603        217.9792
2012    12      7       1.47626         208.8764
2012    13      0       1.17052         187.0493
2012    13      1       0.8398232       153.9525
2012    13      2       0.7113101       137.5815
2012    13      3       0.6230633       125.9677
2012    13      4       0.5923687       122.2699
2012    13      5       0.4212429       95.24384
2012    13      6       0.2176944       57.20134
2012    13      7       0.119698        35.43524
2012    14      0       0.135558        38.89002
2012    14      1       0.1335307       38.47872
2012    14      2       0.1394593       39.97373
2012    14      3       0.1389307       39.92917
2012    14      4       0.1235124       36.3744
2012    14      5       0.1156464       34.6129
2012    14      6       0.1355857       38.82914
2012    14      7       0.1657262       44.96096
2012    15      0       0.190009        50.18444
2012    15      1       0.2897863       69.91784
2012    15      2       0.4877081       103.624
2012    15      3       0.6764101       130.8463
2012    15      4       1.240548        188.7976
2012    15      5       2.14741         237.7628
2012    15      6       2.123004        237.7184
2012    15      7       2.227824        241.0406
2012    16      0       2.26087         242.7384
2012    16      1       1.815847        227.9308
2012    16      2       2.165879        240.5476
2012    16      3       2.317485        244.3196
2012    16      4       2.442867        247.8168
2012    16      5       2.585742        251.2147
2012    16      6       2.507715        250.964
2012    16      7       3.015666        259.8626
2012    17      0       1.710631        220.7313
2012    17      1       0.9567546       164.8744
2012    17      2       0.5695889       117.3983
2012    17      3       0.2900383       69.87618
2012    17      4       0.2839443       67.99542
2012    17      5       0.5037577       105.3198
2012    17      6       0.5994963       120.4595
2012    17      7       0.9286521       160.4815
2012    18      0       1.230419        188.2675
2012    18      1       1.106096        178.3061
2012    18      2       1.359043        198.3769
2012    18      3       1.615194        214.4309
2012    18      4       1.737596        220.9349
2012    18      5       1.521492        209.9982
2012    18      6       1.261053        192.0898
2012    18      7       1.661082        217.8413
2012    19      0       2.293634        241.86
2012    19      1       2.449183        246.4547
2012    19      2       2.353472        244.4487
2012    19      3       2.556378        249.8305
2012    19      4       2.917163        258.6217
2012    19      5       1.43604         211.5272
2012    19      6       0.7610472       146.5653
2012    19      7       1.577213        215.7567
2012    20      0       1.987811        234.7908
2012    20      1       2.243851        242.4637
2012    20      2       1.451362        207.6982
2012    20      3       1.465957        208.3898
2012    20      4       1.21961         190.5938
2012    20      5       1.556756        212.3288
2012    20      6       2.114557        237.6555
2012    20      7       2.290514        242.6651
2012    21      0       2.333633        244.1129
2012    21      1       2.255135        242.2715
2012    21      2       1.935639        230.6386
2012    21      3       1.774889        223.573
2012    21      4       1.53029         210.189
2012    21      5       1.756003        221.4362
2012    21      6       1.726146        220.7867
2012    21      7       1.456314        208.9312
2012    22      0       0.8457488       156.9136
2012    22      1       0.9275166       166.1813
2012    22      2       0.6779021       135.0517
2012    22      3       0.3628806       84.86244
2012    22      4       0.2527889       63.96672
2012    22      5       0.2824374       68.68215
2012    22      6       0.3639327       84.01993
2012    22      7       0.5324011       112.9496
2012    23      0       0.6668853       131.8162
2012    23      1       0.8432945       152.2101
2012    23      2       0.8687315       156.2908
2012    23      3       0.7328578       141.6759
2012    23      4       0.6272863       126.76
2012    23      5       0.6751086       132.8765
2012    23      6       0.7110356       138.2259
2012    23      7       0.7688215       146.0131
2012    24      0       0.8190745       151.7451
2012    24      1       0.8562474       155.8301
2012    24      2       1.097249        180.3799
2012    24      3       1.530904        211.7972
2012    24      4       1.62677         216.0905
2012    24      5       1.783923        222.557
2012    24      6       1.931207        228.5558
2012    24      7       1.860656        226.1072
2012    25      0       1.359706        199.5503
2012    25      1       0.7905675       149.1719
2012    25      2       0.7032622       139.1903
2012    25      3       0.5807246       122.2845
2012    25      4       0.3816359       89.57486
2012    25      5       0.362297        86.07921
2012    25      6       0.3653725       86.58151
2012    25      7       0.3496525       83.49881
2012    26      0       0.3201301       77.90927
2012    26      1       0.3465641       82.38712
2012    26      2       0.3827225       89.27897
2012    26      3       0.4060297       93.53929
2012    26      4       0.3815845       88.62808
2012    26      5       0.3288315       78.28303
2012    26      6       0.3567443       83.08433
2012    26      7       0.3499714       81.57796
2012    27      0       0.318949        75.63775
2012    27      1       0.3321007       77.55125
2012    27      2       0.4007729       90.42089
2012    27      3       0.5606477       116.0036
2012    27      4       0.7014907       135.7301
2012    27      5       0.785017        146.4407
2012    27      6       0.8211046       150.9446
2012    27      7       0.9648787       166.131
2012    28      0       1.21635         189.2378
2012    28      1       1.471243        207.6135
2012    28      2       1.516917        210.8612
2012    28      3       1.483273        209.1967
2012    28      4       1.190827        189.8511
2012    28      5       0.946769        167.9485
2012    28      6       0.7669353       147.7509
2012    28      7       0.4572826       102.921
2012    29      0       0.3347454       80.86085
2012    29      1       0.2854939       71.2713
2012    29      2       0.3859124       89.82432
2012    29      3       0.6445842       130.6355
2012    29      4       0.9347447       165.0604
2012    29      5       0.7916904       149.4493
2012    29      6       0.421706        96.46424
2012    29      7       0.2960457       73.35163
2012    30      0       0.2727397       68.92151
2012    30      1       0.2305535       60.2748
2012    30      2       0.2014819       54.17805
2012    30      3       0.244995        62.78055
2012    30      4       0.5302037       111.638
2012    30      5       1.121134        182.1789
2012    30      6       1.811466        226.8525
2012    30      7       2.480193        248.0709
2013    1       0       0.1918092       49.58558
2013    1       1       0.4226943       91.94808
2013    1       2       0.9042202       156.3866
2013    1       3       1.205645        185.0876
2013    1       4       1.485729        204.9964
2013    1       5       1.486636        206.1742
2013    1       6       1.564038        210.2245
2013    1       7       1.58449         211.4833
2013    2       0       1.31213         194.7698
2013    2       1       1.060744        175.1643
2013    2       2       1.086706        177.3738
2013    2       3       0.7579359       142.7708
2013    2       4       0.6728499       131.4706
2013    2       5       0.6354039       126.1067
2013    2       6       0.6151175       122.6187
2013    2       7       0.481164        103.2876
2013    3       0       0.421783        93.54458
2013    3       1       0.3065799       73.86392
2013    3       2       0.2750245       67.50517
2013    3       3       0.201158        53.22166
2013    3       4       0.1729072       47.21891
2013    3       5       0.1894703       50.71375
2013    3       6       0.1919703       51.31917
2013    3       7       0.1728592       47.26023
2013    4       0       0.1660187       45.52342
2013    4       1       0.156154        43.24954
2013    4       2       0.1539361       42.55233
2013    4       3       0.1487743       41.37914
2013    4       4       0.1511268       41.91851
2013    4       5       0.1428087       40.26516
2013    4       6       0.1540741       42.30432
2013    4       7       0.1969195       51.23684
2013    5       0       0.3113509       74.59305
2013    5       1       0.6030907       122.45
2013    5       2       0.818623        149.2779
2013    5       3       0.5936375       121.4389
2013    5       4       0.4891203       105.6166
2013    5       5       0.4222015       94.11219
2013    5       6       0.4280376       94.51457
2013    5       7       0.4845612       103.2181
2013    6       0       0.5932995       118.8414
2013    6       1       0.6630044       128.4804
2013    6       2       0.8251033       148.0804
2013    6       3       1.037907        170.1702
2013    6       4       1.14217         179.7375
2013    6       5       1.206427        184.8838
2013    6       6       1.274245        190.1109
2013    6       7       1.273904        189.9387
2013    7       0       0.9664541       164.272
2013    7       1       0.5071403       109.1811
2013    7       2       0.657018        129.6267
2013    7       3       0.7119344       136.7961
2013    7       4       0.9987914       166.0469
2013    7       5       0.9074014       156.7984
2013    7       6       0.3596508       82.73856
2013    7       7       0.1244747       36.29578
2013    8       0       0.3325854       78.10096
2013    8       1       0.6382775       126.6701
2013    8       2       0.6312454       126.3919
2013    8       3       0.4182999       94.67674
2013    8       4       0.08180143      26.23634
2013    8       5       0.1010612       30.72075
2013    8       6       0.1189024       34.57271
2013    8       7       0.1337644       37.63562
2013    9       0       0.1650811       44.23542
2013    9       1       0.2065736       52.71745
2013    9       2       0.2918865       69.15441
2013    9       3       0.500461        104.4445
2013    9       4       0.7280452       136.4301
2013    9       5       1.102861        176.816
2013    9       6       1.456497        204.092
2013    9       7       1.696363        218.6132
2013    10      0       1.75646         222.8407
2013    10      1       1.924656        230.61
2013    10      2       1.784201        224.2758
2013    10      3       1.647848        217.7704
2013    10      4       1.501547        210.2156
2013    10      5       1.339702        199.9316
2013    10      6       1.433965        205.6229
2013    10      7       1.705941        220.6416
2013    11      0       1.906135        229.7942
2013    11      1       1.705055        221.8793
2013    11      2       1.653978        219.9812
2013    11      3       1.85369         229.6925
2013    11      4       1.714674        222.9703
2013    11      5       1.617713        218.0019
2013    11      6       1.539185        213.9403
2013    11      7       1.824903        228.7951
2013    12      0       1.668548        221.6246
2013    12      1       1.881982        230.7926
2013    12      2       2.185247        241.2112
2013    12      3       1.615042        217.5523
2013    12      4       1.382736        203.7484
2013    12      5       1.737794        222.9476
2013    12      6       2.254765        242.1564
2013    12      7       1.949071        232.4528
2013    13      0       2.328742        244.9574
2013    13      1       2.301906        243.881
2013    13      2       2.361193        246.4228
2013    13      3       2.262402        245.6842
2013    13      4       1.353987        204.5857
2013    13      5       1.151071        188.78
2013    13      6       1.33432         202.4803
2013    13      7       1.382973        205.3784
2013    14      0       1.290955        198.5192
2013    14      1       1.360376        203.215
2013    14      2       1.486739        211.4635
2013    14      3       1.52873         214.0401
2013    14      4       1.385513        205.2295
2013    14      5       1.333289        201.8453
2013    14      6       1.729079        224.5338
2013    14      7       2.146441        240.6316
2013    15      0       2.340616        246.716
2013    15      1       2.493369        250.6028
2013    15      2       2.695853        254.3143
2013    15      3       2.94231         258.2251
2013    15      4       2.893126        257.3463
2013    15      5       2.69071         253.4215
2013    15      6       2.600812        250.9926
2013    15      7       2.6507          251.9794
2013    16      0       2.237401        242.2449
2013    16      1       1.680129        221.1916
2013    16      2       1.012696        175.0929
2013    16      3       0.4288904       98.56354
2013    16      4       0.3988991       92.16849
2013    16      5       0.4030773       92.69351
2013    16      6       0.3783166       87.70335
2013    16      7       0.415156        93.24015
2013    17      0       0.340207        80.23815
2013    17      1       0.3538829       82.10525
2013    17      2       0.3612032       84.36418
2013    17      3       0.5717088       118.2267
2013    17      4       1.127917        181.538
2013    17      5       1.543423        212.8777
2013    17      6       1.419552        205.0578
2013    17      7       0.8812975       156.8349
2013    18      0       0.9254158       161.7653
2013    18      1       1.036386        173.5623
2013    18      2       1.330923        199.1024
2013    18      3       2.038148        235.5893
2013    18      4       2.467267        250.8543
2013    18      5       2.167512        243.1026
2013    18      6       2.29587         246.2912
2013    18      7       1.557182        216.8419
2013    19      0       1.560585        216.5825
2013    19      1       1.851566        230.381
2013    19      2       2.989941        261.0677
2013    19      3       2.860051        257.7059
2013    19      4       3.214264        263.1635
2013    19      5       2.95391         257.9043
2013    19      6       2.726687        253.6763
2013    19      7       2.337711        244.0185
2013    20      0       2.149446        238.0235
2013    20      1       2.467842        248.0796
2013    20      2       2.928596        258.3538
2013    20      3       2.72393         254.282
2013    20      4       2.773469        255.4249
2013    20      5       2.291277        244.1108
2013    20      6       1.702719        220.6913
2013    20      7       1.861295        227.4332
2013    21      0       2.213041        240.3163
2013    21      1       2.562461        249.9326
2013    21      2       2.436982        246.0706
2013    21      3       2.411371        245.4743
2013    21      4       2.464999        246.8328
2013    21      5       2.43232         246.5228
2013    21      6       0.9943313       171.6888
2013    21      7       0.4487252       99.8211
2013    22      0       0.794131        147.9157
2013    22      1       1.173911        184.5628
2013    22      2       1.251842        191.6526
2013    22      3       0.9439448       165.6391
2013    22      4       0.555862        117.8142
2013    22      5       0.4648962       102.2794
2013    22      6       0.5700651       116.8235
2013    22      7       0.5948737       120.6013
2013    23      0       0.6814415       132.92
2013    23      1       0.896114        158.4608
2013    23      2       1.281081        192.8748
2013    23      3       1.666173        217.7816
2013    23      4       2.142018        236.8535
2013    23      5       2.365309        243.5733
2013    23      6       2.298067        242.108
2013    23      7       2.127037        237.3049
2013    24      0       1.592311        215.3436
2013    24      1       1.335223        200.5623
2013    24      2       1.658032        220.1828
2013    24      3       1.523405        212.5257
2013    24      4       1.356218        201.5153
2013    24      5       1.450869        207.6407
2013    24      6       1.660622        219.2891
2013    24      7       1.45832         207.6506
2013    25      0       1.400668        203.6614
2013    25      1       1.443751        206.3262
2013    25      2       1.549368        212.8507
2013    25      3       1.52916         212.5659
2013    25      4       1.432316        206.7799
2013    25      5       1.213619        189.8438
2013    25      6       1.508682        207.9836
2013    25      7       2.485598        247.5568
2013    26      0       3.048854        259.3514
2013    26      1       3.353697        264.5639
2013    26      2       3.461686        265.6552
2013    26      3       2.184778        244.2279
2013    26      4       1.254036        197.6821
2013    26      5       1.093785        183.6335
2013    26      6       0.7783059       148.7758
2013    26      7       0.7858291       149.2754
2013    27      0       0.808693        152.0696
2013    27      1       0.8802568       159.9282
2013    27      2       0.723155        141.7855
2013    27      3       0.853764        157.2451
2013    27      4       0.9611982       167.8635
2013    27      5       1.228826        191.8086
2013    27      6       1.359319        200.5384
2013    27      7       1.259227        192.332
2013    28      0       1.092406        178.9114
2013    28      1       1.261053        192.0097
2013    28      2       1.396727        201.5349
2013    28      3       1.424323        203.9216
2013    28      4       1.647423        216.3157
2013    28      5       1.650527        216.6497
2013    28      6       1.585491        213.7547
2013    28      7       1.156844        185.438
2013    29      0       0.9280774       164.3604
2013    29      1       1.064411        177.2674
2013    29      2       1.225002        190.9155
2013    29      3       1.359732        200.9162
2013    29      4       1.267405        195.0109
2013    29      5       1.091542        180.7782
2013    29      6       0.9103127       163.5216
2013    29      7       0.7505378       145.1224
2013    30      0       0.6434708       131.1601
2013    30      1       0.762374        146.7078
2013    30      2       0.8307637       154.3138
2013    30      3       0.8407372       154.6736
2013    30      4       0.8225539       151.0865
2013    30      5       0.8826874       156.5363
2013    30      6       1.147041        181.203
2013    30      7       1.105414        178.4289
2014    1       0       0.3439229       81.98226
2014    1       1       0.2885943       71.63562
2014    1       2       0.2820884       70.44289
2014    1       3       0.2505503       64.17397
2014    1       4       0.2289942       59.69484
2014    1       5       0.1787612       48.91083
2014    1       6       0.1807267       49.26321
2014    1       7       0.2141439       56.37714
2014    2       0       0.2527509       64.09823
2014    2       1       0.2825963       69.54921
2014    2       2       0.3064861       73.82096
2014    2       3       0.3278525       78.10607
2014    2       4       0.322014        77.40229
2014    2       5       0.2967966       71.86754
2014    2       6       0.4043213       91.07511
2014    2       7       0.4032747       91.03588
2014    3       0       0.4855592       103.7635
2014    3       1       0.3903729       89.07939
2014    3       2       0.4833258       104.3406
2014    3       3       0.5554703       114.6477
2014    3       4       0.4781007       102.7551
2014    3       5       0.4031071       91.09777
2014    3       6       0.4546266       100.2605
2014    3       7       0.4332103       96.81658
2014    4       0       0.4178782       94.02032
2014    4       1       0.5172631       109.0137
2014    4       2       0.7131398       135.3388
2014    4       3       0.9635          163.6822
2014    4       4       1.406214        200.2702
2014    4       5       1.874727        226.4785
2014    4       6       2.062454        234.8047
2014    4       7       1.67626         219.1053
2014    5       0       0.9085588       162.1579
2014    5       1       1.277395        195.9616
2014    5       2       1.39955         203.276
2014    5       3       0.3216876       78.06821
2014    5       4       0.4441949       99.3662
2014    5       5       0.4879219       106.4881
2014    5       6       0.5913805       122.1309
2014    5       7       0.6327052       128.1977
2014    6       0       0.6465298       130.5348
2014    6       1       0.5173499       111.8038
2014    6       2       0.7075073       138.6176
2014    6       3       0.613938        126.9215
2014    6       4       1.572605        212.2929
2014    6       5       1.393721        201.2927
2014    6       6       1.344679        199.1446
2014    6       7       1.245961        192.1551
2014    7       0       1.085562        178.1806
2014    7       1       1.018672        171.1233
2014    7       2       0.8376297       152.7979
2014    7       3       0.7310691       140.4243
2014    7       4       0.8898386       158.461
2014    7       5       1.126836        181.0254
2014    7       6       1.30317         194.9284
2014    7       7       1.544756        209.4568
2014    8       0       1.480288        205.8102
2014    8       1       1.349956        198.2829
2014    8       2       1.498019        207.2262
2014    8       3       1.373348        199.6625
2014    8       4       1.332978        197.9502
2014    8       5       1.14852         184.2624
2014    8       6       0.9065195       161.3671
2014    8       7       0.789622        147.7032
2014    9       0       0.5862798       121.4449
2014    9       1       0.6532657       129.9688
2014    9       2       0.8029283       148.5429
2014    9       3       0.7248364       139.9063
2014    9       4       0.7331205       141.1521
2014    9       5       0.6833223       134.6968
2014    9       6       0.6469563       129.2558
2014    9       7       0.4677372       102.0765
2014    10      0       0.6150912       123.6735
2014    10      1       0.8097778       148.3273
2014    10      2       0.8073066       147.247
2014    10      3       0.7677172       142.3752
2014    10      4       0.7874393       144.6168
2014    10      5       0.9424305       161.4395
2014    10      6       1.122386        178.6199
2014    10      7       1.322896        194.3107
2014    11      0       1.501206        207.6948
2014    11      1       1.302           195.2128
2014    11      2       1.35491         199.3229
2014    11      3       1.504724        208.8919
2014    11      4       1.596501        215.4861
2014    11      5       1.706983        221.4949
2014    11      6       1.440155        206.4283
2014    11      7       1.156262        185.0629
2014    12      0       1.07616         178.0348
2014    12      1       0.7476222       144.9646
2014    12      2       0.5120847       112.1112
2014    12      3       0.2968734       72.41431
2014    12      4       0.3797665       88.1732
2014    12      5       0.2411269       62.39631
2014    12      6       0.2020751       53.72884
2014    12      7       0.2940561       72.3031
2014    13      0       0.3387617       80.70129
2014    13      1       0.4984967       107.4591
2014    13      2       0.5717768       118.3777
2014    13      3       0.3952107       90.53901
2014    13      4       0.2700316       67.50996
2014    13      5       0.3848157       88.15533
2014    13      6       0.3741675       86.99054
2014    13      7       0.362876        85.39254
2014    14      0       0.3050149       74.91081
2014    14      1       0.1759054       48.31458
2014    14      2       0.1822103       48.90619
2014    14      3       0.2652398       64.81677
2014    14      4       0.244518        61.55553
2014    14      5       0.294287        70.88339
2014    14      6       0.2744938       68.0469
2014    14      7       0.2489445       63.43068
2014    15      0       0.2031431       53.83703
2014    15      1       0.1709646       46.94138
2014    15      2       0.2490803       63.44615
2014    15      3       0.3577843       84.09625
2014    15      4       0.3341804       79.35306
2014    15      5       0.3395843       80.74977
2014    15      6       0.3541654       83.59088
2014    15      7       0.2707976       67.65166
2014    16      0       0.2818295       69.62547
2014    16      1       0.3205723       77.22892
2014    16      2       0.5581653       117.0138
2014    16      3       0.6534317       130.2435
2014    16      4       0.4508459       100.0285
2014    16      5       0.3042929       73.25415
2014    16      6       0.3365498       78.84378
2014    16      7       0.4668903       101.1242
2014    17      0       0.625471        124.4722
2014    17      1       0.7295224       137.8788
2014    17      2       0.847445        152.1266
2014    17      3       0.8745665       155.2847
2014    17      4       0.8884905       156.6612
2014    17      5       0.9291741       161.2252
2014    17      6       1.263131        190.8535
2014    17      7       1.928882        228.6557
2014    18      0       2.211317        238.9969
2014    18      1       2.08071         234.0369
2014    18      2       1.716054        219.7622
2014    18      3       1.554635        210.7644
2014    18      4       1.281735        192.8282
2014    18      5       1.068279        175.6132
2014    18      6       0.8159304       150.6289
2014    18      7       0.6231092       126.8654
2014    19      0       0.5945275       122.9186
2014    19      1       0.7704973       146.2027
2014    19      2       0.986084        169.2009
2014    19      3       1.243918        190.5733
2014    19      4       1.122566        180.3532
2014    19      5       0.8142474       149.8845
2014    19      6       0.7140779       138.3888
2014    19      7       0.5740008       119.082
2014    20      0       0.5280412       111.5895
2014    20      1       0.643303        128.2941
2014    20      2       0.793295        148.3313
2014    20      3       0.6822338       134.6524
2014    20      4       0.6454686       128.3478
2014    20      5       0.8300989       150.1597
2014    20      6       1.120038        178.5558
2014    20      7       1.350164        196.3396
2014    21      0       1.397094        200.6418
2014    21      1       1.560706        210.5325
2014    21      2       1.605244        213.7529
2014    21      3       1.641907        216.1002
2014    21      4       1.754253        221.493
2014    21      5       1.994165        231.954
2014    21      6       2.175932        238.4435
2014    21      7       2.101193        236.8599
2014    22      0       1.890154        229.1174
2014    22      1       1.790522        224.8549
2014    22      2       1.734715        222.3713
2014    22      3       1.717009        221.1455
2014    22      4       1.546452        211.3647
2014    22      5       1.435765        204.6974
2014    22      6       1.186767        186.4702
2014    22      7       0.9320014       162.8189
2014    23      0       0.7809433       146.5726
2014    23      1       0.8808056       157.4796
2014    23      2       1.049401        173.8224
2014    23      3       1.287154        194.4169
2014    23      4       0.9943543       169.1079
2014    23      5       0.9604904       164.7769
2014    23      6       1.322435        194.402
2014    23      7       1.422365        201.8578
2014    24      0       1.53071         207.9477
2014    24      1       1.008929        169.2313
2014    24      2       1.145144        180.6289
2014    24      3       1.251204        189.8241
2014    24      4       1.333517        196.5025
2014    24      5       1.062701        175.3859
2014    24      6       0.8066193       149.4004
2014    24      7       0.7631149       144.5609
2014    25      0       1.020718        170.2294
2014    25      1       1.215015        186.5647
2014    25      2       1.20515         187.2412
2014    25      3       1.031822        173.9395
2014    25      4       0.8607125       157.0096
2014    25      5       0.491565        108.6269
2014    25      6       0.396577        92.43629
2014    25      7       0.3980067       92.33869
2014    26      0       0.5274696       113.4765
2014    26      1       0.721771        140.5766
2014    26      2       0.7519025       144.0748
2014    26      3       0.6701026       133.3361
2014    26      4       0.6438561       129.5729
2014    26      5       0.7287061       140.0764
2014    26      6       0.9392764       164.2348
2014    26      7       1.23642         190.2322
2014    27      0       1.223362        190.9596
2014    27      1       1.11581         183.2473
2014    27      2       1.184644        189.4459
2014    27      3       1.143697        185.3932
2014    27      4       0.956158        168.0157
2014    27      5       0.972602        169.9533
2014    27      6       1.297791        198.0246
2014    27      7       1.653382        219.951
2014    28      0       1.679011        221.3088
2014    28      1       1.43022         205.8124
2014    28      2       0.9594491       168.1326
2014    28      3       0.735929        142.1461
2014    28      4       0.8584024       155.3801
2014    28      5       0.8110382       149.5145
2014    28      6       0.8141196       151.6288
2014    28      7       0.9661866       169.3118
2014    29      0       0.2825861       70.13014
2014    29      1       0.3468257       83.04532
2014    29      2       0.6173072       127.005
2014    29      3       0.5640715       119.8477
2014    29      4       0.4585805       103.1349
2014    29      5       0.3870076       90.66112
2014    29      6       0.3716785       87.71115
2014    29      7       0.4588143       101.7188
2014    30      0       0.6570148       129.9102
2014    30      1       0.714117        137.8649
2014    30      2       0.893688        159.6333
2014    30      3       1.007903        171.2657
2014    30      4       1.07912         176.7019
2014    30      5       1.260188        191.5177
2014    30      6       1.106356        180.873
2014    30      7       0.9270965       163.5518
2015    1       0       0.3090041       75.08394
2015    1       1       0.2350298       60.38584
2015    1       2       0.2756543       68.66697
2015    1       3       0.244637        62.02534
2015    1       4       0.238559        59.52912
2015    1       5       0.287277        68.3184
2015    1       6       0.4689942       99.7764
2015    1       7       0.4138077       91.86027
2015    2       0       0.5298053       110.2548
2015    2       1       0.6618356       128.213
2015    2       2       1.238804        188.1266
2015    2       3       1.235269        190.1281
2015    2       4       1.124262        181.8506
2015    2       5       1.610785        214.8204
2015    2       6       2.215437        240.0285
2015    2       7       2.35576         244.97
2015    3       0       2.543328        249.8104
2015    3       1       2.123894        237.378
2015    3       2       1.555019        211.3594
2015    3       3       1.34761         196.7673
2015    3       4       0.6791375       133.073
2015    3       5       0.4570371       99.86617
2015    3       6       0.4565819       99.86346
2015    3       7       0.3466041       80.25887
2015    4       0       0.4458324       95.68814
2015    4       1       0.210521        53.39557
2015    4       2       0.0869103       27.35894
2015    4       3       0.1165208       34.30344
2015    4       4       0.1251904       36.06403
2015    4       5       0.2115873       53.90114
2015    4       6       0.4134219       90.46995
2015    4       7       0.6755563       129.8056
2015    5       0       0.6450951       125.9237
2015    5       1       1.540028        208.157
2015    5       2       2.317278        243.1897
2015    5       3       2.621785        251.984
2015    5       4       2.298915        243.2215
2015    5       5       2.236414        241.5075
2015    5       6       0.6191328       127.083
2015    5       7       0.160742        44.28356
2015    6       0       0.1375304       39.33517
2015    6       1       0.1498555       41.82422
2015    6       2       0.1474061       41.7238
2015    6       3       0.1380995       39.61801
2015    6       4       0.1990824       52.92916
2015    6       5       0.2832331       69.50251
2015    6       6       0.3028935       72.7162
2015    6       7       0.3399804       79.85924
2015    7       0       0.3331892       79.03556
2015    7       1       0.3077785       74.53644
2015    7       2       0.3925665       89.31831
2015    7       3       0.5488168       113.7805
2015    7       4       0.622559        124.4391
2015    7       5       0.7433135       140.4709
2015    7       6       0.6387971       127.8857
2015    7       7       0.5628777       116.9989
2015    8       0       0.4798906       103.3693
2015    8       1       0.6940005       133.2803
2015    8       2       1.127126        179.0488
2015    8       3       1.919694        228.2001
2015    8       4       2.182709        238.5124
2015    8       5       2.311149        243.7887
2015    8       6       2.396691        246.1009
2015    8       7       1.914215        230.7045
2015    9       0       2.164907        239.2345
2015    9       1       1.755324        222.1797
2015    9       2       1.183083        183.6602
2015    9       3       1.168437        182.2286
2015    9       4       0.6705628       128.9492
2015    9       5       0.3435776       78.65101
2015    9       6       0.2162464       54.80391
2015    9       7       0.2675093       65.74739
2015    10      0       0.3280377       77.57279
2015    10      1       0.3760304       86.67531
2015    10      2       0.3956295       90.18956
2015    10      3       0.3766222       87.46603
2015    10      4       0.4103121       92.5415
2015    10      5       0.4787739       103.5415
2015    10      6       0.6763924       132.5101
2015    10      7       0.8975163       157.7741
2015    11      0       0.963796        164.7902
2015    11      1       1.039638        172.8066
2015    11      2       1.231364        189.7277
2015    11      3       1.640273        216.812
2015    11      4       1.945818        230.8947
2015    11      5       2.17011         239.1476
2015    11      6       2.479557        248.0971
2015    11      7       2.477367        247.8128
2015    12      0       1.675208        219.9174
2015    12      1       1.884461        229.0326
2015    12      2       1.103353        181.8946
2015    12      3       0.4595538       102.7132
2015    12      4       0.214058        57.01881
2015    12      5       0.116654        34.50563
2015    12      6       0.2335978       58.892
2015    12      7       0.2676454       65.79516
2015    13      0       0.3803815       86.91348
2015    13      1       0.4862904       104.1837
2015    13      2       0.6389973       126.3633
2015    13      3       1.136921        180.3012
2015    13      4       1.621651        213.6207
2015    13      5       1.819462        223.5863
2015    13      6       2.038029        233.1362
2015    13      7       1.617752        215.7618
2015    14      0       1.630338        216.3946
2015    14      1       1.671335        219.0023
2015    14      2       1.480697        208.605
2015    14      3       1.349988        198.458
2015    14      4       1.341821        198.1505
2015    14      5       0.8065859       150.1204
2015    14      6       0.6539862       130.8766
2015    14      7       0.5870963       121.8789
2015    15      0       0.5580648       117.7856
2015    15      1       0.6173714       126.1041
2015    15      2       0.7365157       141.9259
2015    15      3       0.7614069       144.4653
2015    15      4       0.7834264       146.7452
2015    15      5       0.867663        155.3889
2015    15      6       1.199289        185.6618
2015    15      7       1.617925        213.3268
2015    16      0       1.823194        224.3241
2015    16      1       1.954865        229.5843
2015    16      2       1.764924        222.5443
2015    16      3       1.437858        205.3908
2015    16      4       1.33611         198.6459
2015    16      5       1.303112        196.4178
2015    16      6       1.265808        193.8207
2015    16      7       1.326446        197.9373
2015    17      0       1.078311        178.546
2015    17      1       1.168775        185.8609
2015    17      2       1.484806        207.8268
2015    17      3       1.696025        219.2253
2015    17      4       1.669185        217.1543
2015    17      5       1.421447        202.5143
2015    17      6       1.231157        188.42
2015    17      7       1.238995        188.8957
2015    18      0       1.30699         194.4817
2015    18      1       1.512052        208.0255
2015    18      2       1.612137        213.9241
2015    18      3       1.718021        219.9925
2015    18      4       1.917266        229.6584
2015    18      5       2.191958        240.3096
2015    18      6       2.2972          243.9307
2015    18      7       2.234326        242.1489
2015    19      0       1.962853        232.312
2015    19      1       1.887965        229.756
2015    19      2       1.763598        224.3561
2015    19      3       1.069646        179.3667
2015    19      4       1.148053        186.1033
2015    19      5       0.6824157       136.2848
2015    19      6       0.5688793       119.8313
2015    19      7       0.5004197       109.0841
2015    20      0       0.4605189       101.9139
2015    20      1       0.604247        124.0532
2015    20      2       1.002421        169.0634
2015    20      3       1.086762        177.4879
2015    20      4       0.9838435       167.6411
2015    20      5       0.7914775       146.3362
2015    20      6       0.9759124       166.1716
2015    20      7       1.375763        198.2049
2015    21      0       1.376611        197.969
2015    21      1       1.152094        182.1016
2015    21      2       0.9113477       159.1678
2015    21      3       0.9952019       169.2878
2015    21      4       0.7937799       148.6603
2015    21      5       0.6576355       131.2668
2015    21      6       0.5431989       114.9825
2015    21      7       0.3060955       75.33274
2015    22      0       0.1653257       46.07542
2015    22      1       0.293196        71.95425
2015    22      2       0.4585846       100.4676
2015    22      3       0.6197676       123.7404
2015    22      4       0.6258503       124.4895
2015    22      5       0.881982        156.516
2015    22      6       1.114107        180.5293
2015    22      7       1.105858        179.4816
2015    23      0       0.8969569       160.024
2015    23      1       0.6839995       134.0897
2015    23      2       0.9668576       165.8626
2015    23      3       0.9018071       158.6691
2015    23      4       1.106505        178.7463
2015    23      5       1.407724        201.369
2015    23      6       1.171818        184.7596
2015    23      7       0.6626364       132.2216
2015    24      0       0.5302452       113.6259
2015    24      1       0.6343722       128.6256
2015    24      2       0.875788        158.0267
2015    24      3       0.8767509       158.1645
2015    24      4       0.7735726       146.087
2015    24      5       0.6204149       125.5861
2015    24      6       0.8283169       151.403
2015    24      7       1.014361        170.5484
2015    25      0       0.6316195       127.8959
2015    25      1       0.4139469       95.14381
2015    25      2       0.3584206       85.48139
2015    25      3       0.2185274       57.56243
2015    25      4       0.2224965       57.51753
2015    25      5       0.2600961       64.6515
2015    25      6       0.6005652       120.3286
2015    25      7       1.30991         194.6727
2015    26      0       2.075321        235.4115
2015    26      1       2.342284        245.3636
2015    26      2       2.613244        251.7315
2015    26      3       1.865649        231.6848
2015    26      4       2.628769        255.3411
2015    26      5       1.043464        177.973
2015    26      6       0.7933442       150.3994
2015    26      7       0.7563729       145.5642
2015    27      0       0.8632567       157.0783
2015    27      1       1.45219         206.7461
2015    27      2       1.721119        222.6145
2015    27      3       1.093606        179.2312
2015    27      4       0.3689059       86.9114
2015    27      5       0.4482687       101.4731
2015    27      6       0.5377492       115.6834
2015    27      7       0.329235        79.68687
2015    28      0       0.2167588       55.87355
2015    28      1       0.1942426       51.14483
2015    28      2       0.1995663       52.64211
2015    28      3       0.1645271       45.77882
2015    28      4       0.1337799       39.01872
2015    28      5       0.1312806       38.26613
2015    28      6       0.1398803       40.12782
2015    28      7       0.1780104       48.2588
2015    29      0       0.1651409       45.62063
2015    29      1       0.1755564       47.97552
2015    29      2       0.2097764       55.52999
2015    29      3       0.2291226       59.79478
2015    29      4       0.2430997       62.87172
2015    29      5       0.2910002       72.355
2015    29      6       0.3595069       84.77304
2015    29      7       0.5802071       117.6886
2015    30      0       0.9050586       158.184
2015    30      1       1.138908        181.4018
2015    30      2       1.134759        181.7923
2015    30      3       1.897069        229.2279
2015    30      4       2.718015        253.8577
2015    30      5       2.935283        257.8735
2015    30      6       2.735625        254.5733
2015    30      7       2.599576        252.3824
2016    1       0       0.7346268       136.3074
2016    1       1       0.3827243       85.71283
2016    1       2       0.2074845       53.41683
2016    1       3       0.1290219       37.15324
2016    1       4       0.09193528      28.81767
2016    1       5       0.1065176       32.23321
2016    1       6       0.105195        31.90308
2016    1       7       0.1298519       37.46674
2016    2       0       0.1802144       48.41597
2016    2       1       0.1362925       38.93023
2016    2       2       0.1246569       36.32241
2016    2       3       0.09824174      30.29416
2016    2       4       0.09513847      29.33423
2016    2       5       0.1343578       38.06208
2016    2       6       0.1571762       42.89075
2016    2       7       0.1882041       49.33189
2016    3       0       0.2068558       53.44861
2016    3       1       0.2179481       56.15235
2016    3       2       0.3607818       83.69462
2016    3       3       0.3086502       74.22317
2016    3       4       0.2592779       64.82788
2016    3       5       0.1871592       49.90541
2016    3       6       0.1903033       49.60847
2016    3       7       0.2884825       68.2547
2016    4       0       0.4392779       94.91372
2016    4       1       0.821336        147.1729
2016    4       2       1.337496        194.7335
2016    4       3       1.656346        214.8876
2016    4       4       1.775882        221.8306
2016    4       5       1.874433        226.8074
2016    4       6       1.828584        224.075
2016    4       7       1.773535        222.4706
2016    5       0       1.486785        208.9723
2016    5       1       1.435391        206.061
2016    5       2       1.301898        196.0186
2016    5       3       0.5719215       120.0572
2016    5       4       0.4053667       93.6011
2016    5       5       0.3159709       76.82958
2016    5       6       0.2631063       66.19503
2016    5       7       0.2777649       68.25231
2016    6       0       0.2973568       72.0593
2016    6       1       0.3586941       83.34457
2016    6       2       0.4351532       96.56505
2016    6       3       0.5105511       108.0779
2016    6       4       0.6673843       129.684
2016    6       5       0.8798517       154.9111
2016    6       6       1.009973        168.2715
2016    6       7       1.035881        171.2427
2016    7       0       1.122453        178.9711
2016    7       1       1.245763        188.9921
2016    7       2       1.174696        183.8298
2016    7       3       1.309254        193.9221
2016    7       4       1.395974        199.7299
2016    7       5       1.324632        195.0273
2016    7       6       1.320581        194.8728
2016    7       7       0.9868776       168.3409
2016    8       0       0.5917195       122.4167
2016    8       1       0.4984492       108.1161
2016    8       2       0.8087246       149.4888
2016    8       3       1.02901         171.9954
2016    8       4       0.9561476       164.6662
2016    8       5       0.7098231       136.9922
2016    8       6       0.3794565       87.78523
2016    8       7       0.4606641       100.6877
2016    9       0       0.7378754       138.9349
2016    9       1       1.019579        170.1728
2016    9       2       0.9607197       166.2357
2016    9       3       1.298044        194.9878
2016    9       4       1.451179        205.0016
2016    9       5       1.009164        170.851
2016    9       6       0.6552669       131.0025
2016    9       7       0.3264914       78.3233
2016    10      0       0.3032533       73.52854
2016    10      1       0.3123532       74.92139
2016    10      2       0.3269171       77.72561
2016    10      3       0.3229894       77.13303
2016    10      4       0.2403197       61.52316
2016    10      5       0.1627882       45.3417
2016    10      6       0.1457947       41.70158
2016    10      7       0.1397424       40.42723
2016    11      0       0.1715551       47.28529
2016    11      1       0.2598817       65.2217
2016    11      2       0.4293514       96.19933
2016    11      3       0.6852242       133.7812
2016    11      4       1.014582        169.6825
2016    11      5       0.921199        161.5675
2016    11      6       0.985198        168.4247
2016    11      7       0.9887776       169.7742
2016    12      0       0.8374587       154.0252
2016    12      1       0.7711597       145.99
2016    12      2       0.9884659       168.3618
2016    12      3       1.258784        191.186
2016    12      4       1.841445        224.9339
2016    12      5       2.28892         242.1296
2016    12      6       2.644464        252.2297
2016    12      7       2.957476        258.4851
2016    13      0       2.050808        237.8805
2016    13      1       1.544267        214.005
2016    13      2       1.402087        204.7023
2016    13      3       1.291432        197.2007
2016    13      4       0.9995357       173.0815
2016    13      5       0.8184025       153.3761
2016    13      6       0.7366446       142.6489
2016    13      7       0.7365289       141.509
2016    14      0       0.6512251       130.5319
2016    14      1       0.3552754       84.23534
2016    14      2       0.498828        109.4119
2016    14      3       0.7141241       140.2717
2016    14      4       0.4806943       106.0288
2016    14      5       0.3123214       75.90202
2016    14      6       0.3518929       83.2276
2016    14      7       0.4321326       96.35207
2016    15      0       0.527128        112.133
2016    15      1       0.6971025       137.1347
2016    15      2       0.9895591       169.4094
2016    15      3       1.109932        179.7264
2016    15      4       1.184036        185.7382
2016    15      5       1.314567        195.4148
2016    15      6       1.646969        215.3816
2016    15      7       1.663007        216.6394
2016    16      0       1.891295        226.742
2016    16      1       2.161497        239.0117
2016    16      2       2.742029        254.637
2016    16      3       2.508707        249.8858
2016    16      4       2.139237        240.8559
2016    16      5       2.560065        253.0979
2016    16      6       1.95786         235.0203
2016    16      7       1.824522        228.3775
2016    17      0       1.423494        205.6489
2016    17      1       1.048673        175.0962
2016    17      2       0.8149163       150.0923
2016    17      3       0.722528        138.2402
2016    17      4       0.3746946       86.38196
2016    17      5       0.2978961       71.94159
2016    17      6       0.1811491       48.38767
2016    17      7       0.2121424       55.30789
2016    18      0       0.4963566       108.8696
2016    18      1       0.5096918       111.1803
2016    18      2       0.4717788       104.7013
2016    18      3       0.4918524       107.7734
2016    18      4       0.5560116       118.0177
2016    18      5       0.669179        133.1376
2016    18      6       0.5735359       118.9036
2016    18      7       0.4345267       96.19623
2016    19      0       0.8080929       148.5467
2016    19      1       1.78373         223.0688
2016    19      2       1.638449        215.1663
2016    19      3       1.783039        223.7627
2016    19      4       0.8518249       157.0686
2016    19      5       0.4499781       100.8884
2016    19      6       1.576221        215.0746
2016    19      7       0.2238706       58.23954
2016    20      0       0.2404127       61.60685
2016    20      1       0.2473941       62.65163
2016    20      2       0.2531434       64.30632
2016    20      3       0.1985985       52.80261
2016    20      4       0.3854165       87.80023
2016    20      5       1.120104        180.0285
2016    20      6       1.454673        205.1879
2016    20      7       2.007874        231.8684
2016    21      0       2.015839        232.4691
2016    21      1       2.019001        232.8872
2016    21      2       1.105707        181.1741
2016    21      3       0.7703755       146.6404
2016    21      4       0.7735603       146.6495
2016    21      5       1.208514        189.1281
2016    21      6       1.539966        210.9053
2016    21      7       1.47996         207.4388
2016    22      0       2.139672        238.9127
2016    22      1       1.258751        194.1081
2016    22      2       1.389676        203.6868
2016    22      3       1.836017        228.1311
2016    22      4       2.003135        234.3754
2016    22      5       2.299092        243.0027
2016    22      6       2.717698        253.4178
2016    22      7       2.559759        249.5972
2016    23      0       2.445843        247.5795
2016    23      1       1.949354        234.6639
2016    23      2       0.2319037       61.0885
2016    23      3       0.3523527       83.82032
2016    23      4       0.473293        104.773
2016    23      5       0.4608407       102.3847
2016    23      6       0.5291818       111.9772
2016    23      7       0.3630279       83.00949
2016    24      0       0.5374735       111.7391
2016    24      1       1.211654        188.4723
2016    24      2       2.073593        235.726
2016    24      3       2.245273        241.3593
2016    24      4       2.071855        236.3995
2016    24      5       1.571765        215.1729
2016    24      6       2.259981        244.0353
2016    24      7       2.019548        235.2632
2016    25      0       1.528983        212.1327
2016    25      1       1.631205        218.2821
2016    25      2       1.34762         200.0165
2016    25      3       1.718339        221.093
2016    25      4       1.516609        209.8724
2016    25      5       1.297686        195.123
2016    25      6       0.3855584       88.44816
2016    25      7       0.2346459       59.87755
2016    26      0       0.1967327       52.45217
2016    26      1       0.2104059       55.18469
2016    26      2       0.2205831       57.56463
2016    26      3       0.1226839       36.41593
2016    26      4       0.1498504       42.64135
2016    26      5       0.1331856       38.63463
2016    26      6       0.1093811       32.75137
2016    26      7       0.1103791       32.7511
2016    27      0       0.109559        32.78995
2016    27      1       0.192922        50.06542
2016    27      2       0.3242748       75.67085
2016    27      3       0.6387829       124.8446
2016    27      4       1.26906         190.719
2016    27      5       2.200271        239.3208
2016    27      6       2.367435        244.8602
2016    27      7       2.292445        244.22
2016    28      0       1.542108        212.6551
2016    28      1       1.735441        222.3068
2016    28      2       0.9228891       164.1117
2016    28      3       0.9053363       161.4004
2016    28      4       1.379338        200.6397
2016    28      5       1.887396        228.4906
2016    28      6       1.864876        228.4213
2016    28      7       2.02209         235.3075
2016    29      0       1.866521        229.5662
2016    29      1       2.097363        237.7376
2016    29      2       2.203077        241.4145
2016    29      3       2.548945        250.6809
2016    29      4       2.474032        249.4555
2016    29      5       2.102449        238.5224
2016    29      6       1.996178        234.0729
2016    29      7       2.013594        233.9603
2016    30      0       1.829796        226.1415
2016    30      1       1.909957        229.5327
2016    30      2       1.922863        229.9288
2016    30      3       1.581585        212.9979
2016    30      4       1.755836        223.1294
2016    30      5       1.461564        206.8277
2016    30      6       0.6340293       128.9528
2016    30      7       0.307493        76.0094
2017    1       0       1.67648         215.9225
2017    1       1       0.8751209       158.4106
2017    1       2       0.4232996       96.09136
2017    1       3       0.5636155       116.332
2017    1       4       0.751386        139.9033
2017    1       5       0.8759063       153.438
2017    1       6       0.8723014       154.8612
2017    1       7       0.3060368       74.33116
2017    2       0       0.1423731       40.4798
2017    2       1       0.141901        40.68457
2017    2       2       0.1478152       42.07972
2017    2       3       0.2182031       57.27155
2017    2       4       0.2997158       73.82
2017    2       5       0.4036391       93.34791
2017    2       6       0.3768892       89.10618
2017    2       7       0.2544606       65.28224
2017    3       0       0.4392732       98.51176
2017    3       1       0.6230515       126.174
2017    3       2       0.2302054       59.35222
2017    3       3       0.1666573       45.33493
2017    3       4       0.2138117       54.37191
2017    3       5       0.2943614       69.77703
2017    3       6       0.3229305       75.03117
2017    3       7       0.2911256       68.72557
2017    4       0       0.2348502       58.53046
2017    4       1       0.2153418       55.14131
2017    4       2       0.2195591       56.26666
2017    4       3       0.1866627       49.58749
2017    4       4       0.1482238       40.99882
2017    4       5       0.1153996       34.04101
2017    4       6       0.09937684      30.46221
2017    4       7       0.1048508       31.67159
2017    5       0       0.160521        44.06528
2017    5       1       0.2611609       64.69741
2017    5       2       0.3617967       82.97016
2017    5       3       0.3548509       82.97386
2017    5       4       0.2696074       67.00535
2017    5       5       0.2544407       64.13236
2017    5       6       0.1661017       46.14718
2017    5       7       0.1008039       30.98587
2017    6       0       0.1291965       37.03058
2017    6       1       0.1883455       49.42811
2017    6       2       0.2202467       55.38839
2017    6       3       0.2576818       62.57217
2017    6       4       0.3077801       72.11501
2017    6       5       0.4500887       96.41349
2017    6       6       0.6542859       126.8621
2017    6       7       0.8561777       152.4147
2017    7       0       1.300081        192.8882
2017    7       1       1.838026        224.6977
2017    7       2       1.965762        230.767
2017    7       3       1.952459        230.3545
2017    7       4       1.966008        231.2599
2017    7       5       2.182025        239.4116
2017    7       6       2.293251        242.2853
2017    7       7       0.9936057       169.498
2017    8       0       0.5847927       120.8727
2017    8       1       0.498598        109.0067
2017    8       2       0.369833        87.00802
2017    8       3       0.4679549       103.339
2017    8       4       0.2545227       64.44327
2017    8       5       0.1637657       44.4584
2017    8       6       0.2462632       60.36007
2017    8       7       0.2971931       69.98142
2017    9       0       0.2984393       70.20235
2017    9       1       0.3469087       79.83072
2017    9       2       0.4155345       92.09341
2017    9       3       0.4592753       98.83796
2017    9       4       0.8567484       151.2487
2017    9       5       0.3882025       88.72289
2017    9       6       0.2401633       61.13446
2017    9       7       0.275129        68.60483
2017    10      0       0.1769647       48.21044
2017    10      1       0.2086178       54.03352
2017    10      2       0.5083641       107.6258
2017    10      3       0.6740509       132.2477
2017    10      4       0.6253431       125.5831
2017    10      5       0.6006213       121.5381
2017    10      6       0.6227972       124.061
2017    10      7       0.6215804       123.0622
2017    11      0       0.5653664       115.5963
2017    11      1       0.5151751       108.1863
2017    11      2       0.3464311       80.67411
2017    11      3       0.2092565       54.94476
2017    11      4       0.1667474       45.7439
2017    11      5       0.2187019       56.98458
2017    11      6       0.2555881       64.12208
2017    11      7       0.2460711       61.81155
2017    12      0       0.3010458       71.88095
2017    12      1       0.2666222       65.63491
2017    12      2       0.2422821       61.10914
2017    12      3       0.2942055       70.7134
2017    12      4       0.3624818       83.06385
2017    12      5       0.4860576       103.161
2017    12      6       0.5499365       113.0598
2017    12      7       0.6103403       122.4464
2017    13      0       0.7127315       136.7508
2017    13      1       0.7473748       141.4693
2017    13      2       0.7402636       141.432
2017    13      3       0.6767784       133.0442
2017    13      4       0.4766424       103.7764
2017    13      5       0.4181255       93.6669
2017    13      6       0.388424        87.80896
2017    13      7       0.3752544       85.67453
2017    14      0       0.3483112       81.37212
2017    14      1       0.3481558       81.27956
2017    14      2       0.2967714       72.09885
2017    14      3       0.2327296       59.63489
2017    14      4       0.1712473       46.67095
2017    14      5       0.1495653       41.67716
2017    14      6       0.1754156       47.02396
2017    14      7       0.1478369       41.53496
2017    15      0       0.1098949       33.22428
2017    15      1       0.1496537       41.83425
2017    15      2       0.2459153       62.7216
2017    15      3       0.3116684       75.98976
2017    15      4       0.3056078       74.96032
2017    15      5       0.2542822       64.70812
2017    15      6       0.2051282       54.46158
2017    15      7       0.2327829       59.61397
2017    16      0       0.1789426       48.15084
2017    16      1       0.171835        46.58025
2017    16      2       0.1276916       36.62717
2017    16      3       0.1400227       39.79747
2017    16      4       0.107284        32.60558
2017    16      5       0.09454948      29.58395
2017    16      6       0.08795064      27.93452
2017    16      7       0.09442985      29.628
2017    17      0       0.09292262      29.2484
2017    17      1       0.08975441      28.27809
2017    17      2       0.1150828       33.94154
2017    17      3       0.1727003       45.84482
2017    17      4       0.2513833       61.21387
2017    17      5       0.3988951       87.785
2017    17      6       0.6889682       130.7513
2017    17      7       1.095257        174.6903
2017    18      0       1.473132        203.7004
2017    18      1       1.639155        213.862
2017    18      2       1.48445         206.7229
2017    18      3       1.416229        202.0473
2017    18      4       1.343653        196.4329
2017    18      5       1.31959         194.1827
2017    18      6       1.021097        169.5746
2017    18      7       0.6931871       132.677
2017    19      0       0.5437251       112.2341
2017    19      1       0.5723407       117.5428
2017    19      2       0.5711414       118.3056
2017    19      3       0.5075456       109.4714
2017    19      4       0.387498        89.66464
2017    19      5       0.2768657       69.13292
2017    19      6       0.266815        67.06862
2017    19      7       0.2859285       70.41398
2017    20      0       0.3315168       78.33256
2017    20      1       0.3301837       77.78674
2017    20      2       0.345666        80.01998
2017    20      3       0.4987732       105.3697
2017    20      4       0.6931128       132.7829
2017    20      5       1.152871        181.1315
2017    20      6       2.139347        236.8512
2017    20      7       2.426325        246.4745
2017    21      0       2.441216        246.6127
2017    21      1       2.856143        257.5205
2017    21      2       2.095273        240.6859
2017    21      3       0.9509908       168.7708
2017    21      4       0.3458683       81.00471
2017    21      5       0.4189799       91.5727
2017    21      6       0.65876         127.3589
2017    21      7       1.245957        189.4807
2017    22      0       1.050565        173.8573
2017    22      1       0.7645998       143.8472
2017    22      2       0.6403754       127.7544
2017    22      3       0.8039411       148.039
2017    22      4       0.8586677       155.3708
2017    22      5       1.200366        187.6523
2017    22      6       0.9870497       169.3501
2017    22      7       0.6341629       127.7786
2017    23      0       0.3823567       87.50734
2017    23      1       0.3358889       78.29355
2017    23      2       0.3874817       87.97168
2017    23      3       0.4845571       104.4301
2017    23      4       0.5462593       114.3356
2017    23      5       0.604413        123.4793
2017    23      6       0.8461394       154.6451
2017    23      7       1.058234        176.8356
2017    24      0       1.07259         178.454
2017    24      1       0.9217403       163.9314
2017    24      2       0.9222485       163.1506
2017    24      3       1.046191        174.6411
2017    24      4       1.348492        199.1018
2017    24      5       1.825516        225.1968
2017    24      6       2.173616        238.6243
2017    24      7       2.315683        243.1202
2017    25      0       2.508797        249.0623
2017    25      1       1.58312         214.6432
2017    25      2       1.518532        211.6178
2017    25      3       1.574042        212.4294
2017    25      4       1.332302        197.1799
2017    25      5       1.473036        205.7655
2017    25      6       1.897273        227.3725
2017    25      7       1.952642        230.2118
2017    26      0       2.076251        235.1009
2017    26      1       1.593009        213.2963
2017    26      2       1.488642        207.0612
2017    26      3       1.209516        187.9674
2017    26      4       1.43256         203.683
2017    26      5       2.087058        235.4208
2017    26      6       2.171149        238.5522
2017    26      7       2.107966        236.0368
2017    27      0       1.81119         224.1883
2017    27      1       1.632988        215.6944
2017    27      2       1.720811        220.5752
2017    27      3       1.891009        228.8595
2017    27      4       1.94969         231.8505
2017    27      5       2.318293        243.8065
2017    27      6       2.374197        246.6903
2017    27      7       2.418226        246.5786
2017    28      0       2.412105        246.0848
2017    28      1       2.291872        242.5961
2017    28      2       1.971872        232.5923
2017    28      3       1.118333        183.9795
2017    28      4       0.8337045       154.8349
2017    28      5       0.8677774       157.6908
2017    28      6       1.07599         177.6187
2017    28      7       1.161488        184.0426
2017    29      0       1.268722        192.6063
2017    29      1       1.59838         214.0936
2017    29      2       2.003795        233.4359
2017    29      3       2.432494        247.3924
2017    29      4       1.847205        228.21
2017    29      5       1.892727        229.9073
2017    29      6       2.114479        237.6739
2017    29      7       2.094856        236.0813
2017    30      0       2.206194        239.2155
2017    30      1       2.338161        244.3025
2017    30      2       2.27543         243.2788
2017    30      3       1.824019        226.9074
2017    30      4       1.669785        220.1124
2017    30      5       2.084322        236.9954
2017    30      6       2.625235        251.3408
2017    30      7       2.596376        250.5368
2018    1       0       0.1765221       47.4157
2018    1       1       0.150214        42.39926
2018    1       2       0.1300541       37.85396
2018    1       3       0.1226438       36.11635
2018    1       4       0.1263773       36.90988
2018    1       5       0.1254425       36.80327
2018    1       6       0.1294333       37.76416
2018    1       7       0.1313567       38.27564
2018    2       0       0.1222199       36.24367
2018    2       1       0.1131887       34.11686
2018    2       2       0.105855        32.35798
2018    2       3       0.09816641      30.50644
2018    2       4       0.09676587      30.15373
2018    2       5       0.09359589      29.39075
2018    2       6       0.09119525      28.82859
2018    2       7       0.0859039       27.49358
2018    3       0       0.08382654      26.91353
2018    3       1       0.08545188      27.09243
2018    3       2       0.08913243      27.89869
2018    3       3       0.1408972       38.76004
2018    3       4       0.2346199       57.60468
2018    3       5       0.3276213       75.28398
2018    3       6       0.2989608       70.29333
2018    3       7       0.3572441       80.62897
2018    4       0       0.2919013       69.52094
2018    4       1       0.2465664       61.4062
2018    4       2       0.237462        59.76046
2018    4       3       0.1867671       49.97651
2018    4       4       0.1705955       46.97382
2018    4       5       0.2218925       57.62316
2018    4       6       0.3342889       79.14392
2018    4       7       0.3870303       88.46236
2018    5       0       0.4336233       96.22513
2018    5       1       0.5559837       117.1655
2018    5       2       0.7348564       141.4619
2018    5       3       1.333941        197.1351
2018    5       4       2.122266        237.2612
2018    5       5       2.061562        235.7179
2018    5       6       2.473571        247.4315
2018    5       7       2.201787        239.792
2018    6       0       2.290594        242.9606
2018    6       1       2.45412         247.3048
2018    6       2       2.407048        245.7989
2018    6       3       2.290604        242.5594
2018    6       4       1.987581        232.9416
2018    6       5       1.879548        227.4862
2018    6       6       1.508211        208.1895
2018    6       7       1.06574         176.783
2018    7       0       0.6537912       131.6641
2018    7       1       0.2834041       70.90589
2018    7       2       0.2279573       59.70608
2018    7       3       0.2471159       63.68542
2018    7       4       0.2238271       58.76982
2018    7       5       0.2204283       57.9996
2018    7       6       0.1969085       52.76917
2018    7       7       0.1681889       46.44449
2018    8       0       0.1812675       49.13878
2018    8       1       0.198726        53.07717
2018    8       2       1.58391         217.1745
2018    8       3       0.8757615       160.2034
2018    8       4       1.068984        177.3002
2018    8       5       1.456707        206.8607
2018    8       6       2.002845        234.191
2018    8       7       1.629419        216.8341
2018    9       0       0.8004708       151.0246
2018    9       1       0.6129748       126.3631
2018    9       2       0.4954965       108.8417
2018    9       3       0.44348         100.3257
2018    9       4       0.4182775       95.81615
2018    9       5       0.4191336       95.48414
2018    9       6       0.5049688       108.3373
2018    9       7       1.103744        179.103
2018    10      0       2.202316        240.8004
2018    10      1       2.046391        236.1102
2018    10      2       2.126674        237.8182
2018    10      3       1.90414         229.6988
2018    10      4       1.862199        227.3482
2018    10      5       2.045944        234.4295
2018    10      6       2.327706        243.6798
2018    10      7       2.608169        251.3057
2018    11      0       2.690787        253.5989
2018    11      1       2.378096        247.81
2018    11      2       1.542429        216.6762
2018    11      3       1.357339        204.131
2018    11      4       1.428898        207.5923
2018    11      5       1.223412        193.6562
2018    11      6       1.303854        195.3774
2018    11      7       0.6254694       126.77
2018    12      0       0.3102445       75.53838
2018    12      1       0.122626        35.87443
2018    12      2       0.1353476       38.81049
2018    12      3       0.2171167       55.82829
2018    12      4       0.2210913       56.63978
2018    12      5       0.1970288       51.8106
2018    12      6       0.1737556       47.18377
2018    12      7       0.1763383       47.78982
2018    13      0       0.1904425       50.79535
2018    13      1       0.1718278       47.17822
2018    13      2       0.185356        50.02522
2018    13      3       0.1599353       44.78143
2018    13      4       0.1191561       35.66041
2018    13      5       0.144415        41.31699
2018    13      6       0.2210153       57.55005
2018    13      7       0.2400705       61.51544
2018    14      0       0.2177808       56.61543
2018    14      1       0.2131644       54.52551
2018    14      2       0.2741006       66.16887
2018    14      3       0.390853        87.33837
2018    14      4       0.6314527       124.2326
2018    14      5       1.19177         183.8156
2018    14      6       2.026198        231.2727
2018    14      7       2.233317        238.1962
2018    15      0       2.204274        237.581
2018    15      1       1.955134        230.8846
2018    15      2       1.86369         228.2503
2018    15      3       1.504762        209.7908
2018    15      4       1.336843        199.078
2018    15      5       1.093325        179.8834
2018    15      6       0.9727738       168.4666
2018    15      7       0.9587748       166.8005
2018    16      0       0.6415389       129.4039
2018    16      1       0.4826717       105.7003
2018    16      2       0.2240373       58.01552
2018    16      3       0.3517553       83.03387
2018    16      4       0.3656056       85.46554
2018    16      5       0.2410638       62.12593
2018    16      6       0.1001426       31.15376
2018    16      7       0.0878314       28.05289
2018    17      0       0.1017555       30.90202
2018    17      1       0.1566155       43.13719
2018    17      2       0.2194221       56.64855
2018    17      3       0.2507007       62.98073
2018    17      4       0.2909634       69.78483
2018    17      5       0.3708021       83.95995
2018    17      6       0.6162762       123.6864
2018    17      7       1.290529        192.9719
2018    18      0       1.918065        228.579
2018    18      1       2.102213        236.0617
2018    18      2       1.768954        223.8504
2018    18      3       1.287454        196.2024
2018    18      4       1.219105        190.5269
2018    18      5       1.135772        183.0283
2018    18      6       1.067006        176.7729
2018    18      7       1.174991        186.6787
2018    19      0       1.075607        177.8606
2018    19      1       0.9172488       162.7749
2018    19      2       1.091739        180.1694
2018    19      3       1.605153        215.4568
2018    19      4       2.028783        234.9454
2018    19      5       2.673647        253.281
2018    19      6       2.824692        257.83
2018    19      7       3.132796        261.5616
2018    20      0       2.944143        258.7035
2018    20      1       2.798208        257.1129
2018    20      2       2.736752        255.3086
2018    20      3       2.608201        253.4191
2018    20      4       2.926264        258.6037
2018    20      5       2.973706        260.7653
2018    20      6       3.474715        266.6839
2018    20      7       2.437402        249.4712
2018    21      0       2.48338         248.1645
2018    21      1       3.04364         259.3782
2018    21      2       1.981083        232.1105
2018    21      3       0.4014765       88.53244
2018    21      4       0.2216844       55.17453
2018    21      5       0.2409066       59.09202
2018    21      6       0.1181396       34.66152
2018    21      7       0.1753228       46.84866
2018    22      0       0.3007409       71.89327
2018    22      1       0.5808601       116.7869
2018    22      2       0.307354        72.82902
2018    22      3       0.2460807       61.33411
2018    22      4       0.2614872       63.96936
2018    22      5       0.4092444       90.40094
2018    22      6       0.54638         111.9116
2018    22      7       1.257169        189.7767
2018    23      0       1.540383        210.491
2018    23      1       2.724156        253.3251
2018    23      2       3.149743        261.7042
2018    23      3       2.36387         247.1828
2018    23      4       1.474709        210.2797
2018    23      5       2.385405        246.7279
2018    23      6       2.75655         255.5046
2018    23      7       1.97904         233.8611
2018    24      0       0.7574621       145.1321
2018    24      1       0.5933654       122.9943
2018    24      2       0.5400928       115.5697
2018    24      3       0.763119        146.2352
2018    24      4       0.5133131       111.1772
2018    24      5       0.3625533       85.38335
2018    24      6       0.3097776       75.29634
2018    24      7       0.2951743       72.98776
2018    25      0       0.2715518       68.47852
2018    25      1       0.2292374       60.20998
2018    25      2       0.2047394       54.67936
2018    25      3       0.2394204       61.82003
2018    25      4       0.2725053       68.279
2018    25      5       0.2822555       69.95497
2018    25      6       0.2874423       70.56975
2018    25      7       0.3279779       77.72625
2018    26      0       0.3468745       81.99985
2018    26      1       0.3253838       78.1176
2018    26      2       0.3291073       79.03874
2018    26      3       0.3644826       85.45087
2018    26      4       0.5091633       109.3129
2018    26      5       1.080366        179.4436
2018    26      6       1.69188         222.1393
2018    26      7       1.324098        199.1154
2018    27      0       1.565929        214.8303
2018    27      1       1.15698         187.2057
2018    27      2       1.143944        185.7254
2018    27      3       0.7871537       148.0771
2018    27      4       1.022064        174.2687
2018    27      5       1.917278        231.6042
2018    27      6       2.162591        239.8309
2018    27      7       2.233951        242.2019
2018    28      0       2.087899        237.3007
2018    28      1       1.51238         211.4379
2018    28      2       1.129546        184.768
2018    28      3       0.9648259       170.2611
2018    28      4       0.8456524       157.4708
2018    28      5       0.7484935       145.6519
2018    28      6       0.69533         139.0729
2018    28      7       0.6679838       135.2914
2018    29      0       0.6584859       134.1285
2018    29      1       0.7190827       141.8926
2018    29      2       1.016327        174.5775
2018    29      3       1.135073        184.9677
2018    29      4       0.8570805       156.4803
2018    29      5       0.9154465       162.7541
2018    29      6       0.9609597       167.6348
2018    29      7       1.255153        193.1306
2018    30      0       1.485058        209.1063
2018    30      1       1.133876        184.7294
2018    30      2       0.9575408       167.9379
2018    30      3       0.8918149       159.7372
2018    30      4       0.5647035       117.9797
2018    30      5       0.3665929       85.19691
2018    30      6       0.3526756       81.86996
2018    30      7       0.4273438       94.58492
