####################################################################################################
# Month: 11Nov                                                                                     #
# Station: KILI                                                                                    #
# Frequency: 345 GHz                                                                               #
# Columns are: year    day     segment         tau     Tb (K)                                      #
####################################################################################################
2009    1       0       0.8411681       153.1174
2009    1       1       0.8600324       154.7605
2009    1       2       0.8518074       153.7162
2009    1       3       0.8636441       155.1192
2009    1       4       0.9705679       166.7558
2009    1       5       0.9595651       165.7557
2009    1       6       0.8546889       155.2596
2009    1       7       0.7872135       147.8269
2009    2       0       0.7045216       137.5727
2009    2       1       0.5553574       116.8874
2009    2       2       0.4610722       102.2584
2009    2       3       0.4241878       96.03381
2009    2       4       0.6732326       133.4727
2009    2       5       0.7291288       140.9221
2009    2       6       0.6749235       134.0058
2009    2       7       0.7487659       142.9692
2009    3       0       0.7169241       138.909
2009    3       1       0.6977619       136.468
2009    3       2       0.7491449       142.8083
2009    3       3       0.8041482       149.3718
2009    3       4       0.6919671       135.9591
2009    3       5       0.5725167       119.7601
2009    3       6       0.459429        102.1497
2009    3       7       0.43155         97.24834
2009    4       0       0.4250575       95.99861
2009    4       1       0.4165283       94.43191
2009    4       2       0.464262        102.3711
2009    4       3       0.5564533       116.8865
2009    4       4       0.6377625       128.6906
2009    4       5       0.569365        119.1195
2009    4       6       0.5056427       109.3641
2009    4       7       0.553109        116.3748
2009    5       0       0.5485996       115.7368
2009    5       1       0.5335287       113.3814
2009    5       2       0.6453345       129.2305
2009    5       3       0.7853489       146.7369
2009    5       4       0.9895716       167.9222
2009    5       5       1.070649        175.5231
2009    5       6       0.9419064       163.9548
2009    5       7       0.7677676       145.065
2009    6       0       0.7576619       143.7028
2009    6       1       0.6973737       135.6631
2009    6       2       0.7953314       146.3727
2009    6       3       1.079187        173.9344
2009    6       4       1.328562        194.1639
2009    6       5       1.205841        186.1202
2009    6       6       1.130974        180.3035
2009    6       7       1.187095        186.1053
2009    7       0       1.026467        173.175
2009    7       1       0.91033         161.1567
2009    7       2       0.7894222       147.3895
2009    7       3       0.8280548       151.5678
2009    7       4       1.094823        177.3782
2009    7       5       1.348613        197.9152
2009    7       6       1.456801        205.3423
2009    7       7       1.401736        201.2616
2009    8       0       1.302783        193.9253
2009    8       1       1.16628         183.6189
2009    8       2       1.043563        173.4818
2009    8       3       1.124017        180.3029
2009    8       4       1.227404        187.8729
2009    8       5       1.37903         199.5067
2009    8       6       1.429965        203.1009
2009    8       7       1.379593        199.5355
2009    9       0       1.082687        177.247
2009    9       1       0.8464588       154.0844
2009    9       2       0.5576561       116.7371
2009    9       3       0.5069573       109.4018
2009    9       4       0.7504903       142.8578
2009    9       5       0.844648        153.5384
2009    9       6       0.6246508       126.1559
2009    9       7       0.5491137       115.1714
2009    10      0       0.5330353       112.514
2009    10      1       0.5572748       116.1737
2009    10      2       0.6817662       133.7376
2009    10      3       0.9044883       159.5086
2009    10      4       0.9418039       163.5084
2009    10      5       0.7951362       147.8316
2009    10      6       0.6080736       123.9693
2009    10      7       0.566448        118.0804
2009    11      0       0.6478838       129.4053
2009    11      1       0.7259172       139.3419
2009    11      2       0.8222899       150.5358
2009    11      3       1.097167        177.4067
2009    11      4       1.297642        192.3456
2009    11      5       1.326069        194.8522
2009    11      6       1.191545        185.4523
2009    11      7       1.1297          180.958
2009    12      0       1.224156        189.0694
2009    12      1       1.23938         190.3002
2009    12      2       1.287148        193.5752
2009    12      3       1.394959        200.5217
2009    12      4       1.500668        207.364
2009    12      5       1.491879        207.3941
2009    12      6       1.181315        186.5767
2009    12      7       0.9260527       163.4545
2009    13      0       0.8155497       151.3404
2009    13      1       0.855204        155.1717
2009    13      2       0.8924627       159.0383
2009    13      3       1.117036        180.1993
2009    13      4       1.410546        201.7241
2009    13      5       1.172444        185.1491
2009    13      6       0.9060888       161.2699
2009    13      7       0.8025704       149.8403
2009    14      0       0.7472858       143.229
2009    14      1       0.6516744       131.1624
2009    14      2       0.5947847       123.3813
2009    14      3       0.5525838       117.3142
2009    14      4       0.5329945       114.3275
2009    14      5       0.4828179       106.4876
2009    14      6       0.367484        86.87371
2009    14      7       0.3228971       78.49254
2009    15      0       0.3068669       75.41496
2009    15      1       0.2395878       62.09534
2009    15      2       0.1918925       52.09601
2009    15      3       0.1842706       50.4275
2009    15      4       0.2318643       60.57145
2009    15      5       0.2683304       67.96454
2009    15      6       0.1772147       48.89632
2009    15      7       0.1277382       37.6576
2009    16      0       0.1348859       39.29957
2009    16      1       0.1407217       40.67677
2009    16      2       0.1640955       45.97416
2009    16      3       0.2239085       58.84902
2009    16      4       0.3987092       91.93422
2009    16      5       0.4603076       102.2288
2009    16      6       0.3197488       77.74604
2009    16      7       0.2193558       57.92817
2009    17      0       0.1929032       52.27582
2009    17      1       0.1569966       44.3543
2009    17      2       0.207885        55.44428
2009    17      3       0.5651325       118.2118
2009    17      4       0.8464633       153.8736
2009    17      5       0.9047851       159.7945
2009    17      6       1.21991         189.275
2009    17      7       1.416226        203.4508
2009    18      0       1.482146        206.0512
2009    18      1       1.649046        214.5574
2009    18      2       1.793499        221.0031
2009    18      3       1.788583        220.6502
2009    18      4       1.649304        213.5699
2009    18      5       1.396495        199.7263
2009    18      6       1.134906        180.9242
2009    18      7       0.8223189       150.9469
2009    19      0       0.6114029       124.7005
2009    19      1       0.4091786       93.54777
2009    19      2       0.3538224       83.90736
2009    19      3       0.5624906       117.6755
2009    19      4       0.8746136       156.1684
2009    19      5       0.816367        149.4633
2009    19      6       0.7406659       142.0316
2009    19      7       0.8074198       150.9149
2009    20      0       0.5956504       123.2528
2009    20      1       0.2530443       64.66839
2009    20      2       0.189982        51.36915
2009    20      3       0.1975669       52.95347
2009    20      4       0.198409        53.21804
2009    20      5       0.175103        48.22274
2009    20      6       0.1404894       40.51212
2009    20      7       0.1391391       40.22324
2009    21      0       0.1650353       45.98467
2009    21      1       0.1796332       49.03613
2009    21      2       0.1556728       43.70043
2009    21      3       0.1525792       42.98874
2009    21      4       0.1599467       44.58998
2009    21      5       0.1591319       44.45338
2009    21      6       0.1834763       49.77535
2009    21      7       0.2050511       54.29423
2009    22      0       0.2015419       53.32591
2009    22      1       0.1993637       52.76123
2009    22      2       0.1859119       49.90524
2009    22      3       0.1989595       52.52928
2009    22      4       0.2506893       63.60052
2009    22      5       0.2085904       55.23636
2009    22      6       0.2511007       64.07563
2009    22      7       0.3048973       74.63017
2009    23      0       0.3211075       77.67266
2009    23      1       0.3598281       84.78425
2009    23      2       0.4218466       95.63778
2009    23      3       0.8263164       152.2951
2009    23      4       1.294299        194.5
2009    23      5       1.219829        188.3847
2009    23      6       1.001881        170.6023
2009    23      7       1.370573        198.7602
2009    24      0       1.270481        191.1159
2009    24      1       1.028035        171.4043
2009    24      2       0.8466584       153.4275
2009    24      3       0.85366         154.6409
2009    24      4       0.9270206       162.7823
2009    24      5       0.6715022       133.3943
2009    24      6       0.6032629       124.2196
2009    24      7       0.6682327       132.7169
2009    25      0       0.9336768       162.9586
2009    25      1       1.000016        169.2346
2009    25      2       0.9100258       160.5503
2009    25      3       0.9757719       167.4614
2009    25      4       1.031085        172.9597
2009    25      5       0.7938538       148.312
2009    25      6       0.6728517       133.1125
2009    25      7       0.6475157       129.6983
2009    26      0       0.5196623       111.1367
2009    26      1       0.3589393       84.24707
2009    26      2       0.296775        72.66803
2009    26      3       0.3411403       81.11154
2009    26      4       0.5193565       111.3755
2009    26      5       0.4727403       103.9867
2009    26      6       0.4394504       98.44037
2009    26      7       0.4428229       98.77806
2009    27      0       0.4164766       94.28556
2009    27      1       0.334723        79.8316
2009    27      2       0.3356472       80.16053
2009    27      3       0.4951408       107.4056
2009    27      4       0.7039059       137.2236
2009    27      5       0.614073        125.1161
2009    27      6       0.5178813       110.8438
2009    27      7       0.4918214       106.5028
2009    28      0       0.4799991       104.5731
2009    28      1       0.5160484       110.3274
2009    28      2       0.6822667       133.6385
2009    28      3       0.9209842       160.8236
2009    28      4       1.178264        184.2843
2009    28      5       1.099767        177.9303
2009    28      6       0.8562975       154.5717
2009    28      7       0.6765566       133.1331
2009    29      0       0.5319776       112.6151
2009    29      1       0.3900545       89.53631
2009    29      2       0.3074646       74.49183
2009    29      3       0.2516262       63.67884
2009    29      4       0.3300901       79.20412
2009    29      5       0.3318573       79.74185
2009    29      6       0.2387516       61.53837
2009    29      7       0.2103512       55.57088
2009    30      0       0.1997415       53.27817
2009    30      1       0.1858087       50.2587
2009    30      2       0.1877075       50.57778
2009    30      3       0.197357        52.6869
2009    30      4       0.2057798       54.55997
2009    30      5       0.2172099       57.09576
2009    30      6       0.1831505       49.8346
2009    30      7       0.189027        50.98968
2010    1       0       0.2718856       67.61757
2010    1       1       0.2691028       67.17834
2010    1       2       0.2781165       68.94117
2010    1       3       0.4054286       92.30455
2010    1       4       0.6781281       132.9874
2010    1       5       0.6745979       132.0255
2010    1       6       0.5585182       116.2784
2010    1       7       0.4452361       98.56536
2010    2       0       0.4019917       91.6049
2010    2       1       0.4054708       92.27608
2010    2       2       0.4733662       103.1813
2010    2       3       0.4463526       98.86758
2010    2       4       0.6804775       132.9321
2010    2       5       0.8365445       151.2853
2010    2       6       0.6250561       125.4323
2010    2       7       0.5938533       121.2245
2010    3       0       0.5895967       120.4449
2010    3       1       0.5690039       117.2773
2010    3       2       0.4986506       106.9412
2010    3       3       0.6243135       125.8067
2010    3       4       0.8543507       153.7463
2010    3       5       1.077548        176.0454
2010    3       6       1.319478        196.3647
2010    3       7       1.397338        201.4342
2010    4       0       1.110116        178.2411
2010    4       1       0.4854565       104.4085
2010    4       2       0.4838471       104.5113
2010    4       3       0.7314713       139.8381
2010    4       4       0.9064031       159.1881
2010    4       5       0.9381264       162.6964
2010    4       6       0.9771891       167.4004
2010    4       7       0.6558614       130.6008
2010    5       0       0.4365971       97.2918
2010    5       1       0.3409013       79.9993
2010    5       2       0.3928434       89.58743
2010    5       3       0.7058665       136.4068
2010    5       4       0.9353918       162.3015
2010    5       5       0.8059779       148.8907
2010    5       6       0.7040019       137.0858
2010    5       7       0.5181972       111.1543
2010    6       0       0.3657017       85.60706
2010    6       1       0.2442702       62.24428
2010    6       2       0.235037        60.5447
2010    6       3       0.3500488       82.7163
2010    6       4       0.6221211       125.9641
2010    6       5       0.5318587       113.0891
2010    6       6       0.32956         79.24108
2010    6       7       0.2619119       66.18632
2010    7       0       0.2258442       58.70711
2010    7       1       0.1994203       53.08952
2010    7       2       0.2111497       55.62436
2010    7       3       0.3992653       91.58214
2010    7       4       0.6368419       128.2126
2010    7       5       0.5791037       120.0109
2010    7       6       0.5021889       108.3917
2010    7       7       0.4686083       102.9512
2010    8       0       0.4387344       97.69286
2010    8       1       0.3693603       85.50454
2010    8       2       0.3905207       88.77679
2010    8       3       0.4108822       92.44954
2010    8       4       0.6402705       127.8469
2010    8       5       0.7105143       137.5254
2010    8       6       1.017012        171.033
2010    8       7       1.089187        178.1659
2010    9       0       1.070249        176.771
2010    9       1       0.8819431       158.4513
2010    9       2       0.8504997       154.9776
2010    9       3       1.184124        186.3129
2010    9       4       1.474631        206.2773
2010    9       5       1.414828        202.3832
2010    9       6       1.17374         185.2824
2010    9       7       1.027433        172.5299
2010    10      0       0.7457435       142.4342
2010    10      1       0.5269418       112.4291
2010    10      2       0.4546476       100.857
2010    10      3       0.4276773       96.28904
2010    10      4       0.5034017       108.5663
2010    10      5       0.5528822       115.7961
2010    10      6       0.4629627       101.8167
2010    10      7       0.420329        94.89106
2010    11      0       0.4890703       105.812
2010    11      1       0.5195428       110.3804
2010    11      2       0.557937        115.9551
2010    11      3       0.5798283       119.2443
2010    11      4       0.649308        128.9616
2010    11      5       0.6755476       132.6002
2010    11      6       0.5967593       122.08
2010    11      7       0.5586965       116.6546
2010    12      0       0.5165493       110.1113
2010    12      1       0.5232214       111.0908
2010    12      2       0.5623559       116.8754
2010    12      3       0.6712922       131.5954
2010    12      4       0.8610618       154.0124
2010    12      5       0.8050296       148.3127
2010    12      6       0.7185054       138.138
2010    12      7       0.6400791       127.6641
2010    13      0       0.5556691       115.7127
2010    13      1       0.4785454       103.6833
2010    13      2       0.3925358       89.50391
2010    13      3       0.3421482       80.7626
2010    13      4       0.5142954       109.1743
2010    13      5       0.6849741       131.9684
2010    13      6       0.7714688       141.9145
2010    13      7       0.8112666       147.6349
2010    14      0       0.8568932       153.4331
2010    14      1       0.682058        132.8143
2010    14      2       0.5920748       120.8842
2010    14      3       0.6362885       126.8162
2010    14      4       0.6809207       132.8527
2010    14      5       0.700457        134.7567
2010    14      6       0.6657014       130.1393
2010    14      7       0.6603264       129.0989
2010    15      0       0.4591469       99.87278
2010    15      1       0.343442        80.19531
2010    15      2       0.305901        73.36181
2010    15      3       0.2843467       69.42311
2010    15      4       0.2995637       72.65751
2010    15      5       0.3650808       84.60617
2010    15      6       0.3691955       85.44214
2010    15      7       0.3218267       76.77287
2010    16      0       0.3369179       79.56904
2010    16      1       0.4197677       94.0672
2010    16      2       0.3792461       87.18176
2010    16      3       0.2963684       71.97298
2010    16      4       0.3811559       87.63911
2010    16      5       0.35518         83.01231
2010    16      6       0.3135343       75.39899
2010    16      7       0.325549        77.50791
2010    17      0       0.3450064       80.81488
2010    17      1       0.3422863       80.2657
2010    17      2       0.3494836       81.59089
2010    17      3       0.4338949       96.65461
2010    17      4       0.7989072       147.7535
2010    17      5       0.8123218       149.5617
2010    17      6       0.7185376       138.7163
2010    17      7       0.7149089       138.1089
2010    18      0       0.8886603       158.1278
2010    18      1       0.9722139       167.144
2010    18      2       0.8544476       155.0916
2010    18      3       1.006301        170.4192
2010    18      4       1.014299        170.1867
2010    18      5       1.007502        169.975
2010    18      6       1.030706        172.7271
2010    18      7       0.99424         169.2429
2010    19      0       0.8995112       159.0892
2010    19      1       0.6850558       133.6545
2010    19      2       0.5963344       121.9102
2010    19      3       0.6458168       128.9049
2010    19      4       0.7658414       144.1907
2010    19      5       0.7917313       146.7977
2010    19      6       0.681226        133.1461
2010    19      7       0.6354044       127.7293
2010    20      0       0.5326142       112.9583
2010    20      1       0.4642459       101.9628
2010    20      2       0.4184065       94.14503
2010    20      3       0.4420005       98.05129
2010    20      4       0.3829144       87.98612
2010    20      5       0.2866239       70.59022
2010    20      6       0.2531026       63.97838
2010    20      7       0.2697932       66.86927
2010    21      0       0.3034458       72.83371
2010    21      1       0.3228874       76.31676
2010    21      2       0.3267692       77.11334
2010    21      3       0.3795724       86.58932
2010    21      4       0.6198172       124.1157
2010    21      5       0.6881064       133.2152
2010    21      6       0.6202193       124.5316
2010    21      7       0.4838333       104.3945
2010    22      0       0.3610859       83.4817
2010    22      1       0.2555726       63.35225
2010    22      2       0.2506774       62.5167
2010    22      3       0.251676        62.76754
2010    22      4       0.3444484       80.70475
2010    22      5       0.4948252       106.4017
2010    22      6       0.3971124       90.63174
2010    22      7       0.2886224       70.86259
2010    23      0       0.1962301       51.99696
2010    23      1       0.1456014       40.76784
2010    23      2       0.1515558       42.15445
2010    23      3       0.1577002       43.62849
2010    23      4       0.1681093       45.74236
2010    23      5       0.1583973       43.47833
2010    23      6       0.156462        43.00588
2010    23      7       0.177185        47.59013
2010    24      0       0.1954258       51.62955
2010    24      1       0.2012627       53.04006
2010    24      2       0.2206723       57.17789
2010    24      3       0.2608973       65.38558
2010    24      4       0.3263983       78.10358
2010    24      5       0.2985838       72.94068
2010    24      6       0.2575931       65.10778
2010    24      7       0.2585364       65.15204
2010    25      0       0.2516012       63.45175
2010    25      1       0.2223775       57.29307
2010    25      2       0.2199632       56.73862
2010    25      3       0.2181476       56.31137
2010    25      4       0.2093419       54.52695
2010    25      5       0.1903301       50.61715
2010    25      6       0.1638811       45.07761
2010    25      7       0.1549899       43.13335
2010    26      0       0.1668119       45.71202
2010    26      1       0.1843466       49.58698
2010    26      2       0.1809687       48.70862
2010    26      3       0.1687704       45.98277
2010    26      4       0.1714082       46.44017
2010    26      5       0.1577473       43.67123
2010    26      6       0.1574842       43.63983
2010    26      7       0.1486584       41.65191
2010    27      0       0.1397745       39.80009
2010    27      1       0.1304693       37.71447
2010    27      2       0.1314952       38.10653
2010    27      3       0.1433738       40.89185
2010    27      4       0.2448511       62.70158
2010    27      5       0.2602379       65.86697
2010    27      6       0.1964239       52.67333
2010    27      7       0.1839757       49.94132
2010    28      0       0.1689422       46.67717
2010    28      1       0.1355049       39.29229
2010    28      2       0.141109        40.59905
2010    28      3       0.2592745       65.66098
2010    28      4       0.4930638       106.9255
2010    28      5       0.4983963       107.7936
2010    28      6       0.3675349       85.98631
2010    28      7       0.3900351       90.06294
2010    29      0       0.3784367       87.73389
2010    29      1       0.3901666       89.43482
2010    29      2       0.3496161       81.82696
2010    29      3       0.6653351       129.8984
2010    29      4       0.8178231       147.2893
2010    29      5       0.7802322       143.9215
2010    29      6       1.174067        184.151
2010    29      7       1.135846        180.4321
2010    30      0       1.128315        179.5672
2010    30      1       1.098608        176.7013
2010    30      2       1.018344        169.5674
2010    30      3       1.183156        184.1267
2010    30      4       1.109838        176.7765
2010    30      5       1.217313        186.2101
2010    30      6       1.262096        190.3455
2010    30      7       1.201787        185.4771
2011    1       0       0.4187226       93.43882
2011    1       1       0.4153678       93.19939
2011    1       2       0.4389069       96.97371
2011    1       3       0.4620314       100.6936
2011    1       4       0.4380161       97.20045
2011    1       5       0.4234624       95.42943
2011    1       6       0.3848158       88.72083
2011    1       7       0.351427        82.62934
2011    2       0       0.2962113       72.56393
2011    2       1       0.2228681       57.36335
2011    2       2       0.2414213       60.83888
2011    2       3       0.290735        70.88987
2011    2       4       0.3165174       76.25261
2011    2       5       0.3351309       79.8306
2011    2       6       0.3315679       79.44152
2011    2       7       0.3563663       84.01974
2011    3       0       0.401594        92.17301
2011    3       1       0.3751994       87.79065
2011    3       2       0.422128        95.96006
2011    3       3       0.5059194       109.4936
2011    3       4       0.5132224       110.7101
2011    3       5       0.4772681       105.2378
2011    3       6       0.4630148       102.7067
2011    3       7       0.4965919       107.8689
2011    4       0       0.4811357       105.4662
2011    4       1       0.4485056       100.1371
2011    4       2       0.4356991       97.4484
2011    4       3       0.4072314       92.29348
2011    4       4       0.3887537       88.99346
2011    4       5       0.3474355       81.66186
2011    4       6       0.2881857       70.60823
2011    4       7       0.3849068       87.97805
2011    5       0       0.3684438       85.114
2011    5       1       0.3357707       79.53383
2011    5       2       0.3372961       79.20173
2011    5       3       0.6048648       122.6623
2011    5       4       0.9618947       164.5851
2011    5       5       0.8473767       152.6484
2011    5       6       0.5302624       111.709
2011    5       7       0.3758713       86.38838
2011    6       0       0.3497945       81.70956
2011    6       1       0.3319731       78.35075
2011    6       2       0.5190059       109.6677
2011    6       3       0.9333921       161.8963
2011    6       4       1.342443        195.3662
2011    6       5       1.240262        188.3004
2011    6       6       1.111736        177.8518
2011    6       7       0.8901354       157.2886
2011    7       0       0.8089744       148.9325
2011    7       1       0.7712638       144.6116
2011    7       2       0.8347538       151.9427
2011    7       3       1.010205        170.0716
2011    7       4       1.167632        183.6251
2011    7       5       1.024744        170.7531
2011    7       6       0.990087        167.4855
2011    7       7       1.0511          172.8602
2011    8       0       1.145517        180.8003
2011    8       1       1.182758        184.1121
2011    8       2       1.194534        185.4286
2011    8       3       1.243215        189.3162
2011    8       4       1.303985        193.7777
2011    8       5       1.238155        189.483
2011    8       6       0.9932554       168.7701
2011    8       7       0.8943909       158.5045
2011    9       0       0.9151012       160.9185
2011    9       1       0.9188516       161.4338
2011    9       2       0.9038392       159.6663
2011    9       3       0.9041374       159.6379
2011    9       4       0.8677416       155.9345
2011    9       5       0.8480997       153.9127
2011    9       6       0.8445476       153.1806
2011    9       7       0.8423538       152.5614
2011    10      0       0.7984223       147.5741
2011    10      1       0.6838091       133.4643
2011    10      2       0.6689707       131.4388
2011    10      3       0.7266844       139.2089
2011    10      4       0.8440994       153.6268
2011    10      5       0.8963305       159.3795
2011    10      6       0.8627018       155.6689
2011    10      7       0.8882501       157.9708
2011    11      0       0.6798836       133.3239
2011    11      1       0.4469085       98.93859
2011    11      2       0.3888514       88.77429
2011    11      3       0.4075117       92.08892
2011    11      4       0.4305874       96.33606
2011    11      5       0.4318304       96.75845
2011    11      6       0.4952225       107.2538
2011    11      7       0.6084369       124.0913
2011    12      0       0.5540131       116.1904
2011    12      1       0.481011        104.6631
2011    12      2       0.4047073       91.37729
2011    12      3       0.257658        64.00927
2011    12      4       0.2442877       61.70597
2011    12      5       0.2442993       61.97113
2011    12      6       0.4300154       96.85413
2011    12      7       0.8293625       152.5199
2011    13      0       0.9452868       164.9365
2011    13      1       0.9997607       170.4691
2011    13      2       1.064635        176.3909
2011    13      3       1.212743        188.4794
2011    13      4       1.588722        213.2651
2011    13      5       1.578568        212.4962
2011    13      6       1.498698        207.3428
2011    13      7       1.560683        210.281
2011    14      0       1.602545        212.2497
2011    14      1       1.420221        201.6396
2011    14      2       1.25457         190.7218
2011    14      3       1.589253        211.4814
2011    14      4       1.586599        210.9739
2011    14      5       1.554273        209.9917
2011    14      6       1.658947        215.9311
2011    14      7       1.379332        199.9258
2011    15      0       1.033203        172.8773
2011    15      1       1.082624        176.5595
2011    15      2       0.8822062       156.7288
2011    15      3       0.9355683       162.7925
2011    15      4       1.274895        191.1227
2011    15      5       1.517587        207.9852
2011    15      6       1.32405         195.0333
2011    15      7       1.093467        177.1014
2011    16      0       0.9840334       167.3055
2011    16      1       0.8827694       157.0798
2011    16      2       0.7886872       146.2589
2011    16      3       0.9821546       166.7731
2011    16      4       1.140332        181.1018
2011    16      5       0.704539        135.8952
2011    16      6       0.5338019       112.1048
2011    16      7       0.453135        99.56342
2011    17      0       0.4789928       104.0866
2011    17      1       0.5225858       111.1333
2011    17      2       0.4839173       105.2091
2011    17      3       0.6566292       130.6843
2011    17      4       0.9597835       165.269
2011    17      5       0.8825366       157.5466
2011    17      6       0.7928235       147.7859
2011    17      7       0.7214529       138.8847
2011    18      0       0.8357535       152.325
2011    18      1       0.9442115       164.0868
2011    18      2       0.8212139       150.8714
2011    18      3       0.8824776       157.6523
2011    18      4       1.083364        176.591
2011    18      5       1.154952        182.7903
2011    18      6       1.05278         174.0559
2011    18      7       0.8756032       156.8897
2011    19      0       0.7708423       144.9637
2011    19      1       0.7360053       140.6861
2011    19      2       0.6565446       130.5956
2011    19      3       0.8468796       154.0314
2011    19      4       1.177289        184.9904
2011    19      5       1.105189        178.448
2011    19      6       1.231392        188.8458
2011    19      7       1.413996        201.8287
2011    20      0       1.383145        198.644
2011    20      1       1.146145        181.2784
2011    20      2       0.9803399       166.6557
2011    20      3       1.222338        187.6693
2011    20      4       1.512336        206.3618
2011    20      5       1.584415        211.7734
2011    20      6       1.544048        209.4539
2011    20      7       1.467788        204.5817
2011    21      0       1.409524        200.5711
2011    21      1       1.304131        193.6741
2011    21      2       1.156018        182.8543
2011    21      3       1.057952        174.9696
2011    21      4       1.073373        176.3411
2011    21      5       1.148643        182.6674
2011    21      6       1.048644        173.895
2011    21      7       1.096814        177.8643
2011    22      0       1.017159        170.7058
2011    22      1       0.9039049       159.4126
2011    22      2       0.9497137       163.9126
2011    22      3       1.117428        178.7151
2011    22      4       1.231055        187.5117
2011    22      5       1.210757        186.3384
2011    22      6       1.410344        201.0791
2011    22      7       1.503015        207.0574
2011    23      0       1.35961         197.3071
2011    23      1       1.297487        192.9734
2011    23      2       1.174482        183.9314
2011    23      3       1.090397        176.416
2011    23      4       0.9596728       164.6358
2011    23      5       0.7051184       136.9265
2011    23      6       0.7817926       145.954
2011    23      7       1.085229        175.2983
2011    24      0       1.237644        187.3168
2011    24      1       1.124814        178.2851
2011    24      2       1.0829          174.6521
2011    24      3       1.250519        187.5494
2011    24      4       1.367742        196.3687
2011    24      5       1.194032        184.5152
2011    24      6       1.215073        186.195
2011    24      7       1.272978        190.3453
2011    25      0       1.127698        179.3612
2011    25      1       1.13744         180.4732
2011    25      2       1.26713         189.9006
2011    25      3       1.360614        197.1905
2011    25      4       1.397906        200.1241
2011    25      5       1.217966        186.8673
2011    25      6       1.216844        186.7331
2011    25      7       1.13115         180.0923
2011    26      0       1.087222        176.2751
2011    26      1       1.059928        174.1241
2011    26      2       1.131745        180.0122
2011    26      3       1.078054        175.4348
2011    26      4       1.049552        173.275
2011    26      5       0.9695508       166.0733
2011    26      6       0.9142017       160.6475
2011    26      7       0.9337343       162.7802
2011    27      0       0.9079517       160.2404
2011    27      1       0.8257206       151.2701
2011    27      2       0.8132373       150.2849
2011    27      3       0.8466919       154.3507
2011    27      4       1.001823        170.0346
2011    27      5       0.9860625       168.8234
2011    27      6       0.8457062       154.247
2011    27      7       0.7872016       147.3854
2011    28      0       0.7903984       147.7338
2011    28      1       0.8577458       155.2463
2011    28      2       0.8463417       153.588
2011    28      3       0.8187119       150.4839
2011    28      4       0.7864601       147.0222
2011    28      5       0.7167665       138.5374
2011    28      6       0.643805        128.3599
2011    28      7       0.6380483       127.1688
2011    29      0       0.655076        129.6961
2011    29      1       0.6800663       133.0121
2011    29      2       0.6406587       127.6842
2011    29      3       0.5511056       115.2942
2011    29      4       0.5138845       109.9892
2011    29      5       0.5646781       117.4635
2011    29      6       0.6570059       130.2113
2011    29      7       0.6428643       129.1648
2011    30      0       0.6377663       128.4708
2011    30      1       0.5984579       122.8131
2011    30      2       0.5529468       116.2387
2011    30      3       0.4877667       106.236
2011    30      4       0.5068752       109.1013
2011    30      5       0.5459469       115.007
2011    30      6       0.4518496       100.2318
2011    30      7       0.419364        94.77791
2012    1       0       0.2135831       55.57942
2012    1       1       0.2046669       53.47109
2012    1       2       0.2808099       68.55091
2012    1       3       0.4999774       106.7191
2012    1       4       0.8964498       157.7283
2012    1       5       1.012338        169.443
2012    1       6       0.8225401       150.3684
2012    1       7       0.613856        123.9893
2012    2       0       0.5892791       120.4097
2012    2       1       0.6230925       124.8972
2012    2       2       0.6979515       134.8233
2012    2       3       0.8402806       151.7864
2012    2       4       1.142882        180.4786
2012    2       5       1.262954        190.4043
2012    2       6       1.409953        201.3509
2012    2       7       1.366331        198.3715
2012    3       0       1.236927        188.1116
2012    3       1       0.9854261       166.5314
2012    3       2       0.866139        154.3297
2012    3       3       0.7763965       144.5395
2012    3       4       0.8033392       148.472
2012    3       5       0.6953141       135.6573
2012    3       6       0.6194401       125.3413
2012    3       7       0.56926         118.1216
2012    4       0       0.4791268       104.4053
2012    4       1       0.3608872       84.38351
2012    4       2       0.3388317       80.63632
2012    4       3       0.4160884       94.55156
2012    4       4       0.6664297       132.057
2012    4       5       1.058974        173.7726
2012    4       6       1.260645        191.6741
2012    4       7       1.099323        178.2458
2012    5       0       0.7347577       140.3905
2012    5       1       0.4551841       101.1504
2012    5       2       0.447752        99.72723
2012    5       3       0.4955014       107.2783
2012    5       4       0.7930328       147.3218
2012    5       5       0.8171332       150.0336
2012    5       6       0.5957845       121.7664
2012    5       7       0.4502867       99.64257
2012    6       0       0.4032168       91.68063
2012    6       1       0.4099707       92.96232
2012    6       2       0.5013839       108.0929
2012    6       3       0.6687844       132.05
2012    6       4       0.7699324       144.5391
2012    6       5       0.5258115       111.7773
2012    6       6       0.4112451       93.08848
2012    6       7       0.3798811       87.51803
2012    7       0       0.3594592       83.93889
2012    7       1       0.3171465       76.4685
2012    7       2       0.3372499       80.03548
2012    7       3       0.4733451       103.1015
2012    7       4       0.4801655       104.2873
2012    7       5       0.4176085       94.22921
2012    7       6       0.4011069       91.52655
2012    7       7       0.4035514       92.03058
2012    8       0       0.3483299       82.30292
2012    8       1       0.2826303       70.11683
2012    8       2       0.2565668       64.97229
2012    8       3       0.323229        78.03296
2012    8       4       0.673232        133.211
2012    8       5       0.8105448       149.7255
2012    8       6       0.786438        146.3886
2012    8       7       0.9182611       160.4527
2012    9       0       0.8636012       155.0073
2012    9       1       0.6758409       132.6486
2012    9       2       0.5631506       117.1142
2012    9       3       0.7143127       138.0041
2012    9       4       0.9698647       165.9321
2012    9       5       1.002102        168.2949
2012    9       6       1.203974        185.7429
2012    9       7       1.012806        170.3178
2012    10      0       0.8168299       150.3255
2012    10      1       0.787147        146.7703
2012    10      2       0.838204        152.4803
2012    10      3       1.008131        170.1004
2012    10      4       1.344524        196.8975
2012    10      5       1.409856        201.3205
2012    10      6       1.291815        193.8014
2012    10      7       1.063722        175.8865
2012    11      0       0.9186438       161.8353
2012    11      1       0.7614055       144.229
2012    11      2       0.5987696       123.2671
2012    11      3       0.5618153       118.0153
2012    11      4       0.7482979       143.0664
2012    11      5       0.6566478       131.5277
2012    11      6       0.4297561       97.38603
2012    11      7       0.3424472       81.82625
2012    12      0       0.2695569       67.71375
2012    12      1       0.2080773       54.99895
2012    12      2       0.186214        50.30608
2012    12      3       0.1766933       48.34418
2012    12      4       0.1947145       52.49238
2012    12      5       0.2033075       54.52956
2012    12      6       0.1834025       50.18379
2012    12      7       0.1844648       50.34686
2012    13      0       0.1689936       46.80067
2012    13      1       0.1783009       48.72436
2012    13      2       0.2048802       54.53675
2012    13      3       0.237569        61.40053
2012    13      4       0.3091612       75.86536
2012    13      5       0.2638059       67.08897
2012    13      6       0.2242414       58.91187
2012    13      7       0.226429        59.17896
2012    14      0       0.209915        55.64972
2012    14      1       0.2155447       56.69059
2012    14      2       0.2201411       57.27736
2012    14      3       0.2025919       53.54877
2012    14      4       0.2167415       56.64549
2012    14      5       0.23848         61.16885
2012    14      6       0.208399        54.94231
2012    14      7       0.233754        60.35459
2012    15      0       0.2630856       66.44923
2012    15      1       0.2568748       65.36086
2012    15      2       0.2314581       60.03242
2012    15      3       0.1850189       50.26905
2012    15      4       0.2707931       68.47685
2012    15      5       0.4348033       98.47138
2012    15      6       0.5634256       118.5157
2012    15      7       0.8115494       149.9905
2012    16      0       0.8626203       155.2362
2012    16      1       0.3589211       84.11389
2012    16      2       0.282899        69.95128
2012    16      3       0.4688824       103.252
2012    16      4       0.808824        149.5106
2012    16      5       0.8577306       154.6328
2012    16      6       0.7410921       141.2792
2012    16      7       0.5195683       111.2115
2012    17      0       0.2826363       69.71512
2012    17      1       0.2256846       57.42072
2012    17      2       0.2936844       70.39709
2012    17      3       0.4325964       95.06901
2012    17      4       0.7779256       144.2639
2012    17      5       0.8724661       155.0656
2012    17      6       0.8671621       154.8749
2012    17      7       0.8334031       151.6133
2012    18      0       0.6225379       125.7419
2012    18      1       0.5150053       110.3238
2012    18      2       0.5674602       118.4457
2012    18      3       0.7087771       137.6511
2012    18      4       0.8089679       149.053
2012    18      5       0.7423052       141.3
2012    18      6       0.7105983       137.721
2012    18      7       0.8558697       155.0575
2012    19      0       0.9129771       161.0246
2012    19      1       0.7506161       142.8709
2012    19      2       0.7239159       139.5631
2012    19      3       0.6865087       134.8422
2012    19      4       0.7692616       145.2338
2012    19      5       0.830349        152.2111
2012    19      6       0.7552265       143.11
2012    19      7       0.8645701       155.1137
2012    20      0       0.9184197       160.8442
2012    20      1       0.7182723       138.6674
2012    20      2       0.5739726       119.2393
2012    20      3       0.596447        122.5533
2012    20      4       0.8587175       155.4062
2012    20      5       0.8241195       151.817
2012    20      6       0.9066004       161.1744
2012    20      7       1.187974        186.8619
2012    21      0       1.286101        193.5022
2012    21      1       1.041943        173.2012
2012    21      2       0.8798717       157.0996
2012    21      3       0.8991749       159.1553
2012    21      4       1.209868        187.4297
2012    21      5       1.297607        193.6542
2012    21      6       1.429286        203.1252
2012    21      7       1.484826        205.8969
2012    22      0       1.486367        205.0317
2012    22      1       1.32803         194.5547
2012    22      2       1.258025        189.643
2012    22      3       1.314686        193.5713
2012    22      4       1.294146        192.2472
2012    22      5       1.187764        184.5807
2012    22      6       1.215266        187.0288
2012    22      7       1.218235        187.5329
2012    23      0       1.040776        172.9931
2012    23      1       0.9064886       159.7217
2012    23      2       0.8670988       155.5199
2012    23      3       0.9035162       159.3626
2012    23      4       1.049757        173.2473
2012    23      5       0.970823        166.2909
2012    23      6       0.9532724       164.8896
2012    23      7       0.918702        161.4839
2012    24      0       0.661398        131.3408
2012    24      1       0.4862152       105.9525
2012    24      2       0.4116092       93.41702
2012    24      3       0.3738501       86.62762
2012    24      4       0.4848063       105.4424
2012    24      5       0.6447303       129.1554
2012    24      6       0.5895567       121.6156
2012    24      7       0.5894754       121.8904
2012    25      0       0.488894        106.6773
2012    25      1       0.4215696       95.36773
2012    25      2       0.4216649       95.17748
2012    25      3       0.395623        90.72236
2012    25      4       0.3911934       89.94831
2012    25      5       0.3700635       86.44131
2012    25      6       0.3738858       87.4708
2012    25      7       0.505597        109.5045
2012    26      0       0.5143974       110.9023
2012    26      1       0.4293254       97.30535
2012    26      2       0.3402706       81.61388
2012    26      3       0.3213744       78.01067
2012    26      4       0.4299264       97.23797
2012    26      5       0.3720988       87.19169
2012    26      6       0.3149328       76.49253
2012    26      7       0.3137937       76.07332
2012    27      0       0.3711318       86.75994
2012    27      1       0.4027833       92.47321
2012    27      2       0.4386687       98.52581
2012    27      3       0.5978465       123.0674
2012    27      4       1.049967        174.2898
2012    27      5       1.085614        177.3475
2012    27      6       1.140539        182.4966
2012    27      7       1.30657         194.7592
2012    28      0       1.304995        193.4822
2012    28      1       1.105911        177.9768
2012    28      2       0.9137236       160.4147
2012    28      3       0.7391915       141.4759
2012    28      4       0.7646868       144.8297
2012    28      5       0.7849363       147.2489
2012    28      6       0.6075869       124.1871
2012    28      7       0.4304621       96.41952
2012    29      0       0.3869653       88.33151
2012    29      1       0.409817        92.19629
2012    29      2       0.4375539       97.40814
2012    29      3       0.3989307       91.38247
2012    29      4       0.4048928       92.76042
2012    29      5       0.4578956       101.7218
2012    29      6       0.5027267       108.6772
2012    29      7       0.6278411       127.0268
2012    30      0       0.6236083       126.4134
2012    30      1       0.5093961       109.6083
2012    30      2       0.3966559       91.31327
2012    30      3       0.3387818       81.15976
2012    30      4       0.4508176       101.0534
2012    30      5       0.5379686       114.7928
2012    30      6       0.4750959       104.9495
2012    30      7       0.472662        104.2442
2013    1       0       0.1824778       49.44378
2013    1       1       0.1743611       47.6125
2013    1       2       0.1979754       52.68215
2013    1       3       0.2049794       54.11154
2013    1       4       0.4062158       92.19488
2013    1       5       0.6423543       127.8399
2013    1       6       0.5445424       113.8802
2013    1       7       0.5155462       109.6712
2013    2       0       0.4043213       91.8332
2013    2       1       0.3138152       75.83814
2013    2       2       0.3808093       88.21835
2013    2       3       0.6015421       122.6391
2013    2       4       0.8649003       154.2006
2013    2       5       0.9555884       163.7263
2013    2       6       0.8506037       153.5638
2013    2       7       0.6319584       127.1287
2013    3       0       0.4729987       103.4593
2013    3       1       0.3978126       90.83697
2013    3       2       0.4471645       99.11987
2013    3       3       0.5193334       110.3381
2013    3       4       0.6634575       130.8622
2013    3       5       0.5901044       120.9938
2013    3       6       0.3280857       78.41316
2013    3       7       0.3055685       74.05627
2013    4       0       0.3305716       78.84289
2013    4       1       0.2800808       69.21849
2013    4       2       0.2161143       56.15003
2013    4       3       0.2166139       56.17471
2013    4       4       0.3699554       85.89837
2013    4       5       0.4968252       107.1031
2013    4       6       0.514352        109.8065
2013    4       7       0.6075954       123.349
2013    5       0       0.4333833       96.71211
2013    5       1       0.3233397       77.30932
2013    5       2       0.3441511       81.2189
2013    5       3       0.3877125       89.02404
2013    5       4       0.5689504       118.2493
2013    5       5       0.7696761       144.4385
2013    5       6       0.8963502       157.9631
2013    5       7       0.7932638       146.6523
2013    6       0       0.6100423       123.4402
2013    6       1       0.5441255       114.3025
2013    6       2       0.6006166       122.4998
2013    6       3       0.7570101       143.0079
2013    6       4       1.154349        182.9457
2013    6       5       1.082281        176.6914
2013    6       6       1.027635        171.369
2013    6       7       0.9776268       166.5641
2013    7       0       0.864706        155.0142
2013    7       1       0.8421074       152.4859
2013    7       2       0.7781659       145.144
2013    7       3       0.8219154       149.9986
2013    7       4       1.043446        171.9326
2013    7       5       1.051175        172.5669
2013    7       6       1.26404         189.6306
2013    7       7       1.303486        192.4358
2013    8       0       1.31563         194.3408
2013    8       1       1.234333        188.735
2013    8       2       1.092738        177.3339
2013    8       3       1.131295        180.534
2013    8       4       1.320504        195.3926
2013    8       5       1.316817        194.7886
2013    8       6       1.191491        185.4982
2013    8       7       1.126547        180.3858
2013    9       0       1.079275        176.2466
2013    9       1       1.006975        169.6526
2013    9       2       0.8856774       157.4627
2013    9       3       0.8810158       157.2277
2013    9       4       1.082135        177.0314
2013    9       5       1.188641        185.8115
2013    9       6       1.149821        182.6145
2013    9       7       1.099974        177.9761
2013    10      0       1.140839        181.3176
2013    10      1       1.109482        178.6449
2013    10      2       1.106413        178.5406
2013    10      3       1.127663        180.8243
2013    10      4       1.07569         176.1964
2013    10      5       1.027658        171.8394
2013    10      6       0.9308557       162.6117
2013    10      7       0.8366416       152.8626
2013    11      0       0.767746        144.8882
2013    11      1       0.6785017       133.6868
2013    11      2       0.670899        132.8238
2013    11      3       0.6475423       129.8696
2013    11      4       0.5795516       120.4114
2013    11      5       0.5248937       112.2258
2013    11      6       0.4782427       104.6854
2013    11      7       0.4716224       103.2765
2013    12      0       0.4339079       97.07078
2013    12      1       0.3551949       83.48229
2013    12      2       0.3207347       77.06216
2013    12      3       0.3543224       83.16839
2013    12      4       0.5744353       119.1258
2013    12      5       0.7104857       137.8196
2013    12      6       0.5654534       118.3562
2013    12      7       0.5937388       121.779
2013    13      0       0.6053712       122.7855
2013    13      1       0.473967        103.2287
2013    13      2       0.3809942       88.07867
2013    13      3       0.3469271       82.12685
2013    13      4       0.3385634       80.12431
2013    13      5       0.2898781       71.11577
2013    13      6       0.2222238       57.33487
2013    13      7       0.1936739       51.43347
2013    14      0       0.1898951       50.97342
2013    14      1       0.1884424       50.79233
2013    14      2       0.181111        49.24544
2013    14      3       0.2100698       55.45066
2013    14      4       0.221103        57.87939
2013    14      5       0.2114957       56.02103
2013    14      6       0.221248        58.08529
2013    14      7       0.2395432       61.73205
2013    15      0       0.3009523       73.95968
2013    15      1       0.2783762       69.6514
2013    15      2       0.2656293       67.14326
2013    15      3       0.303294        74.35808
2013    15      4       0.390096        90.27069
2013    15      5       0.3621074       85.36475
2013    15      6       0.3099646       75.63225
2013    15      7       0.3099625       75.56339
2013    16      0       0.2616715       66.0945
2013    16      1       0.2788038       68.92223
2013    16      2       0.3571338       82.92888
2013    16      3       0.3994275       89.95996
2013    16      4       0.4974086       106.0094
2013    16      5       0.5936232       120.589
2013    16      6       0.4277843       95.02549
2013    16      7       0.4067259       91.33892
2013    17      0       0.4088279       91.66723
2013    17      1       0.3420417       79.83631
2013    17      2       0.3128815       74.63587
2013    17      3       0.314885        75.16562
2013    17      4       0.5403707       113.3233
2013    17      5       0.683774        133.4916
2013    17      6       0.5245009       111.0725
2013    17      7       0.2831356       69.12829
2013    18      0       0.3132644       74.66752
2013    18      1       0.3467675       80.79375
2013    18      2       0.4525424       98.87925
2013    18      3       0.5373321       112.2438
2013    18      4       0.8013907       147.3007
2013    18      5       0.889821        157.1162
2013    18      6       0.9066698       158.5992
2013    18      7       0.9024055       158.1705
2013    19      0       0.975535        165.7476
2013    19      1       0.8282627       150.3467
2013    19      2       0.8136186       148.3438
2013    19      3       0.6492574       128.3378
2013    19      4       0.8790933       155.447
2013    19      5       0.7551261       141.4999
2013    19      6       0.8033437       147.196
2013    19      7       0.7842154       145.4705
2013    20      0       0.8287165       150.9926
2013    20      1       0.6208667       125.3791
2013    20      2       0.8123525       149.3487
2013    20      3       1.01325         170.1194
2013    20      4       1.089583        176.4585
2013    20      5       1.059876        173.9941
2013    20      6       0.9603356       165.1784
2013    20      7       0.967286        166.4678
2013    21      0       0.9560691       165.1938
2013    21      1       0.7674579       144.642
2013    21      2       0.688332        135.1707
2013    21      3       1.047067        174.2054
2013    21      4       1.311645        194.3824
2013    21      5       1.262737        191.5709
2013    21      6       1.157907        184.2039
2013    21      7       1.115003        180.9211
2013    22      0       0.9747252       167.746
2013    22      1       0.8352022       152.7677
2013    22      2       0.7181612       138.8459
2013    22      3       0.7029053       136.8161
2013    22      4       0.8974014       159.3334
2013    22      5       0.8628153       155.4646
2013    22      6       0.9178475       161.5759
2013    22      7       0.8675684       155.9936
2013    23      0       0.6626718       130.9943
2013    23      1       0.4594723       101.3486
2013    23      2       0.4684116       102.0445
2013    23      3       0.4321008       96.42254
2013    23      4       0.5015041       108.0793
2013    23      5       0.6749857       132.8779
2013    23      6       0.6452385       128.8469
2013    23      7       0.6691574       131.3374
2013    24      0       0.821923        149.3898
2013    24      1       0.8308229       150.8134
2013    24      2       0.8916508       157.2691
2013    24      3       1.073687        175.3382
2013    24      4       1.152595        182.3425
2013    24      5       1.150758        181.9475
2013    24      6       1.003462        168.6076
2013    24      7       0.8825426       155.5942
2013    25      0       0.7996154       146.827
2013    25      1       0.7528166       140.8746
2013    25      2       0.7599524       141.9785
2013    25      3       0.8259323       149.9611
2013    25      4       1.010205        169.4406
2013    25      5       1.008244        169.574
2013    25      6       0.9700719       165.9307
2013    25      7       0.9598655       165.0696
2013    26      0       0.875484        156.8203
2013    26      1       0.790628        147.6287
2013    26      2       0.847204        154.2008
2013    26      3       1.06186         175.3891
2013    26      4       1.082336        177.1421
2013    26      5       0.9915492       168.7785
2013    26      6       0.7628547       144.1433
2013    26      7       0.5495511       115.3626
2013    27      0       0.420564        94.84876
2013    27      1       0.384362        88.78884
2013    27      2       0.5063566       109.2547
2013    27      3       0.6140246       125.1017
2013    27      4       0.8056262       149.3456
2013    27      5       0.9258011       162.0171
2013    27      6       0.8455874       154.0646
2013    27      7       0.7242906       139.8057
2013    28      0       0.6256357       126.7151
2013    28      1       0.552852        116.2705
2013    28      2       0.5287442       112.6796
2013    28      3       0.6155942       125.1655
2013    28      4       0.8210141       151.1868
2013    28      5       0.7761871       145.9621
2013    28      6       0.6079688       124.2453
2013    28      7       0.5728627       119.4687
2013    29      0       0.5830819       121.0003
2013    29      1       0.6122705       125.0265
2013    29      2       0.6070341       124.4182
2013    29      3       0.6063208       124.4974
2013    29      4       0.7488996       143.3666
2013    29      5       0.6515853       130.944
2013    29      6       0.6056217       124.5592
2013    29      7       0.5991561       123.5269
2013    30      0       0.5263293       112.6666
2013    30      1       0.4958206       107.7312
2013    30      2       0.4756018       104.3451
2013    30      3       0.4505014       100.3378
2013    30      4       0.4563321       101.4679
2013    30      5       0.4587569       101.9488
2013    30      6       0.463112        102.6422
2013    30      7       0.4952459       107.7743
2014    1       0       0.3235224       77.96495
2014    1       1       0.1461254       41.55352
2014    1       2       0.1261124       36.93673
2014    1       3       0.1869428       50.44763
2014    1       4       0.5082453       109.3253
2014    1       5       0.7549173       142.5976
2014    1       6       0.7792325       145.5552
2014    1       7       0.7219009       138.4337
2014    2       0       0.5118103       109.213
2014    2       1       0.351989        82.48418
2014    2       2       0.4108489       92.88475
2014    2       3       0.6745518       132.1917
2014    2       4       0.9653449       164.3848
2014    2       5       1.317074        194.9176
2014    2       6       1.208842        185.577
2014    2       7       1.162773        181.7761
2014    3       0       1.042761        171.6697
2014    3       1       0.8847873       156.5825
2014    3       2       0.8115139       148.2406
2014    3       3       0.7893817       145.627
2014    3       4       0.9358708       161.6584
2014    3       5       0.8576684       153.4177
2014    3       6       0.5895888       119.4268
2014    3       7       0.5358302       111.4791
2014    4       0       0.5856775       118.8839
2014    4       1       0.6042036       121.8498
2014    4       2       0.580302        118.5949
2014    4       3       0.5784873       118.088
2014    4       4       0.7130208       136.5998
2014    4       5       0.7781335       144.9156
2014    4       6       0.610651        123.2506
2014    4       7       0.5349341       112.3935
2014    5       0       0.4129878       92.53795
2014    5       1       0.3921035       88.82815
2014    5       2       0.3874947       88.19072
2014    5       3       0.3549436       82.6528
2014    5       4       0.4150192       93.44563
2014    5       5       0.4723068       103.0301
2014    5       6       0.3912037       89.50499
2014    5       7       0.3436853       80.92138
2014    6       0       0.3389789       79.69423
2014    6       1       0.2983332       72.00244
2014    6       2       0.2673107       65.89993
2014    6       3       0.2835711       69.50389
2014    6       4       0.4530985       100.4967
2014    6       5       0.3486911       82.6792
2014    6       6       0.2686445       67.50327
2014    6       7       0.2825994       70.32864
2014    7       0       0.2470524       63.22005
2014    7       1       0.2187147       57.21734
2014    7       2       0.2168853       56.74817
2014    7       3       0.2204124       57.56377
2014    7       4       0.2684932       67.38239
2014    7       5       0.3709013       86.77339
2014    7       6       0.3091274       75.33758
2014    7       7       0.2816253       69.80358
2014    8       0       0.2494539       63.47812
2014    8       1       0.2462362       62.74588
2014    8       2       0.2491059       63.2993
2014    8       3       0.2782739       69.14084
2014    8       4       0.5055805       108.9185
2014    8       5       0.6138926       124.7617
2014    8       6       0.5333649       112.9129
2014    8       7       0.5863087       120.0433
2014    9       0       0.4418445       98.01428
2014    9       1       0.2982981       72.7077
2014    9       2       0.2629954       65.97248
2014    9       3       0.2691937       67.28635
2014    9       4       0.3014603       73.64152
2014    9       5       0.3213976       77.54401
2014    9       6       0.3504938       82.75818
2014    9       7       0.3838393       88.69054
2014    10      0       0.3742589       86.98949
2014    10      1       0.342512        81.04709
2014    10      2       0.350541        82.44806
2014    10      3       0.3597491       84.22389
2014    10      4       0.3854332       88.89707
2014    10      5       0.4292814       96.37267
2014    10      6       0.5599153       116.5899
2014    10      7       0.6790306       132.57
2014    11      0       0.6608015       129.9944
2014    11      1       0.6019241       122.1304
2014    11      2       0.5507349       115.0148
2014    11      3       0.5976975       121.829
2014    11      4       0.855945        154.2564
2014    11      5       0.9911797       167.483
2014    11      6       1.009408        169.2539
2014    11      7       1.074966        175.2452
2014    12      0       1.175192        184.1569
2014    12      1       1.065378        175.1931
2014    12      2       0.9269322       161.9869
2014    12      3       0.8676727       155.1074
2014    12      4       0.9558819       163.6169
2014    12      5       0.8792918       155.019
2014    12      6       0.721825        137.1114
2014    12      7       0.52421         110.181
2014    13      0       0.6086656       122.3176
2014    13      1       0.574314        116.9914
2014    13      2       0.4977792       105.5853
2014    13      3       0.5449268       112.3203
2014    13      4       0.8957885       155.9482
2014    13      5       0.9652127       163.0522
2014    13      6       0.8958649       156.2751
2014    13      7       0.8222422       148.3407
2014    14      0       0.6502571       127.2538
2014    14      1       0.5629462       114.8421
2014    14      2       0.639713        125.8989
2014    14      3       0.8390128       150.4996
2014    14      4       1.135223        179.3673
2014    14      5       1.041757        170.9752
2014    14      6       0.98986         165.9935
2014    14      7       0.807051        146.5538
2014    15      0       0.6884103       131.8486
2014    15      1       0.6991763       133.2174
2014    15      2       0.6539713       127.2306
2014    15      3       0.6060653       121.2291
2014    15      4       0.8560458       152.1488
2014    15      5       0.7940704       145.5151
2014    15      6       0.7198866       136.7677
2014    15      7       0.6555665       128.6137
2014    16      0       0.5933352       120.2736
2014    16      1       0.610697        122.1531
2014    16      2       0.6575926       128.9585
2014    16      3       0.7171978       137.216
2014    16      4       0.858618        154.0095
2014    16      5       0.7634317       142.9686
2014    16      6       0.6494638       128.5881
2014    16      7       0.6391959       127.5701
2014    17      0       0.7042595       135.8981
2014    17      1       0.7264069       138.4568
2014    17      2       0.7056295       136.1362
2014    17      3       0.7910923       146.9045
2014    17      4       0.9442429       163.5575
2014    17      5       0.8287189       151.249
2014    17      6       0.755649        143.0882
2014    17      7       0.7477838       141.9336
2014    18      0       0.6921751       134.9224
2014    18      1       0.6383002       127.8361
2014    18      2       0.6756764       133.0016
2014    18      3       0.8568303       154.4817
2014    18      4       0.8859785       156.9411
2014    18      5       0.9506345       163.7701
2014    18      6       1.124962        179.9117
2014    18      7       1.038843        172.2128
2014    19      0       1.047871        173.0271
2014    19      1       0.8886706       157.3878
2014    19      2       0.7885747       146.9992
2014    19      3       0.8803674       157.5244
2014    19      4       1.116649        179.9141
2014    19      5       1.117776        179.9994
2014    19      6       1.00691         169.9727
2014    19      7       1.020104        170.9552
2014    20      0       0.7340984       140.4605
2014    20      1       0.5718845       118.5783
2014    20      2       0.5431772       114.1214
2014    20      3       0.7384231       140.6228
2014    20      4       0.9675652       165.3816
2014    20      5       0.9453564       163.3111
2014    20      6       0.7231911       138.7012
2014    20      7       0.5179398       110.2268
2014    21      0       0.4115045       92.85081
2014    21      1       0.3056681       73.65702
2014    21      2       0.3014096       72.87748
2014    21      3       0.367486        85.26521
2014    21      4       0.7010542       134.9058
2014    21      5       0.9507414       164.7371
2014    21      6       1.088621        177.5163
2014    21      7       0.5335951       112.8007
2014    22      0       0.417639        93.94489
2014    22      1       0.371335        85.81036
2014    22      2       0.2874494       70.67232
2014    22      3       0.3577761       83.57646
2014    22      4       0.5107706       108.953
2014    22      5       0.3749935       86.81453
2014    22      6       0.4072365       92.54041
2014    22      7       0.4713942       103.1571
2014    23      0       0.378306        87.36366
2014    23      1       0.1955278       52.03724
2014    23      2       0.1434073       40.31993
2014    23      3       0.2337274       59.78863
2014    23      4       0.5228059       111.1757
2014    23      5       0.4851179       105.5434
2014    23      6       0.2378665       61.1382
2014    23      7       0.2041367       54.19149
2014    24      0       0.2011155       53.4471
2014    24      1       0.1560425       43.48489
2014    24      2       0.1758658       47.6303
2014    24      3       0.1838591       49.39056
2014    24      4       0.2231731       57.76375
2014    24      5       0.2396513       61.50974
2014    24      6       0.2201811       57.55034
2014    24      7       0.2086954       55.16593
2014    25      0       0.2207174       57.6182
2014    25      1       0.2728449       67.99652
2014    25      2       0.3791312       87.96338
2014    25      3       0.4069289       92.94726
2014    25      4       0.3583702       84.49152
2014    25      5       0.314409        76.46751
2014    25      6       0.3080038       75.05866
2014    25      7       0.4062976       92.6796
2014    26      0       0.3664946       85.95562
2014    26      1       0.3534165       83.65491
2014    26      2       0.3035802       74.27825
2014    26      3       0.2988451       73.32487
2014    26      4       0.3112419       75.59078
2014    26      5       0.2960964       72.57743
2014    26      6       0.2903805       71.43541
2014    26      7       0.2981178       72.89922
2014    27      0       0.2938915       72.31802
2014    27      1       0.2822741       70.19062
2014    27      2       0.4121459       93.7768
2014    27      3       0.5475941       115.2754
2014    27      4       0.7520667       142.5313
2014    27      5       0.8167611       150.3003
2014    27      6       0.6347876       127.9257
2014    27      7       0.3918422       90.23711
2014    28      0       0.3376019       80.50267
2014    28      1       0.3439486       81.75736
2014    28      2       0.3192449       77.12925
2014    28      3       0.3606316       84.52081
2014    28      4       0.7642752       143.4917
2014    28      5       0.9516047       163.7072
2014    28      6       0.7899333       146.2004
2014    28      7       0.6189322       124.1581
2014    29      0       0.6940953       134.4862
2014    29      1       0.745282        140.9823
2014    29      2       0.7229378       138.5856
2014    29      3       0.6801684       133.3779
2014    29      4       0.8492455       153.7654
2014    29      5       0.7576971       143.5069
2014    29      6       0.8819904       157.7931
2014    29      7       1.020823        171.9824
2014    30      0       1.060121        175.4446
2014    30      1       0.982051        167.8041
2014    30      2       0.9193559       161.4704
2014    30      3       1.048232        173.8458
2014    30      4       1.236763        188.4834
2014    30      5       1.278972        190.9794
2014    30      6       0.8841636       156.7237
2014    30      7       0.616661        124.5999
2015    1       0       0.8808575       155.9732
2015    1       1       1.172496        183.6742
2015    1       2       0.6143839       123.5921
2015    1       3       0.471449        102.4553
2015    1       4       0.7236988       137.9516
2015    1       5       0.8204423       149.7398
2015    1       6       0.9508639       164.2602
2015    1       7       0.5987883       122.1686
2015    2       0       0.2974045       72.51587
2015    2       1       0.208228        54.56611
2015    2       2       0.2621633       65.5424
2015    2       3       0.3996769       91.00352
2015    2       4       0.8175851       149.766
2015    2       5       0.8604044       154.0697
2015    2       6       0.8954221       158.6243
2015    2       7       0.8862198       157.6106
2015    3       0       0.9914231       167.9791
2015    3       1       1.228337        188.6028
2015    3       2       1.123405        177.9963
2015    3       3       0.9261394       160.3534
2015    3       4       0.8193052       149.2445
2015    3       5       0.8688769       154.4876
2015    3       6       0.9096314       158.5826
2015    3       7       0.8724548       154.9429
2015    4       0       0.6128358       123.8577
2015    4       1       0.3633894       84.8609
2015    4       2       0.2301298       59.24902
2015    4       3       0.1924579       51.22531
2015    4       4       0.2749689       68.35313
2015    4       5       0.3932756       90.39212
2015    4       6       0.4751375       103.949
2015    4       7       0.5802992       119.702
2015    5       0       0.4154126       94.06584
2015    5       1       0.2613093       65.88444
2015    5       2       0.2007267       53.44485
2015    5       3       0.1503068       42.48686
2015    5       4       0.2169859       56.90155
2015    5       5       0.2757703       68.62563
2015    5       6       0.2301241       59.3425
2015    5       7       0.2227687       58.0118
2015    6       0       0.2133871       56.20939
2015    6       1       0.2324296       59.97885
2015    6       2       0.2628073       65.85515
2015    6       3       0.5759259       119.5599
2015    6       4       0.7415761       141.6212
2015    6       5       0.4342594       97.39789
2015    6       6       0.3182936       76.53477
2015    6       7       0.346273        81.53958
2015    7       0       0.3806329       87.62232
2015    7       1       0.3558356       83.33294
2015    7       2       0.3333169       79.38901
2015    7       3       0.3278938       78.4462
2015    7       4       0.4066796       92.63027
2015    7       5       0.522552        111.3708
2015    7       6       0.4427638       98.4459
2015    7       7       0.3105495       75.14655
2015    8       0       0.2219116       57.88556
2015    8       1       0.1615298       45.12543
2015    8       2       0.1691638       46.46672
2015    8       3       0.213724        55.85905
2015    8       4       0.3289395       78.98835
2015    8       5       0.3300635       79.10031
2015    8       6       0.3751565       86.62231
2015    8       7       0.6883259       132.4074
2015    9       0       1.032127        168.6661
2015    9       1       0.8811247       154.7224
2015    9       2       0.7092015       134.681
2015    9       3       0.8534749       151.425
2015    9       4       1.031113        169.718
2015    9       5       1.164399        181.5308
2015    9       6       1.079928        175.0821
2015    9       7       0.97411         165.9478
2015    10      0       0.8938541       157.7495
2015    10      1       0.887802        156.746
2015    10      2       0.8570497       153.6487
2015    10      3       1.005902        169.1599
2015    10      4       1.135243        180.7468
2015    10      5       1.037138        172.5275
2015    10      6       0.8522881       153.7885
2015    10      7       0.9322642       162.078
2015    11      0       1.02115         170.695
2015    11      1       1.004611        169.5626
2015    11      2       0.9390491       163.5527
2015    11      3       1.059975        175.3865
2015    11      4       1.230686        188.9083
2015    11      5       1.084107        176.9514
2015    11      6       0.933758        163.6563
2015    11      7       0.6075732       124.2271
2015    12      0       0.4454828       99.01334
2015    12      1       0.4436545       98.12848
2015    12      2       0.6644961       131.018
2015    12      3       0.8649715       155.7796
2015    12      4       1.137082        182.2018
2015    12      5       0.8708266       156.4653
2015    12      6       0.6638254       131.0816
2015    12      7       0.6264309       125.6105
2015    13      0       0.5685718       117.2509
2015    13      1       0.5254492       110.8037
2015    13      2       0.452246        99.39928
2015    13      3       0.4684141       102.8598
2015    13      4       0.6935016       135.8873
2015    13      5       0.801064        149.2761
2015    13      6       0.79727         148.9215
2015    13      7       0.7281808       140.4743
2015    14      0       0.578965        120.5059
2015    14      1       0.3961492       91.63225
2015    14      2       0.3781161       88.44741
2015    14      3       0.47137         104.1169
2015    14      4       0.7927494       148.3353
2015    14      5       0.9098701       160.4336
2015    14      6       1.576734        213.5619
2015    14      7       1.297891        193.1617
2015    15      0       0.9673522       165.7023
2015    15      1       0.8817119       157.4176
2015    15      2       0.8475834       153.7936
2015    15      3       0.9181708       161.3986
2015    15      4       1.131807        180.9207
2015    15      5       1.128168        179.8776
2015    15      6       1.034457        171.5275
2015    15      7       1.041193        172.5041
2015    16      0       1.10409         178.3835
2015    16      1       1.084025        176.5918
2015    16      2       1.05595         174.1932
2015    16      3       1.256015        189.8387
2015    16      4       1.385978        198.777
2015    16      5       1.540814        210.1929
2015    16      6       1.443377        203.5465
2015    16      7       1.447286        203.5065
2015    17      0       1.437744        203.0945
2015    17      1       1.4879          206.0732
2015    17      2       1.466708        204.7926
2015    17      3       1.583649        212.0518
2015    17      4       1.552305        210.3973
2015    17      5       1.423496        202.5537
2015    17      6       1.260271        191.7997
2015    17      7       1.533891        209.3792
2015    18      0       1.405837        201.4748
2015    18      1       1.154935        183.2792
2015    18      2       0.8717742       157.2276
2015    18      3       0.8355149       153.1544
2015    18      4       1.030583        172.6518
2015    18      5       0.9530748       164.6237
2015    18      6       1.018669        171.8977
2015    18      7       1.234161        190.3162
2015    19      0       1.0226          171.358
2015    19      1       0.5970336       122.0735
2015    19      2       0.3500681       82.88935
2015    19      3       0.3857208       89.31631
2015    19      4       0.472585        103.8748
2015    19      5       0.5271916       112.2573
2015    19      6       0.6028571       123.3394
2015    19      7       0.6417748       128.3875
2015    20      0       0.5852863       120.0815
2015    20      1       0.510691        108.7091
2015    20      2       0.3642212       84.33978
2015    20      3       0.2663967       66.12337
2015    20      4       0.3138171       75.67238
2015    20      5       0.34781         82.24858
2015    20      6       0.3474475       82.3501
2015    20      7       0.3864326       89.47372
2015    21      0       0.4212689       95.43982
2015    21      1       0.4097238       93.34704
2015    21      2       0.4254592       96.17552
2015    21      3       0.4929302       107.4575
2015    21      4       0.8076532       149.7437
2015    21      5       1.054659        174.3981
2015    21      6       0.6978983       135.9726
2015    21      7       0.5747911       118.9069
2015    22      0       0.7191054       138.2517
2015    22      1       1.015101        170.4166
2015    22      2       1.210683        187.2178
2015    22      3       1.111094        179.3358
2015    22      4       1.174974        184.4115
2015    22      5       1.032665        171.3355
2015    22      6       1.262538        192.7589
2015    22      7       1.205054        187.3576
2015    23      0       0.8207832       150.9392
2015    23      1       0.7128807       138.3446
2015    23      2       0.7951348       148.2715
2015    23      3       1.10915         179.4908
2015    23      4       1.295752        194.0318
2015    23      5       1.284217        193.5236
2015    23      6       1.25519         191.5291
2015    23      7       1.309229        195.432
2015    24      0       1.052063        174.94
2015    24      1       0.8618884       156.1516
2015    24      2       0.6378712       128.7537
2015    24      3       0.4562206       101.5762
2015    24      4       0.4016032       92.46253
2015    24      5       0.3429343       82.05104
2015    24      6       0.3033254       74.68867
2015    24      7       0.2975181       73.6073
2015    25      0       0.2727527       68.72306
2015    25      1       0.2209719       58.13752
2015    25      2       0.2287303       59.75122
2015    25      3       0.2581248       65.79842
2015    25      4       0.3619256       85.71593
2015    25      5       0.4220897       96.37267
2015    25      6       0.2802833       70.42348
2015    25      7       0.268062        67.51203
2015    26      0       0.3526775       83.76224
2015    26      1       0.5383492       114.7143
2015    26      2       0.821909        151.8126
2015    26      3       1.214844        188.4727
2015    26      4       1.235687        189.1009
2015    26      5       1.178037        184.1448
2015    26      6       1.385152        200.7128
2015    26      7       1.286006        192.4982
2015    27      0       1.181381        184.4175
2015    27      1       0.8398337       152.787
2015    27      2       0.6817067       134.1233
2015    27      3       0.8150855       150.393
2015    27      4       0.9964567       169.3472
2015    27      5       0.9164674       160.5401
2015    27      6       0.9467357       163.7707
2015    27      7       0.7280204       139.899
2015    28      0       0.6236427       126.4601
2015    28      1       0.4109662       93.86203
2015    28      2       0.2059462       54.83584
2015    28      3       0.2186219       57.40228
2015    28      4       0.382407        88.37538
2015    28      5       0.3850701       88.6526
2015    28      6       0.3942949       90.35594
2015    28      7       0.4210973       94.66291
2015    29      0       0.5721655       118.5468
2015    29      1       0.6887231       134.6687
2015    29      2       0.6306943       127.2406
2015    29      3       0.552439        116.2249
2015    29      4       0.5379707       114.2273
2015    29      5       0.516753        110.9779
2015    29      6       0.5114359       110.0309
2015    29      7       0.6053152       123.2031
2015    30      0       0.615733        124.4878
2015    30      1       0.557609        116.384
2015    30      2       0.4446045       98.77602
2015    30      3       0.3918216       89.73672
2015    30      4       0.4235304       95.10905
2015    30      5       0.5016865       107.8432
2015    30      6       0.5838537       120.1171
2015    30      7       0.5420244       114.0823
2016    1       0       0.2649319       65.72178
2016    1       1       0.283942        69.28505
2016    1       2       0.3289678       77.56216
2016    1       3       0.4057764       90.81367
2016    1       4       0.6839522       131.6523
2016    1       5       0.807551        146.5557
2016    1       6       0.8019533       146.3922
2016    1       7       0.7398245       139.4644
2016    2       0       0.6649472       130.1712
2016    2       1       0.6307346       125.683
2016    2       2       0.5727758       117.4339
2016    2       3       0.6371411       126.9009
2016    2       4       0.8597013       154.1589
2016    2       5       1.003665        169.0926
2016    2       6       1.109937        178.7063
2016    2       7       1.200461        186.2408
2016    3       0       1.245153        190.3617
2016    3       1       0.8071952       149.1182
2016    3       2       0.8266415       150.8234
2016    3       3       1.03419         171.2709
2016    3       4       1.109399        177.5849
2016    3       5       1.01507         169.8639
2016    3       6       1.11155         179.0806
2016    3       7       1.346381        197.1769
2016    4       0       1.249007        188.4445
2016    4       1       1.156606        181.2313
2016    4       2       1.257341        189.3768
2016    4       3       1.20228         185.2615
2016    4       4       1.266231        189.7621
2016    4       5       0.9110664       158.8485
2016    4       6       1.016169        170.3119
2016    4       7       1.124614        180.4306
2016    5       0       0.7971111       147.3073
2016    5       1       0.5219304       109.8671
2016    5       2       0.4311604       95.34271
2016    5       3       0.5073003       107.6837
2016    5       4       0.6679541       130.7471
2016    5       5       0.6044558       122.2629
2016    5       6       0.4555998       99.68858
2016    5       7       0.3918324       88.7946
2016    6       0       0.4224715       93.98773
2016    6       1       0.4520084       98.83726
2016    6       2       0.4358532       96.19249
2016    6       3       0.4275836       94.73003
2016    6       4       0.5113377       108.3384
2016    6       5       0.5374007       112.2285
2016    6       6       0.4896703       104.1181
2016    6       7       0.5443039       112.0561
2016    7       0       0.582101        117.5153
2016    7       1       0.6241038       123.3636
2016    7       2       0.6238646       123.6032
2016    7       3       0.5869617       118.583
2016    7       4       0.568243        116.0871
2016    7       5       0.5687391       116.6224
2016    7       6       0.5164817       108.7486
2016    7       7       0.5010713       106.5184
2016    8       0       0.5245661       110.1099
2016    8       1       0.565944        115.9909
2016    8       2       0.6413787       126.7294
2016    8       3       0.7003944       134.4801
2016    8       4       0.6809583       132.0524
2016    8       5       0.8215374       149.2886
2016    8       6       0.7018106       134.6362
2016    8       7       0.6464712       127.1584
2016    9       0       0.6804708       131.3144
2016    9       1       0.6999466       133.7523
2016    9       2       0.7661035       142.1558
2016    9       3       0.8501673       151.959
2016    9       4       0.837965        150.725
2016    9       5       0.8498866       152.2636
2016    9       6       0.8303384       150.7146
2016    9       7       0.8574554       153.6285
2016    10      0       0.8363814       151.1164
2016    10      1       0.7945487       146.1039
2016    10      2       0.8046196       146.8997
2016    10      3       0.7574145       141.4904
2016    10      4       0.92989         160.9086
2016    10      5       0.8971071       157.5813
2016    10      6       0.7682483       143.83
2016    10      7       0.8207203       149.6644
2016    11      0       1.015548        169.3458
2016    11      1       1.192962        184.4831
2016    11      2       1.037166        169.9951
2016    11      3       1.114475        177.0383
2016    11      4       1.350675        195.4417
2016    11      5       1.273155        191.0185
2016    11      6       1.10823         178.8387
2016    11      7       1.26571         191.5786
2016    12      0       1.358694        198.1412
2016    12      1       1.232171        187.6367
2016    12      2       1.087406        175.3581
2016    12      3       1.17288         182.4498
2016    12      4       1.278668        190.2342
2016    12      5       1.10287         177.0114
2016    12      6       1.037612        171.9699
2016    12      7       0.7620843       143.2269
2016    13      0       0.7409706       140.1838
2016    13      1       0.8420672       151.9773
2016    13      2       0.8466382       152.3794
2016    13      3       0.9054252       158.7764
2016    13      4       1.083878        175.445
2016    13      5       0.9849534       166.0143
2016    13      6       0.9729754       165.3761
2016    13      7       0.870176        154.797
2016    14      0       1.046481        172.2386
2016    14      1       1.131528        179.2212
2016    14      2       1.054385        172.8687
2016    14      3       1.13577         180.2922
2016    14      4       1.301666        193.1834
2016    14      5       1.230598        188.0875
2016    14      6       1.103098        178.0832
2016    14      7       0.9203039       160.5416
2016    15      0       0.742985        140.0953
2016    15      1       0.6026969       121.56
2016    15      2       0.5061471       107.5843
2016    15      3       0.5439323       113.7456
2016    15      4       0.7485753       141.9374
2016    15      5       0.8199093       150.6351
2016    15      6       0.7974444       148.014
2016    15      7       0.7208204       138.3415
2016    16      0       0.6226602       125.2018
2016    16      1       0.5235205       110.8296
2016    16      2       0.6508109       129.6872
2016    16      3       0.9404901       164.2726
2016    16      4       1.001083        170.0908
2016    16      5       0.9815332       168.0791
2016    16      6       1.023838        171.8397
2016    16      7       1.048955        173.8444
2016    17      0       0.9739348       166.6678
2016    17      1       0.9789561       166.9871
2016    17      2       0.8538596       154.1169
2016    17      3       0.7841678       146.327
2016    17      4       0.9396341       163.6945
2016    17      5       0.9687591       166.158
2016    17      6       1.062012        174.7285
2016    17      7       1.088754        176.4677
2016    18      0       0.9012556       158.6935
2016    18      1       0.8614353       154.1759
2016    18      2       0.8045771       147.8422
2016    18      3       0.8092792       148.3837
2016    18      4       0.9644835       165.3963
2016    18      5       0.9655961       164.9073
2016    18      6       0.8605789       153.2544
2016    18      7       0.8728995       154.7273
2016    19      0       0.8997438       157.9838
2016    19      1       0.7182656       137.1177
2016    19      2       0.623386        124.8534
2016    19      3       0.7064239       135.341
2016    19      4       0.8231865       149.9102
2016    19      5       0.8165386       149.9077
2016    19      6       0.8365394       152.2929
2016    19      7       0.8682042       155.8618
2016    20      0       0.7332337       140.4576
2016    20      1       0.5876131       120.8377
2016    20      2       0.7316268       140.1401
2016    20      3       0.9334089       162.7837
2016    20      4       1.093449        177.9274
2016    20      5       0.9861988       168.2095
2016    20      6       0.7679448       144.8854
2016    20      7       0.659094        131.2427
2016    21      0       0.5632346       117.8748
2016    21      1       0.423594        95.74316
2016    21      2       0.4257822       96.31028
2016    21      3       0.3809636       88.66351
2016    21      4       0.2843258       70.75596
2016    21      5       0.2851518       70.87945
2016    21      6       0.364339        85.86643
2016    21      7       0.3457892       82.64315
2016    22      0       0.3116175       76.1151
2016    22      1       0.2649817       66.91922
2016    22      2       0.269235        67.69481
2016    22      3       0.2946802       72.61107
2016    22      4       0.2878761       71.39826
2016    22      5       0.2471607       63.39794
2016    22      6       0.1988362       53.41749
2016    22      7       0.2022959       53.95333
2016    23      0       0.2644517       66.82437
2016    23      1       0.3020059       74.17629
2016    23      2       0.3452737       82.31914
2016    23      3       0.3360205       80.66157
2016    23      4       0.3621823       85.38652
2016    23      5       0.3939046       90.97757
2016    23      6       0.3249828       78.53038
2016    23      7       0.3370192       80.50113
2016    24      0       0.3166255       76.58717
2016    24      1       0.2702025       67.64538
2016    24      2       0.3055041       74.64353
2016    24      3       0.6498716       129.6809
2016    24      4       0.8649985       154.5535
2016    24      5       0.9032944       158.5897
2016    24      6       1.390746        200.6958
2016    24      7       1.286162        192.3231
2016    25      0       1.03186         171.146
2016    25      1       0.8534698       153.5202
2016    25      2       0.6567602       130.1527
2016    25      3       0.6276857       126.8396
2016    25      4       0.9197454       161.6655
2016    25      5       1.085993        177.0822
2016    25      6       0.9318019       162.8918
2016    25      7       0.7976229       148.6337
2016    26      0       0.8345597       152.563
2016    26      1       0.8068905       149.0633
2016    26      2       0.839257        152.6028
2016    26      3       1.064734        175.0812
2016    26      4       1.028039        170.719
2016    26      5       0.890015        157.1466
2016    26      6       0.892236        158.6017
2016    26      7       0.7874541       147.164
2016    27      0       0.585046        121.1333
2016    27      1       0.4273671       96.7155
2016    27      2       0.3788094       88.03018
2016    27      3       0.3804358       88.03343
2016    27      4       0.4156977       94.52511
2016    27      5       0.3182354       77.29853
2016    27      6       0.2283033       59.58431
2016    27      7       0.2215643       58.03462
2016    28      0       0.2003178       53.50345
2016    28      1       0.1521364       43.08317
2016    28      2       0.1568399       44.17017
2016    28      3       0.2603354       66.09328
2016    28      4       0.8012192       149.1292
2016    28      5       0.9983269       169.5155
2016    28      6       0.9783514       167.6722
2016    28      7       0.8362392       153.2754
2016    29      0       0.6346982       128.3758
2016    29      1       0.4793556       105.1866
2016    29      2       0.3840704       88.93471
2016    29      3       0.432587        97.00404
2016    29      4       0.6669635       131.391
2016    29      5       0.5638441       117.3682
2016    29      6       0.476567        104.3512
2016    29      7       0.3920345       90.28686
2016    30      0       0.3149404       76.29571
2016    30      1       0.2559815       64.86533
2016    30      2       0.2353762       60.49335
2016    30      3       0.3270935       78.39496
2016    30      4       0.4866386       105.488
2016    30      5       0.5506852       115.4825
2016    30      6       0.5689358       118.6177
2016    30      7       0.6148597       125.3289
2017    1       0       0.2766161       68.88247
2017    1       1       0.2731502       68.16709
2017    1       2       0.2782058       69.01921
2017    1       3       0.2869206       70.57005
2017    1       4       0.3466487       82.06757
2017    1       5       0.4235832       95.78968
2017    1       6       0.4724692       103.9361
2017    1       7       0.5485912       115.5885
2017    2       0       0.4790882       104.6858
2017    2       1       0.4636334       102.0429
2017    2       2       0.484971        105.4683
2017    2       3       0.6579256       130.8316
2017    2       4       1.100695        178.5091
2017    2       5       1.059371        174.5096
2017    2       6       1.012309        170.5553
2017    2       7       0.9543361       164.9627
2017    3       0       0.8867924       157.5554
2017    3       1       0.7826981       145.7302
2017    3       2       0.7167231       137.5192
2017    3       3       0.749561        141.6965
2017    3       4       0.84292         153.0066
2017    3       5       0.8986486       159.2672
2017    3       6       0.8178161       150.5765
2017    3       7       0.8036408       148.8215
2017    4       0       0.730893        140.0348
2017    4       1       0.6997036       135.8663
2017    4       2       0.7343307       140.2469
2017    4       3       0.9068991       159.8594
2017    4       4       1.184157        185.2202
2017    4       5       1.064055        175.1956
2017    4       6       1.038615        172.4915
2017    4       7       0.9069679       159.7066
2017    5       0       0.7487968       141.867
2017    5       1       0.6505856       129.2156
2017    5       2       0.7083095       136.8389
2017    5       3       0.8538021       154.0677
2017    5       4       1.083386        176.2531
2017    5       5       1.125881        179.4184
2017    5       6       1.152792        182.1024
2017    5       7       1.046818        173.1426
2017    6       0       0.9114969       159.7934
2017    6       1       0.8304299       151.3022
2017    6       2       0.8008902       148.0452
2017    6       3       0.7705532       144.7369
2017    6       4       0.7810352       146.3463
2017    6       5       0.8469404       153.8574
2017    6       6       0.9239118       161.9319
2017    6       7       0.9347574       163.1378
2017    7       0       0.9481985       164.5204
2017    7       1       0.9214115       161.682
2017    7       2       0.9917674       168.5881
2017    7       3       1.062288        175.0207
2017    7       4       0.9909657       168.5967
2017    7       5       0.9795546       167.3742
2017    7       6       0.8093178       149.7899
2017    7       7       0.606772        124.3703
2017    8       0       0.55954         117.3644
2017    8       1       0.5865539       120.8156
2017    8       2       0.7910446       147.1948
2017    8       3       0.9885823       168.1292
2017    8       4       0.9616635       164.7061
2017    8       5       1.00864         168.8722
2017    8       6       1.166686        183.8491
2017    8       7       1.301053        193.6855
2017    9       0       1.213413        186.2454
2017    9       1       1.126906        178.9067
2017    9       2       0.7854247       145.7178
2017    9       3       0.7332254       139.1531
2017    9       4       0.8460403       152.3289
2017    9       5       0.6458695       128.2913
2017    9       6       0.5267685       111.9041
2017    9       7       0.4681539       102.9772
2017    10      0       0.3887668       89.6299
2017    10      1       0.2651045       66.58129
2017    10      2       0.3731708       87.0537
2017    10      3       0.7300374       139.9452
2017    10      4       0.8912021       158.5749
2017    10      5       0.8277371       152.1284
2017    10      6       0.4429114       99.33708
2017    10      7       0.3830767       89.06591
2017    11      0       0.398451        91.70528
2017    11      1       0.3579478       84.56723
2017    11      2       0.3983047       91.66053
2017    11      3       0.5723442       119.1418
2017    11      4       0.5584067       116.9339
2017    11      5       0.4876054       106.485
2017    11      6       0.3694183       86.6178
2017    11      7       0.3045173       74.53836
2017    12      0       0.3143159       76.39114
2017    12      1       0.3467826       82.39058
2017    12      2       0.3479217       82.56196
2017    12      3       0.3180946       77.09199
2017    12      4       0.2641516       66.56944
2017    12      5       0.1889231       50.96029
2017    12      6       0.1635961       45.50641
2017    12      7       0.2424439       62.26715
2017    13      0       0.3745951       87.2607
2017    13      1       0.4173087       94.424
2017    13      2       0.3138133       75.47356
2017    13      3       0.212775        55.5089
2017    13      4       0.3442334       81.69098
2017    13      5       1.018323        170.3912
2017    13      6       1.328223        194.4974
2017    13      7       1.266193        190.2534
2017    14      0       0.9885523       167.1879
2017    14      1       0.5069413       108.4127
2017    14      2       0.3743826       86.71915
2017    14      3       0.2944915       72.23021
2017    14      4       0.3312912       79.56463
2017    14      5       0.4170273       95.06405
2017    14      6       0.3547152       84.26475
2017    14      7       0.2894066       71.93888
2017    15      0       0.2937239       72.63063
2017    15      1       0.416422        94.85671
2017    15      2       0.6731614       133.2853
2017    15      3       0.927424        162.9178
2017    15      4       1.159498        184.01
2017    15      5       1.111438        180.1091
2017    15      6       0.9971039       169.7766
2017    15      7       0.8453314       154.1476
2017    16      0       0.7529683       143.4939
2017    16      1       0.6505394       130.5748
2017    16      2       0.6032109       123.853
2017    16      3       0.8171717       149.7696
2017    16      4       0.845581        153.1658
2017    16      5       0.7488939       142.8698
2017    16      6       0.4741534       104.6382
2017    16      7       0.3556501       84.23471
2017    17      0       0.2468183       63.24253
2017    17      1       0.1563014       43.92012
2017    17      2       0.1391536       39.94295
2017    17      3       0.1057          32.09625
2017    17      4       0.1198379       35.3371
2017    17      5       0.1847928       49.90465
2017    17      6       0.2680775       67.29241
2017    17      7       0.3060915       74.70911
2017    18      0       0.2790618       69.4237
2017    18      1       0.215114        56.36783
2017    18      2       0.2166105       56.57694
2017    18      3       0.2177145       56.74569
2017    18      4       0.2273112       58.84095
2017    18      5       0.2706413       67.79958
2017    18      6       0.3475037       82.5567
2017    18      7       0.4258479       96.2338
2017    19      0       0.399818        91.7657
2017    19      1       0.2937921       72.36451
2017    19      2       0.3229251       77.84018
2017    19      3       0.5221608       110.918
2017    19      4       0.8258269       150.8615
2017    19      5       0.9012499       158.5935
2017    19      6       0.8743082       155.6027
2017    19      7       0.7368137       139.9506
2017    20      0       0.6024257       122.7719
2017    20      1       0.3867921       89.18249
2017    20      2       0.343015        81.45982
2017    20      3       0.607375        123.8199
2017    20      4       0.9375915       162.8366
2017    20      5       0.8888393       157.3267
2017    20      6       0.8383892       151.9819
2017    20      7       0.7724623       144.8331
2017    21      0       0.635513        127.6808
2017    21      1       0.5763331       119.3378
2017    21      2       0.483246        105.2211
2017    21      3       0.7751267       145.1515
2017    21      4       0.9839656       166.3858
2017    21      5       1.231453        188.7753
2017    21      6       1.335427        196.3908
2017    21      7       1.1705          183.269
2017    22      0       0.9196112       160.243
2017    22      1       0.6248109       125.4506
2017    22      2       0.4371214       97.65409
2017    22      3       0.6597119       131.2182
2017    22      4       0.9530665       164.356
2017    22      5       0.9244446       160.8936
2017    22      6       1.040039        173.4908
2017    22      7       1.085862        178.3682
2017    23      0       1.076651        177.3211
2017    23      1       1.002871        169.9847
2017    23      2       0.7610691       143.4099
2017    23      3       0.6347374       127.0597
2017    23      4       0.7600143       143.0524
2017    23      5       0.8013959       148.2055
2017    23      6       0.9643433       166.0252
2017    23      7       1.191196        187.5436
2017    24      0       1.228646        189.5047
2017    24      1       1.203271        186.7037
2017    24      2       0.9391012       163.7124
2017    24      3       0.8956379       158.8136
2017    24      4       0.9241519       161.1955
2017    24      5       0.9462762       163.7328
2017    24      6       1.220372        189.8121
2017    24      7       1.29535         193.5504
2017    25      0       0.9454578       164.6524
2017    25      1       0.7423979       142.2017
2017    25      2       0.6669258       132.4825
2017    25      3       0.7408618       140.7507
2017    25      4       0.8713252       154.8104
2017    25      5       1.006477        169.3101
2017    25      6       1.187393        186.5473
2017    25      7       1.021221        170.9818
2017    26      0       0.7169269       137.2891
2017    26      1       0.4684503       102.5098
2017    26      2       0.4141178       94.16898
2017    26      3       0.9290973       161.5127
2017    26      4       0.9731711       165.6067
2017    26      5       0.7346112       140.8132
2017    26      6       0.4845036       105.9256
2017    26      7       0.3007507       73.56962
2017    27      0       0.3064358       74.19534
2017    27      1       0.390242        89.21772
2017    27      2       0.4735226       103.0211
2017    27      3       0.5208221       110.4823
2017    27      4       0.566307        117.1309
2017    27      5       0.5904037       120.1548
2017    27      6       0.4629833       100.9479
2017    27      7       0.3032072       73.23289
2017    28      0       0.3045034       73.69414
2017    28      1       0.3355381       79.2461
2017    28      2       0.2826758       69.36788
2017    28      3       0.2083617       54.6839
2017    28      4       0.2394667       61.05958
2017    28      5       0.2559203       64.21488
2017    28      6       0.2480963       62.57746
2017    28      7       0.220502        57.06354
2017    29      0       0.2144052       55.90189
2017    29      1       0.1906312       50.86727
2017    29      2       0.1638475       44.99799
2017    29      3       0.3705213       85.68275
2017    29      4       0.5554042       115.3098
2017    29      5       0.8342747       151.2462
2017    29      6       0.9857159       166.7429
2017    29      7       1.059852        173.7088
2017    30      0       0.8981773       158.4522
2017    30      1       0.7466581       141.1383
2017    30      2       0.7161092       137.5386
2017    30      3       1.094029        177.8377
2017    30      4       1.276865        192.1437
2017    30      5       1.130377        180.2348
2017    30      6       0.8207564       150.4724
2017    30      7       0.5247954       112.0291
2018    1       0       0.5774434       119.3865
2018    1       1       0.4880666       105.8633
2018    1       2       0.4748424       103.7461
2018    1       3       0.4842449       105.3046
2018    1       4       0.5090353       109.3337
2018    1       5       0.5198027       111.2631
2018    1       6       0.5271298       112.5094
2018    1       7       0.5406249       114.5867
2018    2       0       0.4543968       100.9838
2018    2       1       0.3109558       75.73972
2018    2       2       0.3053434       74.58569
2018    2       3       0.3454551       82.01385
2018    2       4       0.4962411       107.2507
2018    2       5       0.4425419       98.44094
2018    2       6       0.2709926       67.63147
2018    2       7       0.1769565       48.01368
2018    3       0       0.1557277       43.41419
2018    3       1       0.1565761       43.65425
2018    3       2       0.1877158       50.4448
2018    3       3       0.2291795       59.21828
2018    3       4       0.3053698       74.36124
2018    3       5       0.3351088       80.04362
2018    3       6       0.2748949       68.65241
2018    3       7       0.2494874       63.6851
2018    4       0       0.2324047       60.24445
2018    4       1       0.196428        52.73045
2018    4       2       0.2097705       55.59428
2018    4       3       0.2313836       60.10457
2018    4       4       0.2417059       62.33804
2018    4       5       0.333521        80.35751
2018    4       6       0.396825        91.709
2018    4       7       0.4539044       101.2676
2018    5       0       0.4308247       97.39018
2018    5       1       0.3639604       85.64695
2018    5       2       0.3311533       79.60577
2018    5       3       0.3262641       78.69775
2018    5       4       0.3186089       77.13597
2018    5       5       0.3122923       75.86468
2018    5       6       0.2358325       60.84174
2018    5       7       0.1810491       49.33156
2018    6       0       0.1637646       45.58767
2018    6       1       0.1570273       44.09561
2018    6       2       0.1557773       43.8927
2018    6       3       0.1519275       43.09783
2018    6       4       0.1600004       44.86506
2018    6       5       0.1591714       44.60376
2018    6       6       0.158177        44.46442
2018    6       7       0.1737678       47.95482
2018    7       0       0.1703492       47.22773
2018    7       1       0.165325        46.1465
2018    7       2       0.2103803       55.83747
2018    7       3       0.2618714       66.40899
2018    7       4       0.5243985       112.1883
2018    7       5       0.5100037       110.0921
2018    7       6       0.343317        82.07371
2018    7       7       0.2357651       61.05925
2018    8       0       0.2070534       55.10637
2018    8       1       0.2160253       57.06621
2018    8       2       0.2140393       56.67915
2018    8       3       0.2558258       65.09514
2018    8       4       0.4262546       96.34329
2018    8       5       0.431355        97.36973
2018    8       6       0.3838585       89.29393
2018    8       7       0.3530254       83.86728
2018    9       0       0.3364011       80.88777
2018    9       1       0.322551        78.24554
2018    9       2       0.3193147       77.4316
2018    9       3       0.4177425       94.782
2018    9       4       0.6528589       130.0587
2018    9       5       0.7241854       139.2888
2018    9       6       0.8552342       154.5004
2018    9       7       0.9844531       167.3375
2018    10      0       0.8737287       156.4035
2018    10      1       0.6582085       131.1592
2018    10      2       0.5307909       113.2327
2018    10      3       0.3568992       84.56786
2018    10      4       0.2739597       68.81144
2018    10      5       0.2472428       63.40438
2018    10      6       0.2528718       64.4712
2018    10      7       0.2689875       67.76112
2018    11      0       0.2096616       55.61452
2018    11      1       0.1840714       50.02364
2018    11      2       0.2402695       61.87162
2018    11      3       0.362015        84.97885
2018    11      4       0.4828619       105.3378
2018    11      5       0.3346479       80.07639
2018    11      6       0.3361906       80.17684
2018    11      7       0.3171519       76.56063
2018    12      0       0.2627916       66.05716
2018    12      1       0.2385487       61.18461
2018    12      2       0.231708        59.70512
2018    12      3       0.231953        59.6747
2018    12      4       0.2455896       62.40397
2018    12      5       0.2129025       55.69033
2018    12      6       0.1890814       50.79176
2018    12      7       0.1980227       52.76677
2018    13      0       0.196937        52.56494
2018    13      1       0.1839811       49.74678
2018    13      2       0.1734982       47.42785
2018    13      3       0.1651126       45.5913
2018    13      4       0.1708595       46.80946
2018    13      5       0.1797977       48.47462
2018    13      6       0.1703578       46.23584
2018    13      7       0.1618403       44.46254
2018    14      0       0.1539193       42.7027
2018    14      1       0.1495141       41.58527
2018    14      2       0.1585602       43.60116
2018    14      3       0.1651047       44.99058
2018    14      4       0.1470446       41.15482
2018    14      5       0.1320659       37.85212
2018    14      6       0.1289017       37.0429
2018    14      7       0.1356165       38.4627
2018    15      0       0.1438389       40.28558
2018    15      1       0.1561385       42.90145
2018    15      2       0.1887227       49.63336
2018    15      3       0.2066104       53.13689
2018    15      4       0.2097018       54.10058
2018    15      5       0.1990572       52.48297
2018    15      6       0.1857607       50.10612
2018    15      7       0.1865998       50.40846
2018    16      0       0.1696557       46.72205
2018    16      1       0.1506523       42.44107
2018    16      2       0.1335223       38.41112
2018    16      3       0.1408071       39.84854
2018    16      4       0.1516944       42.3168
2018    16      5       0.4123244       93.93211
2018    16      6       0.7288574       140.5159
2018    16      7       0.69014         135.3368
2018    17      0       0.4751766       104.4199
2018    17      1       0.3851426       89.36816
2018    17      2       0.4898862       106.8485
2018    17      3       0.6351551       127.8785
2018    17      4       0.8791593       157.2876
2018    17      5       0.9221582       161.2112
2018    17      6       0.7028922       135.4335
2018    17      7       0.5231762       110.2685
2018    18      0       0.3511686       82.17808
2018    18      1       0.2436516       61.80222
2018    18      2       0.2202607       56.90057
2018    18      3       0.2215104       57.20486
2018    18      4       0.3439649       81.53859
2018    18      5       0.4692062       103.3891
2018    18      6       0.6658654       131.8863
2018    18      7       0.7128676       137.8724
2018    19      0       0.521497        111.5065
2018    19      1       0.408427        93.07986
2018    19      2       0.5047765       108.7211
2018    19      3       0.8962792       158.8073
2018    19      4       1.047979        173.4968
2018    19      5       1.054538        174.033
2018    19      6       1.016279        170.567
2018    19      7       0.803071        148.441
2018    20      0       0.7969438       147.3491
2018    20      1       0.6048139       122.701
2018    20      2       0.5317998       112.0663
2018    20      3       0.6239881       125.4718
2018    20      4       0.8734649       155.9807
2018    20      5       1.055412        173.5923
2018    20      6       1.126977        179.7911
2018    20      7       1.428717        203.5017
2018    21      0       1.367242        199.1705
2018    21      1       1.319816        194.6745
2018    21      2       1.131709        180.6647
2018    21      3       1.18737         185.073
2018    21      4       1.182655        184.4756
2018    21      5       1.120568        179.0727
2018    21      6       1.081531        176.0488
2018    21      7       1.070156        175.8075
2018    22      0       1.064933        175.9593
2018    22      1       0.971743        166.8058
2018    22      2       0.9471717       164.0005
2018    22      3       1.163262        183.2612
2018    22      4       1.359757        197.6616
2018    22      5       1.513677        208.0615
2018    22      6       1.626157        215.0174
2018    22      7       1.426999        202.209
2018    23      0       1.410893        200.5972
2018    23      1       1.356513        197.1078
2018    23      2       1.323909        195.1534
2018    23      3       1.579159        211.0854
2018    23      4       1.726067        219.296
2018    23      5       1.603454        213.3662
2018    23      6       1.487717        206.8037
2018    23      7       1.498714        207.4604
2018    24      0       1.451986        204.044
2018    24      1       1.448936        203.25
2018    24      2       1.267368        190.9762
2018    24      3       1.162367        182.7604
2018    24      4       1.062606        174.5106
2018    24      5       0.8751228       156.3787
2018    24      6       0.8477761       154.0623
2018    24      7       0.8135745       150.1302
2018    25      0       0.7605764       143.4416
2018    25      1       0.6989251       135.701
2018    25      2       0.7270492       139.3267
2018    25      3       0.7311683       140.0125
2018    25      4       0.6221589       126.2193
2018    25      5       0.4999429       108.5451
2018    25      6       0.3777186       88.12308
2018    25      7       0.3463294       82.27354
2018    26      0       0.3692457       86.20898
2018    26      1       0.3336454       79.40078
2018    26      2       0.3225061       77.11852
2018    26      3       0.3417448       80.7169
2018    26      4       0.3905666       89.86225
2018    26      5       0.3959384       91.17928
2018    26      6       0.3495222       83.05252
2018    26      7       0.3530809       83.67296
2018    27      0       0.3617269       85.18993
2018    27      1       0.4238776       95.94828
2018    27      2       0.5438252       115.1284
2018    27      3       0.6268199       127.0921
2018    27      4       0.6934714       135.9645
2018    27      5       0.5514773       116.5662
2018    27      6       0.3396196       81.39345
2018    27      7       0.2287522       59.52874
2018    28      0       0.199626        53.43433
2018    28      1       0.1881015       51.14452
2018    28      2       0.2682834       67.76744
2018    28      3       0.4236799       96.11679
2018    28      4       0.4365763       98.17875
2018    28      5       0.3588345       84.83318
2018    28      6       0.2781481       69.605
2018    28      7       0.2467457       63.19323
2018    29      0       0.2445153       62.79628
2018    29      1       0.2592965       65.86777
2018    29      2       0.2940908       72.81121
2018    29      3       0.3091907       75.79722
2018    29      4       0.3645415       86.13146
2018    29      5       0.3938712       91.37062
2018    29      6       0.3446566       82.53131
2018    29      7       0.2622298       66.59248
2018    30      0       0.2468603       63.41145
2018    30      1       0.2502874       64.05267
2018    30      2       0.3285277       79.36672
2018    30      3       0.4735918       104.7068
2018    30      4       0.5209332       112.2718
2018    30      5       0.436304        98.77101
2018    30      6       0.423086        96.61889
2018    30      7       0.433728        98.33742
