####################################################################################################
# Month: 02Feb                                                                                     #
# Station: NOR                                                                                     #
# Frequency: 345 GHz                                                                               #
# Columns are: year    day     segment         tau     Tb (K)                                      #
####################################################################################################
2009    1       0       0.1270606       36.2579
2009    1       1       0.1572731       43.00951
2009    1       2       0.1427594       39.76843
2009    1       3       0.1428733       39.82932
2009    1       4       0.1696977       45.52586
2009    1       5       0.1573454       42.9317
2009    1       6       0.1369663       38.47842
2009    1       7       0.1814078       47.47157
2009    2       0       0.2244274       56.16988
2009    2       1       0.2879277       68.71386
2009    2       2       0.3709227       83.7798
2009    2       3       0.3853752       86.22529
2009    2       4       0.3952344       87.63176
2009    2       5       0.4649348       99.23914
2009    2       6       0.5589091       113.5399
2009    2       7       0.6220914       122.3497
2009    3       0       0.5061832       105.9943
2009    3       1       0.3454009       79.15034
2009    3       2       0.4055609       88.761
2009    3       3       0.449126        95.77773
2009    3       4       0.4280791       92.11086
2009    3       5       0.4536272       96.40846
2009    3       6       0.423661        92.65256
2009    3       7       0.2463075       61.55226
2009    4       0       0.1361434       38.36986
2009    4       1       0.1894567       48.9936
2009    4       2       0.2832436       67.70861
2009    4       3       0.2952981       70.32203
2009    4       4       0.2071701       53.62057
2009    4       5       0.1625498       44.24415
2009    4       6       0.1750209       46.71515
2009    4       7       0.2880613       68.33478
2009    5       0       0.2840557       68.04118
2009    5       1       0.2399026       59.97504
2009    5       2       0.2782934       67.27165
2009    5       3       0.295105        70.62712
2009    5       4       0.4102327       90.56458
2009    5       5       0.3895528       86.95197
2009    5       6       0.08765356      27.43826
2009    5       7       0.07652424      24.62421
2009    6       0       0.08214295      26.0414
2009    6       1       0.07232606      23.68833
2009    6       2       0.0910997       27.80285
2009    6       3       0.1167023       33.27429
2009    6       4       0.1359429       37.19052
2009    6       5       0.1870589       47.73327
2009    6       6       0.2456295       59.9627
2009    6       7       0.239649        59.30608
2009    7       0       0.2126349       54.05675
2009    7       1       0.2586977       62.63105
2009    7       2       0.2488271       60.82832
2009    7       3       0.2350084       58.38616
2009    7       4       0.236314        58.76549
2009    7       5       0.1439382       40.18693
2009    7       6       0.08136767      25.79216
2009    7       7       0.08981756      27.73738
2009    8       0       0.09453627      28.93016
2009    8       1       0.086632        27.12823
2009    8       2       0.07822564      25.22177
2009    8       3       0.08031511      25.74763
2009    8       4       0.09265584      28.4709
2009    8       5       0.1382252       38.37402
2009    8       6       0.2256546       55.9905
2009    8       7       0.3637173       81.32037
2009    9       0       0.5289452       107.6929
2009    9       1       0.6641516       126.5522
2009    9       2       0.6543476       124.6902
2009    9       3       0.8801775       151.5673
2009    9       4       0.8307717       146.7355
2009    9       5       0.7360968       135.8933
2009    9       6       0.5914043       117.4182
2009    9       7       0.465651        99.2108
2009    10      0       0.4411796       95.41275
2009    10      1       0.7445514       137.1272
2009    10      2       0.2774442       67.02634
2009    10      3       0.1624221       43.76127
2009    10      4       0.1644035       44.09171
2009    10      5       0.2074927       52.52352
2009    10      6       0.2676891       63.88353
2009    10      7       0.275027        65.25619
2009    11      0       0.2384345       58.38066
2009    11      1       0.654295        125.4502
2009    11      2       0.7009682       130.9153
2009    11      3       0.7564311       137.7894
2009    11      4       0.4179568       90.47507
2009    11      5       0.7983359       141.8683
2009    11      6       0.07327203      23.66988
2009    11      7       0.07495959      23.99955
2009    12      0       0.1114863       32.28294
2009    12      1       0.1965613       50.38082
2009    12      2       0.3170545       73.84079
2009    12      3       0.4224717       92.53042
2009    12      4       0.4513762       97.74764
2009    12      5       0.491962        104.6065
2009    12      6       0.6490445       127.8134
2009    12      7       1.004701        169.4445
2009    13      0       0.3267693       76.21265
2009    13      1       0.5238495       108.9073
2009    13      2       1.256563        191.7066
2009    13      3       1.40254         202.5165
2009    13      4       1.925512        230.9059
2009    13      5       1.809912        226.5358
2009    13      6       1.913905        230.2756
2009    13      7       2.216018        239.4766
2009    14      0       0.3170815       76.78454
2009    14      1       0.1227487       35.98959
2009    14      2       0.2034817       53.74596
2009    14      3       0.3171594       75.58551
2009    14      4       0.4308451       95.34957
2009    14      5       0.5837689       119.0479
2009    14      6       0.7083654       136.0341
2009    14      7       0.5173779       109.8594
2009    15      0       0.2029004       52.98058
2009    15      1       0.2705204       65.01119
2009    15      2       0.3952764       87.95285
2009    15      3       0.6908044       131.6605
2009    15      4       1.025623        168.0082
2009    15      5       0.8212141       148.682
2009    15      6       0.6018829       119.3799
2009    15      7       0.4777681       100.7388
2009    16      0       0.2637708       63.33464
2009    16      1       0.1583377       43.08771
2009    16      2       0.1178444       34.34445
2009    16      3       0.1242084       35.5766
2009    16      4       0.1336205       37.6347
2009    16      5       0.130058        36.69936
2009    16      6       0.1195076       34.05518
2009    16      7       0.1151066       32.95978
2009    17      0       0.1131749       32.99022
2009    17      1       0.1679862       44.79079
2009    17      2       0.1576097       42.52443
2009    17      3       0.1279314       36.0906
2009    17      4       0.1216205       34.69131
2009    17      5       0.1462869       39.91629
2009    17      6       0.185187        48.18038
2009    17      7       0.2011699       51.58287
2009    18      0       0.2173735       54.91379
2009    18      1       0.3081355       72.02293
2009    18      2       0.3874492       85.70944
2009    18      3       0.4529181       95.98367
2009    18      4       0.3836457       84.75918
2009    18      5       0.2142266       54.20746
2009    18      6       0.1487823       40.23804
2009    18      7       0.1961788       49.6681
2009    19      0       0.2283966       55.96157
2009    19      1       0.337897        76.86261
2009    19      2       0.6390332       123.0551
2009    19      3       0.8694518       151.2159
2009    19      4       1.112323        175.7602
2009    19      5       1.402312        198.2898
2009    19      6       1.685308        215.4388
2009    19      7       2.039154        231.9735
2009    20      0       2.146755        237.277
2009    20      1       1.13238         182.1559
2009    20      2       0.5873843       120.1469
2009    20      3       0.3457424       79.64901
2009    20      4       0.1533771       42.10022
2009    20      5       0.199304        51.24141
2009    20      6       0.2011639       51.31832
2009    20      7       0.07388697      24.06226
2009    21      0       0.09715489      29.4871
2009    21      1       0.1171398       34.02341
2009    21      2       0.1477032       40.67415
2009    21      3       0.1377506       38.5926
2009    21      4       0.1040653       31.13822
2009    21      5       0.08972815      27.79302
2009    21      6       0.1195551       34.3553
2009    21      7       0.1254974       35.59243
2009    22      0       0.2966994       70.19969
2009    22      1       0.5808453       117.7453
2009    22      2       1.065098        172.2369
2009    22      3       1.246202        187.9218
2009    22      4       1.218428        186.2416
2009    22      5       1.452159        203.0714
2009    22      6       1.682323        217.0563
2009    22      7       1.988819        231.5455
2009    23      0       1.918552        228.3927
2009    23      1       1.320783        195.9421
2009    23      2       0.836226        152.2414
2009    23      3       0.2734868       67.16466
2009    23      4       0.2223229       55.01767
2009    23      5       0.3037894       70.74942
2009    23      6       0.2720752       65.27886
2009    23      7       0.4385537       94.14726
2009    24      0       1.16923         180.7477
2009    24      1       0.8890677       158.0107
2009    24      2       0.5484624       115.3924
2009    24      3       0.2023636       52.33893
2009    24      4       0.2493067       61.57736
2009    24      5       0.3324598       77.01303
2009    24      6       0.4809739       101.4001
2009    24      7       1.587603        211.2028
2009    25      0       1.718853        219.822
2009    25      1       1.449469        206.5207
2009    25      2       0.4065425       93.60495
2009    25      3       0.1859432       48.66361
2009    25      4       0.295551        69.87116
2009    25      5       0.3975239       88.68351
2009    25      6       0.4440119       96.80397
2009    25      7       0.5466654       112.0387
2009    26      0       0.6594509       128.0126
2009    26      1       0.7712791       142.4989
2009    26      2       0.8283589       149.4353
2009    26      3       0.6764399       131.0917
2009    26      4       0.646549        126.4497
2009    26      5       0.9057727       156.5069
2009    26      6       1.260624        188.0097
2009    26      7       1.336762        194.5467
2009    27      0       1.487164        204.3009
2009    27      1       1.439236        202.2058
2009    27      2       1.530789        206.1438
2009    27      3       1.234645        186.8134
2009    27      4       0.8706736       153.1679
2009    27      5       0.5286034       109.0944
2009    27      6       0.2437956       59.88491
2009    27      7       0.1835625       48.09828
2009    28      0       0.2502743       61.44842
2009    28      1       0.3344836       77.12039
2009    28      2       0.5285636       108.4957
2009    28      3       0.5050422       105.4597
2009    28      4       0.4032287       89.20223
2009    28      5       0.4590389       97.54394
2009    28      6       0.537427        109.2489
2009    28      7       0.5251373       107.869
2010    1       0       0.4713847       98.82313
2010    1       1       1.069574        172.0635
2010    1       2       1.550021        208.0008
2010    1       3       1.391857        197.6156
2010    1       4       1.257872        187.1337
2010    1       5       0.7057012       133.4615
2010    1       6       0.1704483       46.13493
2010    1       7       0.121579        35.15886
2010    2       0       0.1756072       46.83683
2010    2       1       0.1912796       50.22182
2010    2       2       0.2772829       66.76931
2010    2       3       0.2662375       63.9638
2010    2       4       0.2346194       57.99426
2010    2       5       0.3380808       77.10565
2010    2       6       0.322471        74.76634
2010    2       7       0.2356395       58.4929
2010    3       0       0.1231226       35.2178
2010    3       1       0.2213075       55.85809
2010    3       2       0.1856691       48.40836
2010    3       3       0.1700342       45.06036
2010    3       4       0.1789718       46.95119
2010    3       5       0.1488345       40.64843
2010    3       6       0.1454912       39.54323
2010    3       7       0.1556852       41.56961
2010    4       0       0.160789        42.65527
2010    4       1       0.1391153       38.66283
2010    4       2       0.1344766       37.63128
2010    4       3       0.1292247       36.47161
2010    4       4       0.1372626       38.19221
2010    4       5       0.1304761       36.74269
2010    4       6       0.1297013       36.59243
2010    4       7       0.157875        42.6877
2010    5       0       0.1799794       47.333
2010    5       1       0.2648592       64.19969
2010    5       2       0.2530059       61.69092
2010    5       3       0.2783985       66.17207
2010    5       4       0.3428444       77.40987
2010    5       5       0.3385001       76.39923
2010    5       6       0.2045177       51.63226
2010    5       7       0.1372459       37.763
2010    6       0       0.1977924       50.02503
2010    6       1       0.2050909       51.61623
2010    6       2       0.1555128       41.67889
2010    6       3       0.1499075       40.54059
2010    6       4       0.1667546       44.05368
2010    6       5       0.1741831       45.57245
2010    6       6       0.1298527       36.35723
2010    6       7       0.08049844      25.40257
2010    7       0       0.06633978      22.17113
2010    7       1       0.06909593      22.84431
2010    7       2       0.1410912       39.20425
2010    7       3       0.3042765       71.86014
2010    7       4       0.3530793       79.95399
2010    7       5       0.4039199       88.2417
2010    7       6       0.4821635       101.7919
2010    7       7       0.4439284       97.28145
2010    8       0       0.3520533       81.423
2010    8       1       0.4801933       102.2977
2010    8       2       0.6920277       132.1473
2010    8       3       0.9812198       164.8936
2010    8       4       1.086961        175.8599
2010    8       5       1.092991        177.6915
2010    8       6       0.9976957       169.3628
2010    8       7       0.9677146       166.584
2010    9       0       1.026536        172.4415
2010    9       1       0.3896311       89.70895
2010    9       2       0.4479327       100.0301
2010    9       3       0.6521862       130.7277
2010    9       4       1.124053        181.8057
2010    9       5       0.7946047       148.8502
2010    9       6       0.949109        165.68
2010    9       7       0.8675038       156.0946
2010    10      0       1.463044        206.7486
2010    10      1       1.399485        203.4999
2010    10      2       0.7761711       147.1154
2010    10      3       1.101909        179.4234
2010    10      4       1.752257        221.8021
2010    10      5       2.095249        234.5911
2010    10      6       1.214865        190.4861
2010    10      7       1.048308        176.5523
2010    11      0       1.472941        208.6016
2010    11      1       2.092444        236.8408
2010    11      2       2.256811        242.5478
2010    11      3       2.459954        247.5465
2010    11      4       1.97712         233.0394
2010    11      5       1.975878        230.6016
2010    11      6       1.338272        197.9998
2010    11      7       1.362674        198.2623
2010    12      0       1.46926         203.624
2010    12      1       1.238864        187.1887
2010    12      2       0.8465327       151.9315
2010    12      3       0.5254798       110.8209
2010    12      4       0.4592983       99.32046
2010    12      5       0.5163755       107.384
2010    12      6       0.6594153       126.7564
2010    12      7       0.5421151       110.4567
2010    13      0       0.3321359       77.21367
2010    13      1       0.2808805       68.2883
2010    13      2       0.205765        53.09404
2010    13      3       0.1492835       41.15033
2010    13      4       0.1241084       35.39271
2010    13      5       0.1385296       38.13699
2010    13      6       0.1622664       42.83417
2010    13      7       0.1420679       38.69757
2010    14      0       0.1805303       46.915
2010    14      1       0.2497326       60.94082
2010    14      2       0.4511925       95.51862
2010    14      3       0.5682656       112.9468
2010    14      4       0.6905261       129.7808
2010    14      5       0.8714178       150.6407
2010    14      6       0.8073902       144.534
2010    14      7       0.7928326       143.6881
2010    15      0       0.7966039       146.0464
2010    15      1       0.8753994       155.5921
2010    15      2       0.9800291       166.8302
2010    15      3       0.980367        166.9774
2010    15      4       0.9155084       159.8282
2010    15      5       0.8318441       150.6971
2010    15      6       0.7463995       140.0099
2010    15      7       0.6154521       121.42
2010    16      0       0.7261153       134.9711
2010    16      1       0.470365        98.96291
2010    16      2       0.2681994       64.89827
2010    16      3       0.1376881       38.29883
2010    16      4       0.1027044       30.42708
2010    16      5       0.109526        31.85904
2010    16      6       0.1181319       33.49361
2010    16      7       0.1960428       49.30267
2010    17      0       0.2961266       68.51298
2010    17      1       0.3693921       81.31098
2010    17      2       0.4062552       87.71476
2010    17      3       0.4101757       88.85889
2010    17      4       0.4379503       93.40672
2010    17      5       0.5196292       106.1832
2010    17      6       0.5845879       115.8628
2010    17      7       0.4810009       100.9612
2010    18      0       0.2548066       62.54415
2010    18      1       0.3389059       77.97515
2010    18      2       0.2432723       60.35005
2010    18      3       0.1147497       33.50307
2010    18      4       0.1122708       32.95608
2010    18      5       0.1105363       32.50814
2010    18      6       0.1063217       31.47093
2010    18      7       0.1210896       34.39569
2010    19      0       0.1606312       42.48544
2010    19      1       0.2874894       68.25494
2010    19      2       0.4885885       101.2582
2010    19      3       0.2346172       57.91957
2010    19      4       0.1604161       42.91663
2010    19      5       0.1861883       48.36548
2010    19      6       0.1627037       43.79451
2010    19      7       0.1315797       37.29179
2010    20      0       0.121554        34.92964
2010    20      1       0.1379138       38.51132
2010    20      2       0.202148        51.9681
2010    20      3       0.2647319       64.33997
2010    20      4       0.2932168       70.04811
2010    20      5       0.1730816       46.59417
2010    20      6       0.1146641       33.75673
2010    20      7       0.1095924       32.48889
2010    21      0       0.1286329       36.54033
2010    21      1       0.163022        43.75847
2010    21      2       0.1779699       46.84585
2010    21      3       0.1522158       41.31489
2010    21      4       0.1259168       35.86194
2010    21      5       0.1601007       42.6377
2010    21      6       0.2617353       63.3151
2010    21      7       0.3637118       82.09916
2010    22      0       0.4139638       91.02681
2010    22      1       0.3773462       84.8458
2010    22      2       0.4222941       91.60574
2010    22      3       0.5771146       115.9276
2010    22      4       0.2161324       55.0993
2010    22      5       0.1292478       36.18713
2010    22      6       0.1567533       42.30059
2010    22      7       0.2575518       63.08717
2010    23      0       0.418119        92.78145
2010    23      1       0.3931441       88.94368
2010    23      2       0.3240906       76.98714
2010    23      3       0.2448707       61.8359
2010    23      4       0.1579807       43.35927
2010    23      5       0.1424403       39.60796
2010    23      6       0.1923045       50.40585
2010    23      7       0.227444        57.88621
2010    24      0       0.2077141       54.11504
2010    24      1       0.1760707       47.64177
2010    24      2       0.1891209       50.45999
2010    24      3       0.1690299       46.26325
2010    24      4       0.1462729       41.32317
2010    24      5       0.1294136       37.52766
2010    24      6       0.1156195       34.00506
2010    24      7       0.2538558       61.63604
2010    25      0       0.4555071       97.44943
2010    25      1       0.5892469       119.2105
2010    25      2       0.5714758       116.7382
2010    25      3       0.7324423       137.5309
2010    25      4       0.8996389       157.3435
2010    25      5       0.6669114       129.6439
2010    25      6       1.043059        171.486
2010    25      7       1.566304        211.5647
2010    26      0       1.828147        224.0824
2010    26      1       1.397203        202.0507
2010    26      2       1.78212         222.2677
2010    26      3       1.878431        225.6073
2010    26      4       1.847995        224.0426
2010    26      5       1.973938        229.6605
2010    26      6       2.026249        231.726
2010    26      7       2.075376        234.809
2010    27      0       1.498432        209.0806
2010    27      1       1.247605        192.5208
2010    27      2       1.025546        172.748
2010    27      3       0.7450642       141.3388
2010    27      4       0.696106        133.2967
2010    27      5       1.146785        179.7297
2010    27      6       1.595292        210.4072
2010    27      7       1.61001         211.5643
2010    28      0       1.395534        197.5264
2010    28      1       0.365658        84.51291
2010    28      2       0.187979        50.05596
2010    28      3       0.3096726       74.69714
2010    28      4       0.455947        100.3127
2010    28      5       0.8283231       150.2548
2010    28      6       0.4723943       103.0635
2010    28      7       0.4055278       91.17085
2011    1       0       0.1475848       40.69062
2011    1       1       0.1391809       38.95318
2011    1       2       0.1221892       35.26715
2011    1       3       0.1012398       30.55964
2011    1       4       0.09389478      28.69934
2011    1       5       0.1141962       32.9602
2011    1       6       0.1298196       36.44454
2011    1       7       0.1547743       41.74405
2011    2       0       0.2206874       54.82522
2011    2       1       0.3203844       73.42926
2011    2       2       0.4488061       95.28807
2011    2       3       0.3680267       82.121
2011    2       4       0.3169309       73.16478
2011    2       5       0.2603781       63.0472
2011    2       6       0.2102821       53.67498
2011    2       7       0.1709017       45.73241
2011    3       0       0.1445528       39.86477
2011    3       1       0.1572607       42.47232
2011    3       2       0.1658515       44.24988
2011    3       3       0.2189738       55.22712
2011    3       4       0.2250908       56.71988
2011    3       5       0.137141        38.63975
2011    3       6       0.1181051       34.4885
2011    3       7       0.2080075       53.55377
2011    4       0       0.1067974       32.02859
2011    4       1       0.1097047       32.20501
2011    4       2       0.1924178       49.64806
2011    4       3       0.2225381       56.22828
2011    4       4       0.2268498       56.90067
2011    4       5       0.2417286       59.53075
2011    4       6       0.1986865       51.23351
2011    4       7       0.2574936       62.18305
2011    5       0       0.4097833       89.18728
2011    5       1       0.3353702       76.39425
2011    5       2       0.245918        59.95533
2011    5       3       0.1625648       44.41866
2011    5       4       0.1380524       39.09616
2011    5       5       0.1120317       32.92024
2011    5       6       0.1428886       39.94899
2011    5       7       0.1528573       42.01878
2011    6       0       0.1984475       50.59816
2011    6       1       0.2406868       58.65365
2011    6       2       0.2642881       63.51362
2011    6       3       0.370793        82.93431
2011    6       4       0.558027        113.5277
2011    6       5       0.3582026       81.91484
2011    6       6       0.2594711       64.05053
2011    6       7       0.08667587      27.13471
2011    7       0       0.1149213       33.43962
2011    7       1       0.1799768       47.42776
2011    7       2       0.2217445       56.27895
2011    7       3       0.2622746       64.05314
2011    7       4       0.3695776       83.36125
2011    7       5       0.5748755       115.6823
2011    7       6       0.368876        83.94503
2011    7       7       0.1908806       49.46067
2011    8       0       0.3715344       82.50281
2011    8       1       0.5563771       112.5474
2011    8       2       0.7406468       137.7444
2011    8       3       0.8526832       151.4974
2011    8       4       1.073779        172.1464
2011    8       5       0.8328628       148.3362
2011    8       6       0.6917686       133.1152
2011    8       7       1.067318        172.1061
2011    9       0       0.5822417       116.8198
2011    9       1       0.4275077       93.50993
2011    9       2       0.1293762       36.99909
2011    9       3       0.1004766       30.27707
2011    9       4       0.1423014       39.19985
2011    9       5       0.1899708       48.98178
2011    9       6       0.2566237       62.49857
2011    9       7       0.2850836       68.30929
2011    10      0       0.3783188       85.09014
2011    10      1       0.6052277       120.3778
2011    10      2       0.7926433       143.9493
2011    10      3       1.032813        168.4421
2011    10      4       1.080317        172.8912
2011    10      5       1.133156        176.3156
2011    10      6       0.8848423       153.0912
2011    10      7       0.8459691       148.58
2011    11      0       0.9370143       158.641
2011    11      1       0.9618633       161.479
2011    11      2       0.8732902       152.9844
2011    11      3       0.6766207       130.5201
2011    11      4       0.4694746       101.1702
2011    11      5       0.3202418       75.66131
2011    11      6       0.295768        70.67315
2011    11      7       0.3866022       86.06025
2011    12      0       0.406758        88.88458
2011    12      1       0.4663544       97.98127
2011    12      2       0.5072009       103.9137
2011    12      3       0.4363063       92.69865
2011    12      4       0.2957546       68.90072
2011    12      5       0.191188        49.09191
2011    12      6       0.1297169       36.48293
2011    12      7       0.107031        31.61953
2011    13      0       0.1048764       31.19527
2011    13      1       0.1531626       41.51574
2011    13      2       0.2530827       61.33316
2011    13      3       0.3496317       79.17161
2011    13      4       0.3389787       77.29293
2011    13      5       0.4163221       89.9752
2011    13      6       0.537148        108.5336
2011    13      7       0.6892608       129.3348
2011    14      0       0.5330556       109.5772
2011    14      1       0.6470972       125.1528
2011    14      2       0.8838501       152.3216
2011    14      3       0.9670766       161.3416
2011    14      4       1.057002        171.4399
2011    14      5       0.9387352       161.2739
2011    14      6       0.4461497       96.95685
2011    14      7       0.3962856       87.68558
2011    15      0       0.3008259       70.44657
2011    15      1       0.1305409       36.74125
2011    15      2       0.06186381      21.19306
2011    15      3       0.07981629      25.529
2011    15      4       0.1121307       32.99677
2011    15      5       0.1343047       37.98499
2011    15      6       0.1592072       43.59191
2011    15      7       0.14089         39.74646
2011    16      0       0.1228908       35.7641
2011    16      1       0.1115141       33.25497
2011    16      2       0.1053752       31.84593
2011    16      3       0.1162163       33.90955
2011    16      4       0.1651092       43.88746
2011    16      5       0.2028125       51.56494
2011    16      6       0.4066249       88.46199
2011    16      7       0.6715042       127.4268
2011    17      0       1.034927        168.0528
2011    17      1       1.006145        166.2482
2011    17      2       0.8742507       154.7814
2011    17      3       0.9817626       166.0452
2011    17      4       1.099063        177.1413
2011    17      5       1.596524        211.6305
2011    17      6       1.674601        217.4437
2011    17      7       1.820092        222.9904
2011    18      0       0.7801914       145.479
2011    18      1       0.1120603       33.56794
2011    18      2       0.07464743      24.514
2011    18      3       0.08715696      27.37502
2011    18      4       0.08404466      26.60863
2011    18      5       0.09545332      29.14081
2011    18      6       0.1440994       39.73953
2011    18      7       0.1848621       48.09503
2011    19      0       0.2319833       57.09355
2011    19      1       0.2253815       55.96031
2011    19      2       0.1909177       48.79803
2011    19      3       0.2070737       52.00366
2011    19      4       0.1731262       45.45728
2011    19      5       0.1758047       45.91862
2011    19      6       0.2231667       55.18949
2011    19      7       0.257896        61.8349
2011    20      0       0.2462637       59.68678
2011    20      1       0.2451274       59.34046
2011    20      2       0.2697313       63.94818
2011    20      3       0.2983616       69.30184
2011    20      4       0.2853997       66.9954
2011    20      5       0.2187933       54.36987
2011    20      6       0.1530803       41.03231
2011    20      7       0.1164615       33.11842
2011    21      0       0.08905548      27.19318
2011    21      1       0.0764721       24.55881
2011    21      2       0.0917427       28.29702
2011    21      3       0.1071118       31.85118
2011    21      4       0.1019528       30.68001
2011    21      5       0.09756098      29.66908
2011    21      6       0.1108109       32.73436
2011    21      7       0.1172136       34.17715
2011    22      0       0.1137931       33.32761
2011    22      1       0.1038374       31.00714
2011    22      2       0.09546764      29.02157
2011    22      3       0.09233593      28.24609
2011    22      4       0.08845375      27.35565
2011    22      5       0.08682733      27.0166
2011    22      6       0.08259635      26.06565
2011    22      7       0.0819278       25.92825
2011    23      0       0.09263863      28.46771
2011    23      1       0.1330646       37.65145
2011    23      2       0.1543538       42.00341
2011    23      3       0.2410081       59.56419
2011    23      4       0.411929        90.45723
2011    23      5       0.456002        98.15104
2011    23      6       0.5035206       106.0775
2011    23      7       0.6317204       124.5571
2011    24      0       0.7234796       136.2683
2011    24      1       0.7771808       142.8967
2011    24      2       0.7295842       137.4394
2011    24      3       0.6902463       132.0722
2011    24      4       0.6349706       125.1443
2011    24      5       0.2791082       68.23695
2011    24      6       0.3264506       77.08191
2011    24      7       0.4336255       95.28588
2011    25      0       0.7334182       137.9686
2011    25      1       0.2028186       52.25411
2011    25      2       0.18992         49.08372
2011    25      3       0.1465289       40.11616
2011    25      4       0.05762257      20.2509
2011    25      5       0.06342935      21.67624
2011    25      6       0.07348582      24.09505
2011    25      7       0.09360977      28.83608
2011    26      0       0.1431068       40.05156
2011    26      1       0.1349334       38.31065
2011    26      2       0.1649671       44.91967
2011    26      3       0.1918224       50.28051
2011    26      4       0.5174997       106.6728
2011    26      5       0.3437722       79.39557
2011    26      6       0.2730468       66.00497
2011    26      7       0.3357356       77.54425
2011    27      0       0.7125299       135.715
2011    27      1       0.8085448       147.9663
2011    27      2       0.9339019       161.8339
2011    27      3       1.115463        178.3246
2011    27      4       1.309864        192.7128
2011    27      5       1.547497        208.3131
2011    27      6       1.398034        200.416
2011    27      7       1.447801        204.1688
2011    28      0       1.799552        222.7148
2011    28      1       1.784386        221.5215
2011    28      2       1.412893        201.25
2011    28      3       0.1542841       43.6433
2011    28      4       0.1742257       47.38232
2011    28      5       0.1378371       39.21232
2011    28      6       0.1203885       35.06805
2011    28      7       0.1467449       41.07705
2012    1       0       0.3859015       84.81143
2012    1       1       0.3060371       71.0544
2012    1       2       0.211854        53.22995
2012    1       3       0.2524744       60.70971
2012    1       4       0.1223026       34.57779
2012    1       5       0.08693106      26.8969
2012    1       6       0.09307596      28.28897
2012    1       7       0.1160002       33.25179
2012    2       0       0.1485021       39.91082
2012    2       1       0.1716687       44.50204
2012    2       2       0.1341354       36.86422
2012    2       3       0.1106007       31.97779
2012    2       4       0.1199234       34.08031
2012    2       5       0.09463698      28.67074
2012    2       6       0.07689203      24.70323
2012    2       7       0.06843256      22.79057
2012    3       0       0.06602314      22.22275
2012    3       1       0.0837959       26.34063
2012    3       2       0.1196717       34.34022
2012    3       3       0.1290108       36.36283
2012    3       4       0.1145415       33.39255
2012    3       5       0.1329487       37.41957
2012    3       6       0.1668246       44.82815
2012    3       7       0.1538419       42.18282
2012    4       0       0.09991184      30.25195
2012    4       1       0.1136652       33.20168
2012    4       2       0.1383131       38.59776
2012    4       3       0.1563589       42.55664
2012    4       4       0.1313271       37.05617
2012    4       5       0.1047827       31.20508
2012    4       6       0.1550819       42.05211
2012    4       7       0.3021189       70.94699
2012    5       0       0.3626001       82.09878
2012    5       1       0.4963657       103.2523
2012    5       2       0.6112717       120.8981
2012    5       3       0.4427331       96.43137
2012    5       4       0.3852519       87.0963
2012    5       5       0.2692246       65.82253
2012    5       6       0.1454866       40.04947
2012    5       7       0.1409746       38.72511
2012    6       0       0.1892661       49.77036
2012    6       1       0.6362964       127.5051
2012    6       2       1.54752         208.1986
2012    6       3       1.035581        173.3829
2012    6       4       1.125024        181.4237
2012    6       5       1.63662         215.5814
2012    6       6       1.688456        219.0152
2012    6       7       1.89014         226.7376
2012    7       0       2.031705        231.929
2012    7       1       1.457142        205.8355
2012    7       2       0.9311709       162.5479
2012    7       3       0.6431886       126.8147
2012    7       4       0.4071562       90.96861
2012    7       5       0.3084072       72.76823
2012    7       6       0.09386995      29.07164
2012    7       7       0.1061423       31.66551
2012    8       0       0.1460376       40.1033
2012    8       1       0.2218689       55.69192
2012    8       2       0.2167931       54.78056
2012    8       3       0.2112699       53.44548
2012    8       4       0.3820546       83.62826
2012    8       5       0.1649772       43.83701
2012    8       6       0.1531239       41.43032
2012    8       7       0.133907        37.40923
2012    9       0       0.1771201       46.38626
2012    9       1       0.2232487       55.656
2012    9       2       0.1583407       42.70365
2012    9       3       0.1527121       41.2911
2012    9       4       0.2499717       60.633
2012    9       5       0.4423139       94.47049
2012    9       6       0.5811379       114.7497
2012    9       7       0.542979        109.8842
2012    10      0       0.5882669       116.8327
2012    10      1       0.6739001       128.3892
2012    10      2       0.7413679       135.9694
2012    10      3       0.6980663       130.5185
2012    10      4       0.3724338       83.01015
2012    10      5       0.2277449       56.52534
2012    10      6       0.1476525       40.24544
2012    10      7       0.1294792       36.2231
2012    11      0       0.09864357      29.54123
2012    11      1       0.1325699       36.82634
2012    11      2       0.163183        43.48226
2012    11      3       0.1575113       42.50844
2012    11      4       0.09945406      29.99182
2012    11      5       0.1082566       32.03121
2012    11      6       0.08815268      27.49448
2012    11      7       0.07328377      23.95614
2012    12      0       0.0824821       25.96168
2012    12      1       0.1096709       32.0355
2012    12      2       0.1180478       34.10487
2012    12      3       0.1374656       38.54882
2012    12      4       0.240211        59.87935
2012    12      5       0.4109683       90.13001
2012    12      6       0.6904674       130.5061
2012    12      7       0.8562058       150.9089
2012    13      0       0.8942593       156.5857
2012    13      1       1.255451        187.0135
2012    13      2       1.263698        188.6325
2012    13      3       1.275449        190.2713
2012    13      4       0.6946539       135.5601
2012    13      5       0.2187747       56.92364
2012    13      6       0.1464334       40.47823
2012    13      7       0.152367        41.24032
2012    14      0       0.5733708       115.0954
2012    14      1       1.449654        202.9449
2012    14      2       1.628644        212.3631
2012    14      3       0.9293058       160.5267
2012    14      4       0.2807384       69.57554
2012    14      5       0.2644078       65.56162
2012    14      6       0.3506866       81.23103
2012    14      7       0.5652286       115.0089
2012    15      0       0.9527954       161.0403
2012    15      1       1.137574        177.8967
2012    15      2       0.9292661       158.643
2012    15      3       0.7602982       139.1646
2012    15      4       0.357677        80.85964
2012    15      5       0.3611649       81.97866
2012    15      6       0.5193103       106.3195
2012    15      7       0.6833236       129.1704
2012    16      0       0.7427037       136.2171
2012    16      1       0.599689        118.3636
2012    16      2       0.3491923       79.66926
2012    16      3       0.182596        47.54683
2012    16      4       0.193492        49.75118
2012    16      5       0.202482        51.71895
2012    16      6       0.1918252       49.56182
2012    16      7       0.1545735       41.71459
2012    17      0       0.1663175       44.43923
2012    17      1       0.2975124       69.6417
2012    17      2       0.2900097       68.072
2012    17      3       0.2589639       62.19494
2012    17      4       0.3716734       82.09875
2012    17      5       0.3514985       78.24208
2012    17      6       0.2931198       68.06795
2012    17      7       0.1612146       42.79701
2012    18      0       0.2034936       51.45164
2012    18      1       0.1960727       49.83859
2012    18      2       0.1916891       49.18491
2012    18      3       0.09908572      29.63554
2012    18      4       0.09692971      29.23308
2012    18      5       0.09219181      28.18118
2012    18      6       0.104249        30.76468
2012    18      7       0.1137058       32.71356
2012    19      0       0.100385        30.01476
2012    19      1       0.2481438       61.15135
2012    19      2       0.2548971       62.33796
2012    19      3       0.1214523       34.90044
2012    19      4       0.09954944      30.01407
2012    19      5       0.08910278      27.66383
2012    19      6       0.08943328      27.75403
2012    19      7       0.06690827      22.39781
2012    20      0       0.06655182      22.30603
2012    20      1       0.08083356      25.53892
2012    20      2       0.08591692      26.82431
2012    20      3       0.08720496      27.08229
2012    20      4       0.1166142       33.51828
2012    20      5       0.1303335       36.49188
2012    20      6       0.1478716       40.37929
2012    20      7       0.3080815       72.6759
2012    21      0       0.4377403       95.14291
2012    21      1       0.4670461       99.80483
2012    21      2       0.4527436       97.56357
2012    21      3       0.7491017       137.2626
2012    21      4       0.9143783       156.3109
2012    21      5       0.7392979       137.799
2012    21      6       0.5582929       113.6229
2012    21      7       0.2186744       55.6872
2012    22      0       0.1234438       35.11541
2012    22      1       0.115949        33.29628
2012    22      2       0.1400682       38.24544
2012    22      3       0.2323501       57.00985
2012    22      4       0.6813607       129.8199
2012    22      5       1.46337         202.4583
2012    22      6       1.653691        214.5756
2012    22      7       1.719264        217.8609
2012    23      0       1.813109        222.2978
2012    23      1       1.947907        229.1107
2012    23      2       1.25675         190.4217
2012    23      3       0.1476378       40.56875
2012    23      4       0.1091505       32.42866
2012    23      5       0.1536494       41.54177
2012    23      6       0.1294705       36.14652
2012    23      7       0.09417647      28.75882
2012    24      0       0.1084205       32.38884
2012    24      1       0.2089386       53.76913
2012    24      2       0.344097        79.08149
2012    24      3       0.3828006       86.0359
2012    24      4       0.3574764       81.07714
2012    24      5       0.3913789       86.75716
2012    24      6       0.6755146       129.3098
2012    24      7       1.035202        168.7376
2012    25      0       1.225304        185.737
2012    25      1       1.009924        168.3737
2012    25      2       1.103386        175.6589
2012    25      3       0.7661581       140.6533
2012    25      4       0.2203019       55.29986
2012    25      5       0.1037272       31.10576
2012    25      6       0.1475312       40.19438
2012    25      7       0.1512928       41.19325
2012    26      0       0.2036218       51.60991
2012    26      1       0.4372108       93.16347
2012    26      2       0.5329546       107.6312
2012    26      3       0.4959883       101.8265
2012    26      4       0.3141213       72.05472
2012    26      5       0.1811909       46.84675
2012    26      6       0.1522753       41.06498
2012    26      7       0.1436985       39.45049
2012    27      0       0.1069482       31.53059
2012    27      1       0.09991645      29.96502
2012    27      2       0.1026295       30.59005
2012    27      3       0.08031448      25.52404
2012    27      4       0.07714124      24.76673
2012    27      5       0.0806657       25.57562
2012    27      6       0.09516733      28.74013
2012    27      7       0.1106032       32.03984
2012    28      0       0.1309653       36.43716
2012    28      1       0.1692942       44.41577
2012    28      2       0.2671767       63.56071
2012    28      3       0.4019168       87.52055
2012    28      4       0.6350669       122.6551
2012    28      5       0.9114864       155.9053
2012    28      6       1.122452        175.0896
2012    28      7       1.166567        179.467
2012    29      0       1.107707        175.0596
2012    29      1       0.8187267       148.236
2012    29      2       0.317306        75.89344
2012    29      3       0.1161206       33.95294
2012    29      4       0.1501473       40.93445
2012    29      5       0.2399092       59.38962
2012    29      6       0.3768065       84.55917
2012    29      7       0.4368414       95.26009
2013    1       0       0.2257266       56.88647
2013    1       1       0.3182267       74.36383
2013    1       2       0.4966646       104.0677
2013    1       3       0.9489039       162.0105
2013    1       4       1.296456        192.2821
2013    1       5       1.255363        189.7552
2013    1       6       0.9586837       166.2068
2013    1       7       0.7016982       137.2441
2013    2       0       0.7242754       139.252
2013    2       1       0.3719301       84.25784
2013    2       2       0.300813        71.47795
2013    2       3       0.3888354       88.09347
2013    2       4       0.1192815       35.2327
2013    2       5       0.08674968      27.31269
2013    2       6       0.1171362       33.96335
2013    2       7       0.1680711       45.07925
2013    3       0       0.2329932       58.27887
2013    3       1       0.3321442       76.76918
2013    3       2       0.4460076       96.09802
2013    3       3       0.6529388       126.2348
2013    3       4       1.21358         185.0856
2013    3       5       1.483279        204.4449
2013    3       6       1.561392        209.6985
2013    3       7       1.44308         202.9302
2013    4       0       0.9855987       168.9368
2013    4       1       1.133526        181.898
2013    4       2       1.205298        186.4438
2013    4       3       0.5285477       112.7703
2013    4       4       0.07186453      23.52863
2013    4       5       0.108221        32.16169
2013    4       6       0.146443        40.59524
2013    4       7       0.1843203       48.44889
2013    5       0       0.2901734       69.11723
2013    5       1       0.4250059       92.91221
2013    5       2       0.6627977       127.4053
2013    5       3       1.011434        166.9234
2013    5       4       1.051234        171.0487
2013    5       5       1.581368        209.1941
2013    5       6       1.560726        208.394
2013    5       7       1.103635        178.1739
2013    6       0       0.9354935       161.9402
2013    6       1       0.7224793       137.1231
2013    6       2       0.4651998       100.3266
2013    6       3       0.1634405       44.57296
2013    6       4       0.1523743       41.49585
2013    6       5       0.2260314       56.20819
2013    6       6       0.3210881       74.48454
2013    6       7       0.2393512       59.62752
2013    7       0       0.2147684       55.01412
2013    7       1       0.2186134       55.18388
2013    7       2       0.4021424       88.59043
2013    7       3       0.4235656       92.62583
2013    7       4       0.44828         96.88137
2013    7       5       0.2122799       54.34883
2013    7       6       0.1380812       38.1321
2013    7       7       0.08153468      25.93145
2013    8       0       0.07889889      25.05384
2013    8       1       0.09506716      28.71189
2013    8       2       0.1068763       31.37739
2013    8       3       0.08052483      25.39174
2013    8       4       0.1090824       31.58017
2013    8       5       0.1206627       34.03943
2013    8       6       0.1292535       35.94975
2013    8       7       0.1396258       38.34176
2013    9       0       0.155989        41.72116
2013    9       1       0.1568005       41.95325
2013    9       2       0.1678023       44.17082
2013    9       3       0.2192917       54.34413
2013    9       4       0.2596673       62.48573
2013    9       5       0.2628032       63.66257
2013    9       6       0.1692819       45.19487
2013    9       7       0.124437        35.31783
2013    10      0       0.1330304       37.03435
2013    10      1       0.1825363       47.35012
2013    10      2       0.2261719       56.29762
2013    10      3       0.2429045       59.73203
2013    10      4       0.2142902       53.98728
2013    10      5       0.1347593       37.59426
2013    10      6       0.0998506       29.98768
2013    10      7       0.1062936       31.45864
2013    11      0       0.1142894       33.18601
2013    11      1       0.1136642       32.98299
2013    11      2       0.08917663      27.51571
2013    11      3       0.0694814       22.92901
2013    11      4       0.07449264      23.99804
2013    11      5       0.09536         28.76797
2013    11      6       0.1797385       46.69511
2013    11      7       0.3095781       71.60818
2013    12      0       0.516141        105.8681
2013    12      1       0.3968702       87.47615
2013    12      2       0.7291297       134.9759
2013    12      3       0.892184        154.0746
2013    12      4       0.9685692       162.0129
2013    12      5       0.9933144       164.7081
2013    12      6       0.7699685       141.7988
2013    12      7       0.07648371      24.87917
2013    13      0       0.07907155      25.41961
2013    13      1       0.07348162      24.06679
2013    13      2       0.07863811      25.24029
2013    13      3       0.1030379       30.93972
2013    13      4       0.08262696      26.2273
2013    13      5       0.1034752       30.58926
2013    13      6       0.1715691       44.74021
2013    13      7       0.333884        75.5963
2013    14      0       0.5075532       104.2393
2013    14      1       0.4746834       100.1082
2013    14      2       0.3974693       88.34521
2013    14      3       0.340266        78.81958
2013    14      4       0.272821        66.22064
2013    14      5       0.4688857       100.0049
2013    14      6       0.8894564       154.8723
2013    14      7       1.247535        186.3605
2013    15      0       1.231176        185.1889
2013    15      1       1.304285        191.1695
2013    15      2       0.817856        148.2216
2013    15      3       0.2911475       68.63021
2013    15      4       0.140886        39.07286
2013    15      5       0.090278        27.99476
2013    15      6       0.07469323      24.24874
2013    15      7       0.07342238      23.93994
2013    16      0       0.07202574      23.58643
2013    16      1       0.0860357       26.74922
2013    16      2       0.08524699      26.49628
2013    16      3       0.07974598      25.16393
2013    16      4       0.07403074      23.8075
2013    16      5       0.08484577      26.33432
2013    16      6       0.1109997       32.14809
2013    16      7       0.1463406       39.50984
2013    17      0       0.2219641       54.64682
2013    17      1       0.3687894       81.35891
2013    17      2       0.4796805       100.2497
2013    17      3       0.6210393       121.3446
2013    17      4       0.6517961       125.6361
2013    17      5       0.8041777       145.2631
2013    17      6       1.001078        166.0221
2013    17      7       1.073356        172.9604
2013    18      0       1.177637        182.0252
2013    18      1       1.47305         203.999
2013    18      2       1.6285          214.2437
2013    18      3       1.613599        213.3376
2013    18      4       1.24099         188.7537
2013    18      5       1.3465          196.8554
2013    18      6       1.444835        203.097
2013    18      7       1.58819         210.7545
2013    19      0       1.506042        205.7907
2013    19      1       1.456231        201.7256
2013    19      2       1.280142        189.4255
2013    19      3       0.8076198       145.1769
2013    19      4       0.2692486       65.18829
2013    19      5       0.09264667      28.38898
2013    19      6       0.06013624      21.04333
2013    19      7       0.06989582      23.38436
2013    20      0       0.09073121      28.21542
2013    20      1       0.1328157       37.62498
2013    20      2       0.1752079       46.45014
2013    20      3       0.1342702       37.65958
2013    20      4       0.122693        35.09015
2013    20      5       0.1153837       33.46838
2013    20      6       0.1171164       33.81061
2013    20      7       0.106033        31.3305
2013    21      0       0.09534014      28.99352
2013    21      1       0.1683426       44.96826
2013    21      2       0.1714189       45.44651
2013    21      3       0.1399324       38.76166
2013    21      4       0.1243458       35.43824
2013    21      5       0.1192888       34.181
2013    21      6       0.1325484       36.78566
2013    21      7       0.1295161       36.142
2013    22      0       0.1513795       40.64412
2013    22      1       0.173754        45.36048
2013    22      2       0.1747968       46.24784
2013    22      3       0.2201999       55.22337
2013    22      4       0.2767957       65.53904
2013    22      5       0.3576663       80.13457
2013    22      6       0.1000055       30.05337
2013    22      7       0.07745991      24.77459
2013    23      0       0.09875044      29.53131
2013    23      1       0.1170942       33.56083
2013    23      2       0.1238722       34.9789
2013    23      3       0.1230788       34.74283
2013    23      4       0.1421036       38.85694
2013    23      5       0.1789468       46.70998
2013    23      6       0.1215229       34.61002
2013    23      7       0.1936341       49.54796
2013    24      0       0.1282581       36.00041
2013    24      1       0.1400966       38.60465
2013    24      2       0.1377598       38.04797
2013    24      3       0.1510914       40.92579
2013    24      4       0.1329671       36.92537
2013    24      5       0.1505095       40.66991
2013    24      6       0.1852259       48.04934
2013    24      7       0.1976425       50.44409
2013    25      0       0.1833777       47.42469
2013    25      1       0.1871048       48.27672
2013    25      2       0.1487738       40.4899
2013    25      3       0.1063571       31.17875
2013    25      4       0.09259362      28.01784
2013    25      5       0.0919976       27.93454
2013    25      6       0.09658049      28.99848
2013    25      7       0.1104634       32.01156
2013    26      0       0.1508531       40.81721
2013    26      1       0.1739263       45.95107
2013    26      2       0.3183132       73.9631
2013    26      3       0.5240078       108.3444
2013    26      4       0.5892941       118.0915
2013    26      5       0.7458701       138.2244
2013    26      6       1.008138        166.6499
2013    26      7       1.003165        167.1175
2013    27      0       0.6172423       123.8785
2013    27      1       0.1646465       45.08338
2013    27      2       0.07521941      24.62559
2013    27      3       0.06886681      22.94762
2013    27      4       0.08238455      25.98991
2013    27      5       0.1218598       34.44579
2013    27      6       0.1178238       33.435
2013    27      7       0.09497103      28.45577
2013    28      0       0.09115994      28.02348
2013    28      1       0.1129387       32.93929
2013    28      2       0.1257975       36.14131
2013    28      3       0.1965401       50.99576
2013    28      4       0.2680807       65.27682
2013    28      5       0.2930255       70.10351
2013    28      6       0.2978052       71.29895
2013    28      7       0.4856153       103.506
2014    1       0       0.3883579       87.76939
2014    1       1       0.4516555       98.09958
2014    1       2       0.4519384       98.33958
2014    1       3       0.4501909       98.9117
2014    1       4       0.3011451       72.31154
2014    1       5       0.1927344       50.74361
2014    1       6       0.3518725       80.97184
2014    1       7       0.7783638       143.2782
2014    2       0       1.348999        195.3135
2014    2       1       0.9034348       159.6924
2014    2       2       0.135486        39.37972
2014    2       3       0.09170395      28.7799
2014    2       4       0.1938308       51.47567
2014    2       5       0.1711669       46.11653
2014    2       6       0.2708891       65.90078
2014    2       7       0.4266309       93.04627
2014    3       0       0.4441336       96.39607
2014    3       1       0.4314458       93.56251
2014    3       2       0.3565073       81.74796
2014    3       3       0.8050564       148.805
2014    3       4       0.2379264       61.83197
2014    3       5       0.1498455       41.99404
2014    3       6       0.2423715       61.44195
2014    3       7       0.2937229       70.66476
2014    4       0       0.2421885       60.53903
2014    4       1       0.3861398       86.71742
2014    4       2       0.336485        77.08072
2014    4       3       0.09710511      29.14512
2014    4       4       0.07882526      25.06968
2014    4       5       0.07777175      24.90661
2014    4       6       0.08229659      25.9319
2014    4       7       0.07349108      23.90357
2014    5       0       0.08167523      25.70646
2014    5       1       0.1174395       33.55419
2014    5       2       0.1214731       34.49528
2014    5       3       0.1531279       41.6685
2014    5       4       0.2701281       65.18593
2014    5       5       0.2698598       65.33277
2014    5       6       0.1815961       47.99325
2014    5       7       0.1733665       46.11574
2014    6       0       0.2379261       58.65358
2014    6       1       0.4347808       93.06788
2014    6       2       0.7429832       135.6568
2014    6       3       0.6940906       129.8653
2014    6       4       0.5149176       106.3971
2014    6       5       0.4792154       101.4223
2014    6       6       0.3927563       87.59487
2014    6       7       0.25541         62.6652
2014    7       0       0.2495007       60.96483
2014    7       1       0.2939639       69.56794
2014    7       2       0.353308        80.00528
2014    7       3       0.4252318       91.99471
2014    7       4       0.6247832       121.9746
2014    7       5       1.24764         186.6307
2014    7       6       1.326315        192.4787
2014    7       7       1.32664         193.045
2014    8       0       1.422562        199.8908
2014    8       1       1.588347        210.4873
2014    8       2       1.507043        205.0946
2014    8       3       1.400345        198.5946
2014    8       4       0.9427206       162.2085
2014    8       5       0.6777922       131.7391
2014    8       6       0.44777         98.36951
2014    8       7       0.2745385       67.25871
2014    9       0       0.2450743       60.60567
2014    9       1       0.3127219       73.327
2014    9       2       0.3108897       73.15863
2014    9       3       0.1492125       41.17683
2014    9       4       0.1092772       32.1213
2014    9       5       0.1265818       35.62251
2014    9       6       0.2058357       51.64445
2014    9       7       0.3380466       76.2132
2014    10      0       0.3169223       72.82503
2014    10      1       0.3053811       70.63867
2014    10      2       0.3827685       83.98019
2014    10      3       0.3035943       70.23135
2014    10      4       0.2197679       54.35885
2014    10      5       0.1073653       31.67161
2014    10      6       0.05945655      20.65724
2014    10      7       0.05405376      19.28792
2014    11      0       0.07193632      23.52599
2014    11      1       0.1563936       42.28635
2014    11      2       0.2369081       59.30892
2014    11      3       0.2119059       54.4515
2014    11      4       0.2126578       54.50372
2014    11      5       0.1868084       49.18784
2014    11      6       0.1845312       48.66069
2014    11      7       0.1838937       48.37705
2014    12      0       0.1780262       47.02657
2014    12      1       0.1681967       45.10469
2014    12      2       0.1556341       42.50402
2014    12      3       0.1325644       37.65833
2014    12      4       0.1310985       37.25347
2014    12      5       0.1567083       42.5122
2014    12      6       0.188938        48.95502
2014    12      7       0.2246956       55.92785
2014    13      0       0.2947345       69.34159
2014    13      1       0.3197484       74.19781
2014    13      2       0.3478525       78.64787
2014    13      3       0.4278884       91.8194
2014    13      4       0.4964236       102.7166
2014    13      5       0.5858196       115.911
2014    13      6       0.775713        140.3234
2014    13      7       0.9825471       162.4697
2014    14      0       0.98119         162.5613
2014    14      1       0.9830964       162.9533
2014    14      2       1.066918        171.2356
2014    14      3       1.186081        181.9903
2014    14      4       1.186823        181.7367
2014    14      5       1.281045        189.3682
2014    14      6       1.299046        191.2244
2014    14      7       1.433203        200.3635
2014    15      0       1.382649        198.3106
2014    15      1       1.268385        189.1309
2014    15      2       1.002003        166.0907
2014    15      3       0.8511555       149.4806
2014    15      4       0.6210688       121.2686
2014    15      5       0.4753358       100.2819
2014    15      6       0.3105912       73.25681
2014    15      7       0.1067937       32.04724
2014    16      0       0.06759523      22.63215
2014    16      1       0.07981955      25.44658
2014    16      2       0.1137393       32.9725
2014    16      3       0.1594025       42.81466
2014    16      4       0.1711988       45.4386
2014    16      5       0.189486        49.26594
2014    16      6       0.2217029       55.67574
2014    16      7       0.232356        57.71548
2014    17      0       0.3409361       77.58838
2014    17      1       0.4398015       94.41769
2014    17      2       0.4565222       97.77882
2014    17      3       0.5246719       108.3866
2014    17      4       0.5841596       117.0523
2014    17      5       0.7591953       139.075
2014    17      6       0.7936979       142.8468
2014    17      7       0.5546891       112.6546
2014    18      0       0.4628278       98.05415
2014    18      1       0.3570505       81.15312
2014    18      2       0.3177785       74.21912
2014    18      3       0.4894302       102.0209
2014    18      4       0.7073719       131.3152
2014    18      5       0.5821245       115.1377
2014    18      6       0.4234728       91.23588
2014    18      7       0.3578206       79.91787
2014    19      0       0.3267984       74.34213
2014    19      1       0.2980405       69.09005
2014    19      2       0.2593792       61.982
2014    19      3       0.2497355       60.24186
2014    19      4       0.2595324       62.22888
2014    19      5       0.226936        56.34697
2014    19      6       0.2043193       52.14175
2014    19      7       0.2361161       58.33467
2014    20      0       0.2589486       62.82398
2014    20      1       0.3523719       79.84835
2014    20      2       0.414213        89.97231
2014    20      3       0.2757168       65.68902
2014    20      4       0.2590369       62.49011
2014    20      5       0.1982504       50.73142
2014    20      6       0.1463969       40.11281
2014    20      7       0.120946        34.45381
2014    21      0       0.1544842       41.80283
2014    21      1       0.1471026       40.41718
2014    21      2       0.1351224       38.0727
2014    21      3       0.1269472       36.40422
2014    21      4       0.1354078       38.13594
2014    21      5       0.1503032       41.12062
2014    21      6       0.1568381       42.4625
2014    21      7       0.1520757       41.49847
2014    22      0       0.1773769       46.85763
2014    22      1       0.1817324       47.79151
2014    22      2       0.1829718       48.00658
2014    22      3       0.1816873       47.66566
2014    22      4       0.1887015       48.99573
2014    22      5       0.1858805       48.32642
2014    22      6       0.1992167       50.95797
2014    22      7       0.2273624       56.45959
2014    23      0       0.2691692       64.33753
2014    23      1       0.2856107       67.3029
2014    23      2       0.23379         57.89926
2014    23      3       0.1744546       46.16544
2014    23      4       0.1543865       41.83888
2014    23      5       0.1846399       48.03772
2014    23      6       0.2345796       57.87951
2014    23      7       0.2553065       62.20218
2014    24      0       0.2501525       61.33054
2014    24      1       0.2525785       61.80173
2014    24      2       0.2407463       59.41808
2014    24      3       0.1601546       43.11333
2014    24      4       0.1310689       37.09592
2014    24      5       0.1182264       34.19751
2014    24      6       0.1111614       32.752
2014    24      7       0.1100573       32.51317
2014    25      0       0.08525571      26.8794
2014    25      1       0.08586073      27.05373
2014    25      2       0.06655785      22.4316
2014    25      3       0.08165699      26.03607
2014    25      4       0.09281141      28.74476
2014    25      5       0.08991819      27.91254
2014    25      6       0.07887032      25.15957
2014    25      7       0.07954844      24.88424
2014    26      0       0.1158008       32.84907
2014    26      1       0.1839928       47.20511
2014    26      2       0.2776088       65.60982
2014    26      3       0.4945652       103.083
2014    26      4       0.7339727       136.6326
2014    26      5       0.9514537       161.0103
2014    26      6       1.236817        185.706
2014    26      7       1.272599        188.6087
2014    27      0       1.053403        171.6928
2014    27      1       0.9901908       166.3394
2014    27      2       1.067223        174.4808
2014    27      3       0.8465631       154.4306
2014    27      4       0.7005601       135.3561
2014    27      5       0.754633        142.0474
2014    27      6       0.5417333       113.718
2014    27      7       0.6385065       127.4107
2014    28      0       0.3366642       77.43262
2014    28      1       0.3103762       72.49791
2014    28      2       0.3771564       83.47675
2014    28      3       0.6119393       120.397
2014    28      4       0.6356575       123.449
2014    28      5       0.9480138       160.1414
2014    28      6       0.8528585       153.1104
2014    28      7       0.746595        141.0425
2015    1       0       0.08262743      26.20714
2015    1       1       0.0621421       21.38756
2015    1       2       0.05921952      20.70003
2015    1       3       0.05476212      19.57977
2015    1       4       0.05869536      20.52512
2015    1       5       0.06634637      22.31796
2015    1       6       0.06792354      22.71447
2015    1       7       0.0732391       24.06187
2015    2       0       0.06944368      23.17403
2015    2       1       0.07286673      23.90219
2015    2       2       0.09240957      28.0959
2015    2       3       0.1567957       41.65862
2015    2       4       0.1725541       44.91122
2015    2       5       0.1716916       44.83383
2015    2       6       0.1589441       42.28233
2015    2       7       0.1302912       36.4543
2015    3       0       0.104495        31.02246
2015    3       1       0.09112959      28.1016
2015    3       2       0.08375009      26.34907
2015    3       3       0.09810973      29.34353
2015    3       4       0.1525422       40.72792
2015    3       5       0.1755392       45.43442
2015    3       6       0.1834742       47.25385
2015    3       7       0.1962044       50.38556
2015    4       0       0.1996814       51.13507
2015    4       1       0.2994176       70.11268
2015    4       2       0.3930859       86.32078
2015    4       3       0.3469291       78.97315
2015    4       4       0.3451608       78.4688
2015    4       5       0.3870211       85.35217
2015    4       6       0.5102567       104.8613
2015    4       7       0.6112857       119.3179
2015    5       0       0.4415332       94.9293
2015    5       1       0.4117512       90.02465
2015    5       2       0.5188007       106.3785
2015    5       3       0.4973107       102.6093
2015    5       4       0.5139258       104.6533
2015    5       5       0.3939555       85.70307
2015    5       6       0.4004429       86.80318
2015    5       7       0.2407473       58.76775
2015    6       0       0.132794        36.77873
2015    6       1       0.1285317       36.10621
2015    6       2       0.1236867       35.14549
2015    6       3       0.1667569       44.55768
2015    6       4       0.2151995       55.16772
2015    6       5       0.2025373       52.71117
2015    6       6       0.179036        47.80377
2015    6       7       0.1593231       43.46284
2015    7       0       0.1846521       48.0083
2015    7       1       0.1806874       47.0486
2015    7       2       0.2069196       52.50682
2015    7       3       0.3143341       73.12646
2015    7       4       0.4232613       92.07242
2015    7       5       0.2709008       65.14228
2015    7       6       0.3614003       81.09216
2015    7       7       0.4563736       97.21684
2015    8       0       0.7466215       137.4953
2015    8       1       0.927764        157.073
2015    8       2       0.5679644       114.6097
2015    8       3       0.1541569       42.34101
2015    8       4       0.1023837       30.76406
2015    8       5       0.1433001       39.76926
2015    8       6       0.09858158      29.80695
2015    8       7       0.08579411      26.78428
2015    9       0       0.102899        30.60611
2015    9       1       0.3116596       71.7692
2015    9       2       0.3001988       69.32438
2015    9       3       0.2403964       58.014
2015    9       4       0.2012606       50.40452
2015    9       5       0.245495        58.84532
2015    9       6       0.2659518       63.07098
2015    9       7       0.09893733      29.73262
2015    10      0       0.1071928       31.69818
2015    10      1       0.1264265       36.09892
2015    10      2       0.1374711       38.69962
2015    10      3       0.1108762       32.78159
2015    10      4       0.1079925       32.04665
2015    10      5       0.1217454       34.9062
2015    10      6       0.1210819       34.76919
2015    10      7       0.1316855       37.03501
2015    11      0       0.1313066       36.78275
2015    11      1       0.1354558       37.58976
2015    11      2       0.1524155       40.92577
2015    11      3       0.1678489       44.18112
2015    11      4       0.1817077       46.84156
2015    11      5       0.1619413       42.97912
2015    11      6       0.1330211       37.45046
2015    11      7       0.1734878       46.10211
2015    12      0       0.1884182       49.05684
2015    12      1       0.3651696       81.9626
2015    12      2       0.4354723       93.83381
2015    12      3       0.4586319       96.86017
2015    12      4       0.4000155       87.64207
2015    12      5       0.08308037      26.00422
2015    12      6       0.1193774       34.17539
2015    12      7       0.1577941       42.46861
2015    13      0       0.2086051       52.59525
2015    13      1       0.254156        61.10871
2015    13      2       0.2435574       58.69898
2015    13      3       0.1856025       47.45202
2015    13      4       0.1434693       38.9667
2015    13      5       0.1790933       46.34359
2015    13      6       0.2019587       50.97471
2015    13      7       0.159122        42.31301
2015    14      0       0.1505735       40.64295
2015    14      1       0.2139473       53.85595
2015    14      2       0.3244438       74.58138
2015    14      3       0.3470287       78.96977
2015    14      4       0.3718535       83.22686
2015    14      5       0.3657604       82.44157
2015    14      6       0.3726951       83.89646
2015    14      7       0.3210696       75.03518
2015    15      0       0.2164896       55.51319
2015    15      1       0.1024859       30.86818
2015    15      2       0.09227968      28.43693
2015    15      3       0.08852828      27.43735
2015    15      4       0.08764578      27.24282
2015    15      5       0.1075694       31.72566
2015    15      6       0.1310663       36.83193
2015    15      7       0.1670728       44.41567
2015    16      0       0.2150942       53.98898
2015    16      1       0.2774133       65.89923
2015    16      2       0.3119469       72.98905
2015    16      3       0.3650596       82.58059
2015    16      4       0.5373345       109.9981
2015    16      5       0.790155        143.5645
2015    16      6       1.049132        170.8342
2015    16      7       1.155057        180.4361
2015    17      0       0.8731369       154.2095
2015    17      1       0.2672983       66.42613
2015    17      2       0.2003476       52.88822
2015    17      3       0.1515567       42.20801
2015    17      4       0.2180686       56.28941
2015    17      5       0.326612        76.56136
2015    17      6       0.5579033       113.2602
2015    17      7       0.5675244       113.9894
2015    18      0       0.5428105       109.5446
2015    18      1       0.6084694       118.6304
2015    18      2       0.4574073       96.53175
2015    18      3       0.4086837       88.99764
2015    18      4       0.2592535       62.68079
2015    18      5       0.2393837       58.72685
2015    18      6       0.2795817       66.04079
2015    18      7       0.367399        81.50483
2015    19      0       0.3995135       86.83705
2015    19      1       0.4835289       100.0572
2015    19      2       0.3046392       71.11627
2015    19      3       0.3373758       76.95253
2015    19      4       0.3923541       86.60469
2015    19      5       0.3253104       75.16198
2015    19      6       0.2194754       55.51729
2015    19      7       0.1555251       42.51245
2015    20      0       0.106942        31.81544
2015    20      1       0.09444659      28.8575
2015    20      2       0.1035328       30.84715
2015    20      3       0.1222525       35.00313
2015    20      4       0.1360502       38.17975
2015    20      5       0.1590407       43.26886
2015    20      6       0.1712148       46.10305
2015    20      7       0.1594474       43.74714
2015    21      0       0.1984297       51.33443
2015    21      1       0.2438163       60.485
2015    21      2       0.4259878       92.74462
2015    21      3       0.7341557       137.0739
2015    21      4       1.204486        183.8014
2015    21      5       1.21008         184.4089
2015    21      6       1.150384        180.5962
2015    21      7       1.003437        168.1809
2015    22      0       0.823519        150.4643
2015    22      1       0.81267         149.7689
2015    22      2       1.050548        174.0572
2015    22      3       1.179959        185.8535
2015    22      4       0.9542849       165.8323
2015    22      5       0.8451352       154.1011
2015    22      6       1.081913        178.0001
2015    22      7       0.3676906       84.8227
2015    23      0       0.5008374       107.2074
2015    23      1       0.5221786       109.8367
2015    23      2       0.8862518       154.9376
2015    23      3       0.7383907       139.1551
2015    23      4       0.1253787       35.89692
2015    23      5       0.2146508       54.54902
2015    23      6       0.2556223       62.13134
2015    23      7       0.1821896       48.20104
2015    24      0       0.3052689       72.0729
2015    24      1       0.735302        135.5943
2015    24      2       0.7424432       137.3913
2015    24      3       0.6783635       129.9008
2015    24      4       0.4293737       94.26369
2015    24      5       0.2028877       52.95134
2015    24      6       0.1250576       35.87362
2015    24      7       0.2025797       51.79556
2015    25      0       0.4522389       95.9411
2015    25      1       0.5675733       113.7012
2015    25      2       0.4973063       103.9385
2015    25      3       0.5780956       115.5591
2015    25      4       0.6267231       122.5488
2015    25      5       0.575579        116.0244
2015    25      6       0.5510217       112.4877
2015    25      7       0.6633639       127.2382
2015    26      0       0.9379116       158.9354
2015    26      1       1.281641        188.5314
2015    26      2       1.305822        191.7891
2015    26      3       1.419377        200.0655
2015    26      4       0.6965195       135.4647
2015    26      5       0.260666        65.30026
2015    26      6       0.1721331       45.87936
2015    26      7       0.1020029       30.73129
2015    27      0       0.1112066       32.84098
2015    27      1       0.2087858       53.79063
2015    27      2       0.1942176       50.33107
2015    27      3       0.1975208       51.19189
2015    27      4       0.1373609       38.32106
2015    27      5       0.09523146      29.03065
2015    27      6       0.09373545      28.59481
2015    27      7       0.1005163       30.15768
2015    28      0       0.1462726       39.987
2015    28      1       0.2774988       66.06908
2015    28      2       0.4508557       96.77986
2015    28      3       0.6100069       120.5055
2015    28      4       1.139752        179.2552
2015    28      5       1.275558        190.3967
2015    28      6       1.690837        215.8405
2015    28      7       1.628306        211.7901
2016    1       0       1.063089        170.0582
2016    1       1       0.8817766       152.3096
2016    1       2       0.6837544       129.6543
2016    1       3       0.4134586       90.30628
2016    1       4       0.2189548       55.13051
2016    1       5       0.1976732       50.83175
2016    1       6       0.1220403       34.69377
2016    1       7       0.09269333      28.11376
2016    2       0       0.0821971       25.97401
2016    2       1       0.08648798      27.06026
2016    2       2       0.08311553      26.35637
2016    2       3       0.08020794      25.64306
2016    2       4       0.07234319      23.76443
2016    2       5       0.06998586      23.20573
2016    2       6       0.07071526      23.32708
2016    2       7       0.07485079      24.23434
2016    3       0       0.08004069      25.4201
2016    3       1       0.08667497      26.94691
2016    3       2       0.1611363       43.50549
2016    3       3       0.1145112       33.08206
2016    3       4       0.08793026      27.25259
2016    3       5       0.08680047      26.90486
2016    3       6       0.0979794       29.22396
2016    3       7       0.1510258       40.70631
2016    4       0       0.1840097       48.00341
2016    4       1       0.1629781       43.8974
2016    4       2       0.1672406       44.43323
2016    4       3       0.2608156       62.62556
2016    4       4       0.3353918       76.5376
2016    4       5       0.3723828       83.15081
2016    4       6       0.2789842       67.24505
2016    4       7       0.2928679       69.53803
2016    5       0       0.3216036       74.86937
2016    5       1       0.2517831       61.1953
2016    5       2       0.2445398       59.59878
2016    5       3       0.2357754       58.46275
2016    5       4       0.2532054       62.39866
2016    5       5       0.2878562       68.57288
2016    5       6       0.3417857       77.82193
2016    5       7       0.315251        72.56
2016    6       0       0.3211086       73.36849
2016    6       1       0.3044831       70.56577
2016    6       2       0.2863263       67.46417
2016    6       3       0.2208575       55.32744
2016    6       4       0.1839228       48.33176
2016    6       5       0.2179983       55.0595
2016    6       6       0.2485932       60.72455
2016    6       7       0.2008385       51.22702
2016    7       0       0.09708751      29.29371
2016    7       1       0.06284402      21.40446
2016    7       2       0.06966715      23.04092
2016    7       3       0.08066296      25.59138
2016    7       4       0.08485742      26.54664
2016    7       5       0.07656738      24.56116
2016    7       6       0.06831989      22.5971
2016    7       7       0.0681232       22.46616
2016    8       0       0.09053285      27.57899
2016    8       1       0.1149707       32.93269
2016    8       2       0.1326385       37.06819
2016    8       3       0.1425274       39.24477
2016    8       4       0.1759978       46.07849
2016    8       5       0.2321973       57.68093
2016    8       6       0.2935695       69.587
2016    8       7       0.2768043       66.21588
2016    9       0       0.3210119       73.94414
2016    9       1       0.4746208       99.19209
2016    9       2       0.3573873       79.72517
2016    9       3       0.3589557       79.75719
2016    9       4       0.3583734       79.82741
2016    9       5       0.271968        64.925
2016    9       6       0.09154647      28.14564
2016    9       7       0.07692008      24.76686
2016    10      0       0.09511685      28.94686
2016    10      1       0.1142351       33.08004
2016    10      2       0.1416157       39.02095
2016    10      3       0.1845592       48.46277
2016    10      4       0.1848437       48.76047
2016    10      5       0.1886646       49.50562
2016    10      6       0.2387996       59.62371
2016    10      7       0.3514568       80.90759
2016    11      0       0.3734311       85.06664
2016    11      1       0.3069372       73.41898
2016    11      2       0.2475921       61.85051
2016    11      3       0.2016663       52.1303
2016    11      4       0.2208901       55.73876
2016    11      5       0.2609432       63.99769
2016    11      6       0.3045437       72.57146
2016    11      7       0.3408443       79.05164
2016    12      0       0.4310321       94.53228
2016    12      1       0.6102355       121.8545
2016    12      2       0.8692228       153.5499
2016    12      3       0.8310387       149.7222
2016    12      4       0.8979393       158.1581
2016    12      5       0.8436767       153.9307
2016    12      6       0.8641373       155.9635
2016    12      7       0.9285121       162.5137
2016    13      0       1.068025        175.6783
2016    13      1       1.358398        198.3579
2016    13      2       1.784902        221.8906
2016    13      3       1.130127        182.0684
2016    13      4       1.841154        226.0569
2016    13      5       1.16815         186.1473
2016    13      6       1.822404        226.4043
2016    13      7       2.320903        242.7238
2016    14      0       2.23225         240.1286
2016    14      1       0.4355979       99.7591
2016    14      2       0.7434144       143.0544
2016    14      3       0.9054136       162.4619
2016    14      4       0.5589955       116.8377
2016    14      5       1.228651        187.643
2016    14      6       0.9038046       157.25
2016    14      7       0.5283682       109.5088
2016    15      0       0.8649282       151.2606
2016    15      1       0.2918126       69.83394
2016    15      2       0.1803924       47.86991
2016    15      3       0.08576545      26.95555
2016    15      4       0.09017779      27.84498
2016    15      5       0.1296733       36.51167
2016    15      6       0.1409444       38.8948
2016    15      7       0.1355985       37.74513
2016    16      0       0.1667721       44.52579
2016    16      1       0.2035403       51.99316
2016    16      2       0.2621979       63.47668
2016    16      3       0.183237        47.87172
2016    16      4       0.2003734       51.30223
2016    16      5       0.192126        49.77527
2016    16      6       0.217437        55.05751
2016    16      7       0.2210465       55.6754
2016    17      0       0.2831585       67.33352
2016    17      1       0.3787254       83.74418
2016    17      2       0.2156552       54.31058
2016    17      3       0.08459492      26.5605
2016    17      4       0.08796233      27.32679
2016    17      5       0.1041597       30.97931
2016    17      6       0.1137641       33.16544
2016    17      7       0.1107809       32.54572
2016    18      0       0.09536903      28.96513
2016    18      1       0.08625936      26.82693
2016    18      2       0.09021012      27.76034
2016    18      3       0.1548002       41.39438
2016    18      4       0.1911928       49.0055
2016    18      5       0.1655293       43.98353
2016    18      6       0.1258855       36.01468
2016    18      7       0.08361501      26.37242
2016    19      0       0.1170479       33.65672
2016    19      1       0.1454484       40.19645
2016    19      2       0.2835054       67.8561
2016    19      3       0.3795042       84.64069
2016    19      4       0.5577671       112.8943
2016    19      5       0.6080543       119.3378
2016    19      6       0.5657502       113.2465
2016    19      7       0.7418617       136.3653
2016    20      0       1.111822        174.5924
2016    20      1       1.434443        200.0173
2016    20      2       1.793991        221.3129
2016    20      3       1.900662        227.1655
2016    20      4       2.072147        235.0989
2016    20      5       1.132162        180.8113
2016    20      6       0.349713        80.19244
2016    20      7       0.2574733       62.1135
2016    21      0       0.05868349      20.7817
2016    21      1       0.05863064      20.67559
2016    21      2       0.08717054      27.49455
2016    21      3       0.1132028       33.40507
2016    21      4       0.1097527       32.83607
2016    21      5       0.1423488       39.20405
2016    21      6       0.2342424       58.00401
2016    21      7       0.3901675       85.95005
2016    22      0       0.5950087       117.5455
2016    22      1       0.7822659       142.3149
2016    22      2       0.9142407       156.6113
2016    22      3       1.001172        165.3505
2016    22      4       1.089347        173.3264
2016    22      5       1.219848        183.6963
2016    22      6       1.164411        179.5816
2016    22      7       0.970168        163.0013
2016    23      0       0.6811759       131.6123
2016    23      1       0.5668658       116.3813
2016    23      2       0.5201692       109.6667
2016    23      3       0.3356054       78.28343
2016    23      4       0.4066074       90.4068
2016    23      5       0.5136154       107.1759
2016    23      6       0.540917        110.8537
2016    23      7       0.4107627       89.57227
2016    24      0       0.2962934       69.62544
2016    24      1       0.2819728       66.87701
2016    24      2       0.2314903       57.58253
2016    24      3       0.1912297       49.56737
2016    24      4       0.1289723       36.73512
2016    24      5       0.1015619       30.43125
2016    24      6       0.07572186      24.49438
2016    24      7       0.06786566      22.67913
2016    25      0       0.07799928      25.03615
2016    25      1       0.1016659       30.49626
2016    25      2       0.1104209       32.48303
2016    25      3       0.1299926       36.95107
2016    25      4       0.1470486       40.66109
2016    25      5       0.1773337       46.55557
2016    25      6       0.1998785       51.22552
2016    25      7       0.2253048       56.31883
2016    26      0       0.2598719       63.2327
2016    26      1       0.3536876       80.36191
2016    26      2       0.3240402       74.96723
2016    26      3       0.1855218       48.92575
2016    26      4       0.110214        32.5784
2016    26      5       0.1234602       35.62813
2016    26      6       0.1290626       36.80291
2016    26      7       0.159583        43.10428
2016    27      0       0.1812484       47.95059
2016    27      1       0.3087154       73.15722
2016    27      2       0.4573246       98.6292
2016    27      3       0.4922099       103.9916
2016    27      4       0.388926        87.38476
2016    27      5       0.2225704       56.72802
2016    27      6       0.1976144       51.5333
2016    27      7       0.255007        62.8969
2016    28      0       0.3191264       74.93392
2016    28      1       0.3854524       86.34577
2016    28      2       0.4233591       92.75388
2016    28      3       0.5125433       106.9815
2016    28      4       0.4152069       92.26935
2016    28      5       0.3276976       76.99972
2016    28      6       0.4930249       104.3249
2016    28      7       1.044678        169.9771
2016    29      0       1.121638        176.789
2016    29      1       0.8907476       154.359
2016    29      2       0.7680416       140.3759
2016    29      3       0.3416566       78.55695
2016    29      4       0.3695801       82.16183
2016    29      5       0.3381057       76.00259
2016    29      6       0.2066281       51.84973
2016    29      7       0.07331072      23.9956
2017    1       0       0.3381873       78.45563
2017    1       1       0.4725283       100.6896
2017    1       2       0.6096033       120.8013
2017    1       3       0.2062823       53.3592
2017    1       4       0.08324478      26.39214
2017    1       5       0.09754484      29.55019
2017    1       6       0.09953524      29.92129
2017    1       7       0.1300344       36.70078
2017    2       0       0.1805593       47.48436
2017    2       1       0.223414        56.12131
2017    2       2       0.2020867       51.86673
2017    2       3       0.1568317       42.65148
2017    2       4       0.1529147       41.87959
2017    2       5       0.1593928       43.34707
2017    2       6       0.1563903       42.83749
2017    2       7       0.1514075       41.84786
2017    3       0       0.1501247       41.69997
2017    3       1       0.1208686       35.24214
2017    3       2       0.1143385       33.73737
2017    3       3       0.1259335       36.17754
2017    3       4       0.1506309       41.59644
2017    3       5       0.1186524       34.7065
2017    3       6       0.1390171       39.06272
2017    3       7       0.1599103       43.50729
2017    4       0       0.1628927       44.17918
2017    4       1       0.1496435       41.39839
2017    4       2       0.1136583       33.44004
2017    4       3       0.1293086       36.85381
2017    4       4       0.1467621       40.86704
2017    4       5       0.2638742       65.97932
2017    4       6       0.6115665       123.2986
2017    4       7       0.9067167       157.8166
2017    5       0       1.233194        186.9396
2017    5       1       1.471841        202.8489
2017    5       2       1.298354        191.1576
2017    5       3       0.4822862       103.0353
2017    5       4       0.8312988       149.8612
2017    5       5       0.9291255       159.9569
2017    5       6       0.3568297       82.20211
2017    5       7       0.4853353       101.8672
2017    6       0       0.6817693       128.9202
2017    6       1       0.4589738       97.47128
2017    6       2       0.418687        90.69836
2017    6       3       0.2648942       63.59492
2017    6       4       0.2176636       54.43922
2017    6       5       0.1737556       45.96867
2017    6       6       0.09822556      29.74047
2017    6       7       0.06699525      22.45104
2017    7       0       0.0734103       23.91859
2017    7       1       0.09276944      28.39991
2017    7       2       0.1217126       34.85496
2017    7       3       0.2287532       57.26252
2017    7       4       0.3263569       75.75386
2017    7       5       0.4002415       88.5229
2017    7       6       0.4778111       100.8943
2017    7       7       0.50364         104.7918
2017    8       0       0.4201847       92.5112
2017    8       1       0.3875851       87.14154
2017    8       2       0.4651392       99.58267
2017    8       3       0.6894392       130.458
2017    8       4       0.8220989       146.7435
2017    8       5       0.996914        164.8181
2017    8       6       1.130656        176.7127
2017    8       7       1.099896        173.2667
2017    9       0       0.9790547       161.8089
2017    9       1       0.8897961       153.5181
2017    9       2       0.9435595       158.6993
2017    9       3       0.7868566       141.8403
2017    9       4       0.4756585       100.8324
2017    9       5       0.3253877       75.73446
2017    9       6       0.3960027       87.04216
2017    9       7       0.2131914       53.53861
2017    10      0       0.210255        52.9404
2017    10      1       0.4249253       90.71081
2017    10      2       0.3250594       73.89128
2017    10      3       0.2771232       64.96625
2017    10      4       0.2389858       57.75643
2017    10      5       0.244114        58.66889
2017    10      6       0.2508593       60.06825
2017    10      7       0.2901649       67.37489
2017    11      0       0.3581216       79.36018
2017    11      1       0.2717422       64.24694
2017    11      2       0.2332243       56.9904
2017    11      3       0.3018068       69.70107
2017    11      4       0.3049415       70.21755
2017    11      5       0.2455407       59.16529
2017    11      6       0.2732625       64.50654
2017    11      7       0.2280863       56.24099
2017    12      0       0.2214385       54.9582
2017    12      1       0.4090323       87.94212
2017    12      2       0.2927133       68.4243
2017    12      3       0.1753369       45.80674
2017    12      4       0.135983        37.62112
2017    12      5       0.1205065       34.31659
2017    12      6       0.1469099       40.06871
2017    12      7       0.1841669       47.9827
2017    13      0       0.162778        43.59979
2017    13      1       0.1870006       48.69965
2017    13      2       0.2248817       56.30932
2017    13      3       0.1698867       45.01303
2017    13      4       0.1462567       40.1547
2017    13      5       0.1312774       36.85565
2017    13      6       0.1659489       44.01315
2017    13      7       0.2604945       62.41662
2017    14      0       0.2965411       68.78299
2017    14      1       0.5506333       109.3181
2017    14      2       0.3185918       72.72708
2017    14      3       0.1849057       47.57082
2017    14      4       0.1307647       36.6098
2017    14      5       0.1129527       32.85132
2017    14      6       0.1066584       31.45773
2017    14      7       0.0974906       29.39833
2017    15      0       0.08801099      27.18458
2017    15      1       0.129297        36.12011
2017    15      2       0.1534414       41.33851
2017    15      3       0.2160968       54.24472
2017    15      4       0.2943639       69.35598
2017    15      5       0.2098355       53.7134
2017    15      6       0.1447062       39.95377
2017    15      7       0.1243336       35.14701
2017    16      0       0.1709419       45.21979
2017    16      1       0.2224653       56.14517
2017    16      2       0.1823275       47.75485
2017    16      3       0.1471029       40.72078
2017    16      4       0.1294905       36.54626
2017    16      5       0.3080651       72.08926
2017    16      6       0.4807582       102.3733
2017    16      7       0.5906678       120.0379
2017    17      0       1.034117        171.2295
2017    17      1       1.005672        169.2544
2017    17      2       1.239524        188.0655
2017    17      3       0.668833        129.7022
2017    17      4       0.4519218       97.54744
2017    17      5       0.3122105       72.92624
2017    17      6       0.2898874       68.48025
2017    17      7       0.3555996       80.32687
2017    18      0       0.4527406       96.65966
2017    18      1       0.5185173       106.0724
2017    18      2       0.2221458       55.88099
2017    18      3       0.2151483       54.84345
2017    18      4       0.3691411       82.64204
2017    18      5       0.3934246       85.82925
2017    18      6       0.1389734       38.12385
2017    18      7       0.0754165       24.27541
2017    19      0       0.126578        35.68291
2017    19      1       0.2573204       62.54411
2017    19      2       0.3926366       86.77282
2017    19      3       0.4704921       99.42456
2017    19      4       0.6046347       119.2805
2017    19      5       0.8679193       152.2948
2017    19      6       0.954202        162.6258
2017    19      7       0.4998579       107.2947
2017    20      0       0.6631425       130.7805
2017    20      1       1.134145        180.816
2017    20      2       1.411098        201.5974
2017    20      3       1.384933        198.9925
2017    20      4       0.1154256       33.43674
2017    20      5       0.1503536       41.36643
2017    20      6       0.1796805       47.20816
2017    20      7       0.1846225       48.00295
2017    21      0       0.06224805      21.23877
2017    21      1       0.07433782      24.13842
2017    21      2       0.09222113      28.37876
2017    21      3       0.1071024       31.86898
2017    21      4       0.2044072       52.78799
2017    21      5       0.3203822       74.93707
2017    21      6       0.4709294       100.5849
2017    21      7       0.7266597       136.8493
2017    22      0       0.6549317       127.9288
2017    22      1       0.6073987       120.9379
2017    22      2       0.9562356       163.0877
2017    22      3       1.686972        217.1972
2017    22      4       1.868466        225.3741
2017    22      5       2.06647         235.0438
2017    22      6       2.10283         235.8671
2017    22      7       1.987874        233.2138
2017    23      0       1.783741        224.7621
2017    23      1       1.227272        190.7374
2017    23      2       1.0083          170.3696
2017    23      3       0.7292968       138.2224
2017    23      4       0.5350705       109.1507
2017    23      5       0.3473301       79.23356
2017    23      6       0.0838915       26.54888
2017    23      7       0.09304359      28.29384
2017    24      0       0.1200197       34.06801
2017    24      1       0.1503388       40.45013
2017    24      2       0.1403028       38.60914
2017    24      3       0.128294        36.23611
2017    24      4       0.13697         38.13164
2017    24      5       0.1543303       41.98585
2017    24      6       0.1407261       39.15951
2017    24      7       0.1004801       30.3036
2017    25      0       0.08496281      26.73206
2017    25      1       0.1026886       30.84035
2017    25      2       0.1241334       35.5345
2017    25      3       0.1425124       39.47242
2017    25      4       0.1555915       42.28857
2017    25      5       0.1649066       44.24748
2017    25      6       0.1622532       43.77173
2017    25      7       0.1378316       38.51161
2017    26      0       0.1218354       34.84581
2017    26      1       0.1653073       43.95689
2017    26      2       0.2081229       52.66687
2017    26      3       0.2269722       56.35961
2017    26      4       0.1981913       50.5002
2017    26      5       0.1751873       45.78028
2017    26      6       0.1415554       38.70443
2017    26      7       0.09826089      29.60192
2017    27      0       0.09587562      29.0627
2017    27      1       0.1477185       40.63346
2017    27      2       0.3895718       86.74833
2017    27      3       0.3242173       75.14474
2017    27      4       0.2477203       60.58673
2017    27      5       0.2063738       52.23642
2017    27      6       0.1829941       47.80734
2017    27      7       0.1575729       42.73606
2017    28      0       0.1426206       39.52994
2017    28      1       0.1456636       40.45863
2017    28      2       0.1908752       50.24951
2017    28      3       0.1390378       39.11734
2017    28      4       0.1110068       32.60087
2017    28      5       0.1080259       31.73402
2017    28      6       0.1013808       30.42326
2017    28      7       0.1114479       32.55237
2018    1       0       0.7303825       134.6368
2018    1       1       0.8595211       149.2381
2018    1       2       0.9258437       156.9814
2018    1       3       0.8794936       152.9403
2018    1       4       0.8131401       145.9319
2018    1       5       0.7685777       140.7177
2018    1       6       0.5106636       106.8137
2018    1       7       0.1727525       46.43916
2018    2       0       0.0830608       26.30441
2018    2       1       0.1419095       39.11776
2018    2       2       0.3179843       73.15569
2018    2       3       0.476071        99.72816
2018    2       4       0.6053751       118.8276
2018    2       5       0.7288561       134.9204
2018    2       6       0.5473371       111.3168
2018    2       7       0.3563617       81.4867
2018    3       0       0.280081        67.43237
2018    3       1       0.2198279       55.7595
2018    3       2       0.1262294       36.12397
2018    3       3       0.1089524       31.98317
2018    3       4       0.08357555      26.33563
2018    3       5       0.08205649      26.10261
2018    3       6       0.1140185       33.3995
2018    3       7       0.1102731       32.06566
2018    4       0       0.09593889      29.31579
2018    4       1       0.1155735       33.68476
2018    4       2       0.1182268       34.27744
2018    4       3       0.1820287       47.51516
2018    4       4       0.2684976       64.03403
2018    4       5       0.2915274       68.12397
2018    4       6       0.1689154       44.48995
2018    4       7       0.1863747       48.03247
2018    5       0       0.2599898       62.21828
2018    5       1       0.3545275       79.30367
2018    5       2       0.2971824       69.23274
2018    5       3       0.1828119       47.42148
2018    5       4       0.22452         55.49795
2018    5       5       0.2831426       66.36927
2018    5       6       0.2334552       56.99433
2018    5       7       0.1913793       48.83048
2018    6       0       0.1667197       43.82526
2018    6       1       0.2327624       56.88268
2018    6       2       0.2291361       56.19923
2018    6       3       0.2524187       60.5667
2018    6       4       0.2301223       56.30135
2018    6       5       0.2077338       51.858
2018    6       6       0.2485948       59.55358
2018    6       7       0.2009474       50.47725
2018    7       0       0.1791144       46.34127
2018    7       1       0.2583342       61.72115
2018    7       2       0.2310918       56.58628
2018    7       3       0.209105        52.18972
2018    7       4       0.2649526       62.88498
2018    7       5       0.1983287       50.24358
2018    7       6       0.1997695       50.71781
2018    7       7       0.176281        45.87967
2018    8       0       0.1962442       49.84952
2018    8       1       0.2155571       53.47943
2018    8       2       0.2435614       58.74203
2018    8       3       0.1575336       42.13188
2018    8       4       0.08322256      26.1896
2018    8       5       0.08947816      27.54787
2018    8       6       0.08143393      25.71545
2018    8       7       0.07713627      24.75993
2018    9       0       0.09739363      29.23484
2018    9       1       0.1449937       39.32063
2018    9       2       0.2521602       60.95553
2018    9       3       0.3520827       79.56128
2018    9       4       0.3461892       79.27577
2018    9       5       0.3512609       80.10306
2018    9       6       0.6073271       119.6502
2018    9       7       0.8057697       145.2755
2018    10      0       0.9031381       156.2993
2018    10      1       1.074391        172.9113
2018    10      2       1.13011         178.7564
2018    10      3       1.247662        188.4519
2018    10      4       1.326833        194.0765
2018    10      5       1.303831        192.9783
2018    10      6       0.9516342       163.1949
2018    10      7       0.7945434       146.1714
2018    11      0       0.5725176       116.6956
2018    11      1       0.08064877      25.74822
2018    11      2       0.08113885      26.01388
2018    11      3       0.08637382      27.21573
2018    11      4       0.1581165       42.99923
2018    11      5       0.1941948       49.82027
2018    11      6       0.1644595       43.34613
2018    11      7       0.1704628       44.41063
2018    12      0       0.2118039       52.74629
2018    12      1       0.2582247       61.81809
2018    12      2       0.1836288       47.48812
2018    12      3       0.165318        43.91155
2018    12      4       0.1878828       48.53568
2018    12      5       0.1730875       45.36137
2018    12      6       0.2599015       61.99152
2018    12      7       0.229958        56.26417
2018    13      0       0.2262103       55.54022
2018    13      1       0.2389043       58.1388
2018    13      2       0.1707697       44.97739
2018    13      3       0.1241563       35.27151
2018    13      4       0.1659602       44.27696
2018    13      5       0.2075178       52.73332
2018    13      6       0.2309322       57.34967
2018    13      7       0.2373381       58.55002
2018    14      0       0.2052862       52.27262
2018    14      1       0.1662718       44.42596
2018    14      2       0.1752868       46.63456
2018    14      3       0.2265186       56.58851
2018    14      4       0.3023894       70.8514
2018    14      5       0.4766555       100.5348
2018    14      6       0.7137665       133.7872
2018    14      7       0.6400609       124.48
2018    15      0       0.5086515       105.7325
2018    15      1       0.3105318       72.70202
2018    15      2       0.4339531       94.29504
2018    15      3       0.3165074       74.35989
2018    15      4       0.1557936       41.97572
2018    15      5       0.1545353       41.55964
2018    15      6       0.1786718       46.56236
2018    15      7       0.2458111       59.94706
2018    16      0       0.3288044       75.33324
2018    16      1       0.4783933       100.375
2018    16      2       0.6549025       125.6235
2018    16      3       0.76109         139.0509
2018    16      4       0.840743        148.0667
2018    16      5       0.3764243       84.73497
2018    16      6       0.2718963       66.29275
2018    16      7       0.134675        38.10922
2018    17      0       0.1974476       51.11936
2018    17      1       0.3718836       83.14755
2018    17      2       0.1927783       49.47227
2018    17      3       0.1281315       36.05728
2018    17      4       0.1076226       31.63961
2018    17      5       0.106388        31.20766
2018    17      6       0.1573385       42.1256
2018    17      7       0.208875        52.65314
2018    18      0       0.2726008       65.04221
2018    18      1       0.2833231       67.68769
2018    18      2       0.3428743       78.50523
2018    18      3       0.4139242       90.03051
2018    18      4       0.4253244       91.63979
2018    18      5       0.3576271       80.85943
2018    18      6       0.3159435       73.648
2018    18      7       0.2192761       54.99775
2018    19      0       0.1805483       46.72318
2018    19      1       0.189636        48.7889
2018    19      2       0.2623602       62.51523
2018    19      3       0.4304552       91.69605
2018    19      4       0.5640744       111.8968
2018    19      5       0.5975743       116.7107
2018    19      6       0.2920186       69.00357
2018    19      7       0.1596119       42.83415
2018    20      0       0.1637556       43.73819
2018    20      1       0.2652906       63.8606
2018    20      2       0.3175077       73.42087
2018    20      3       0.3700095       82.78838
2018    20      4       0.3129788       72.52939
2018    20      5       0.2763972       65.50159
2018    20      6       0.2786812       65.79778
2018    20      7       0.292929        68.26704
2018    21      0       0.2590845       61.93302
2018    21      1       0.2199099       54.29493
2018    21      2       0.2119325       52.83134
2018    21      3       0.2468145       59.79974
2018    21      4       0.3385496       76.95052
2018    21      5       0.3135779       72.82118
2018    21      6       0.2859967       67.45704
2018    21      7       0.2431455       59.17473
2018    22      0       0.1876315       48.49931
2018    22      1       0.2532757       61.43406
2018    22      2       0.3327498       75.49389
2018    22      3       0.3269471       74.32523
2018    22      4       0.3053145       70.56605
2018    22      5       0.1462999       39.93558
2018    22      6       0.1071062       31.63659
2018    22      7       0.104129        30.81455
2018    23      0       0.1068547       31.43511
2018    23      1       0.1349564       37.64404
2018    23      2       0.1755458       46.19573
2018    23      3       0.2392362       59.34226
2018    23      4       0.2326688       57.92454
2018    23      5       0.2817049       67.5243
2018    23      6       0.3081348       72.67384
2018    23      7       0.3082916       72.91727
2018    24      0       0.3193709       74.97607
2018    24      1       0.4660382       99.5324
2018    24      2       0.453981        97.32726
2018    24      3       0.4185673       91.46249
2018    24      4       0.4153164       90.85334
2018    24      5       0.4484885       96.22258
2018    24      6       0.4620427       98.32837
2018    24      7       0.5189602       106.5741
2018    25      0       0.6274008       121.1502
2018    25      1       0.659839        125.7493
2018    25      2       0.7087116       132.086
2018    25      3       0.6946026       130.4087
2018    25      4       0.6136471       120.1233
2018    25      5       0.4890393       102.2733
2018    25      6       0.418807        90.89437
2018    25      7       0.2094222       52.79175
2018    26      0       0.1369388       38.08575
2018    26      1       0.1632853       43.97561
2018    26      2       0.2130787       54.28307
2018    26      3       0.2774026       66.09237
2018    26      4       0.2759121       65.67801
2018    26      5       0.2556972       61.70856
2018    26      6       0.2574861       62.21462
2018    26      7       0.3338533       76.28766
2018    27      0       0.3229871       74.58153
2018    27      1       0.2772401       66.37135
2018    27      2       0.3262593       75.90936
2018    27      3       0.2118431       53.68642
2018    27      4       0.2524906       61.21328
2018    27      5       0.3311232       75.88113
2018    27      6       0.4176309       90.83032
2018    27      7       0.5247147       107.5807
2018    28      0       0.5697088       114.1898
2018    28      1       0.6290549       122.2291
2018    28      2       0.6549391       125.6963
2018    28      3       1.059914        169.7724
2018    28      4       0.9627912       162.2417
2018    28      5       1.376968        197.168
2018    28      6       1.277742        190.9086
2018    28      7       1.418812        199.8216
