####################################################################################################
# Month: 06Jun                                                                                     #
# Station: NZ                                                                                      #
# Frequency: 230 GHz                                                                               #
# Columns are: year    day     tau     Tb (K)                                                      #
####################################################################################################
2009    1       0.08586214      25.6756375
2009    2       0.09163916      27.21284625
2009    3       0.07880022      24.30632625
2009    4       0.2220574       55.50319625
2009    5       0.2792486       66.884625
2009    6       0.16786659      44.273195
2009    7       0.27133521      66.5974825
2009    8       0.36420745      81.65130375
2009    9       0.50969398      107.628765
2009    10      0.45893465      100.057295
2009    11      0.45789736      99.05826625
2009    12      0.54725252      113.08509625
2009    13      0.3100073       72.97831875
2009    14      0.17997344      43.9552775
2009    15      0.25555808      61.9480675
2009    16      0.16863706      43.918905
2009    17      0.18942062      47.7499825
2009    18      0.07661862      23.5613625
2009    19      0.11246216      32.0984375
2009    20      0.08400374      25.278805
2009    21      0.13785886      37.908885
2009    22      0.08215906      25.00593875
2009    23      0.3125844       72.534465
2009    24      0.28306787      67.68165875
2009    25      0.28736864      67.3281275
2009    26      0.16630664      43.33533125
2009    27      0.25173057      61.69146625
2009    28      0.3530903       81.35818875
2009    29      0.27230151      65.47323375
2009    30      0.20885806      52.99740625
2010    1       0.30786996      73.0448575
2010    2       0.2031243       51.99348875
2010    3       0.13484482      37.275565
2010    4       0.12417881      35.03836875
2010    5       0.38131791      82.81454625
2010    6       0.78743974      146.751875
2010    7       0.36917656      80.50917625
2010    8       0.11198219      32.05633875
2010    9       0.13111031      36.64761375
2010    10      0.44377886      96.4572
2010    11      0.2579769       62.48985
2010    12      0.27341746      64.642455
2010    13      0.22324131      55.09768
2010    14      0.2222061       55.62291375
2010    15      0.18315908      47.7967275
2010    16      0.10367509      30.0934525
2010    17      0.1266503       34.9019075
2010    18      0.3635384       83.82722875
2010    19      0.5830551       118.19325875
2010    20      0.48571384      101.971475
2010    21      0.18070947      46.393275
2010    22      0.3148792       72.5174925
2010    23      0.2033041       51.6511375
2010    24      0.16927938      44.54154875
2010    25      0.18244399      46.59303125
2010    26      0.2991845       71.6531725
2010    27      0.35659032      82.44080375
2010    28      0.1472453       40.06596625
2010    29      0.17185129      45.1055125
2010    30      0.19345135      49.631795
2011    1       0.16425778      43.61844875
2011    2       0.1208357       34.2588325
2011    3       0.39113755      87.08061375
2011    4       0.55872074      117.52619375
2011    5       0.26985301      65.738825
2011    6       0.34744031      79.174475
2011    7       0.22397431      56.6269575
2011    8       0.11113889      31.7263475
2011    9       0.25800379      60.32688
2011    10      0.40540719      90.297365
2011    11      0.17981267      46.46518625
2011    12      0.22973271      57.93520125
2011    13      0.228444        57.67840875
2011    14      0.22264068      55.38876
2011    15      0.36192631      82.95746
2011    16      0.13828435      38.1137125
2011    17      0.37964775      81.0482775
2011    18      0.58179912      118.4575875
2011    19      0.46122376      100.8831025
2011    20      0.35662684      83.13426
2011    21      0.23581178      58.81299125
2011    22      0.35944719      79.159475
2011    23      0.35171301      78.78473125
2011    24      0.22423295      55.77932625
2011    25      0.23297118      57.61813
2011    26      0.35761943      82.1722225
2011    27      0.15808392      41.35097625
2011    28      0.12340324      34.041525
2011    29      0.17713442      46.3571325
2011    30      0.11425039      32.632075
2012    1       0.20148226      51.9544525
2012    2       0.20601359      52.20250125
2012    3       0.16891426      44.20168125
2012    4       0.28852526      66.83643375
2012    5       0.61157724      121.34010875
2012    6       0.09769093      28.60492875
2012    7       0.2656049       63.9618275
2012    8       0.3409517       78.35282875
2012    9       0.25057469      62.06382
2012    10      0.28540336      68.79587375
2012    11      0.15678344      41.5275925
2012    12      0.28660955      69.0186325
2012    13      0.18006818      47.32809
2012    14      0.21236546      52.763255
2012    15      0.1956485       48.7675975
2012    16      0.11139039      31.44018375
2012    17      0.4824234       100.31478125
2012    18      0.47128171      102.4814425
2012    19      0.28700976      69.61291125
2012    20      0.22032908      55.37969625
2012    21      0.1297302       35.9782175
2012    22      0.30511502      72.1383975
2012    23      0.37999569      83.67987
2012    24      0.17509706      44.245125
2012    25      0.30461504      71.32259125
2012    26      0.24805736      59.48140875
2012    27      0.1993368       50.5001725
2012    28      0.14470772      38.25702125
2012    29      0.08767715      26.1874075
2012    30      0.11878654      33.4058625
2013    1       0.5032298       108.32954125
2013    2       0.53016473      110.90178625
2013    3       0.42010209      90.9668325
2013    4       0.16950994      43.82322375
2013    5       0.13122216      36.4224875
2013    6       0.09978214      29.11703875
2013    7       0.18736933      48.6986675
2013    8       0.48965825      104.344505
2013    9       0.36157681      83.82654375
2013    10      0.24551958      61.5636
2013    11      0.20271062      51.98479625
2013    12      0.33111454      76.79706
2013    13      0.28814119      68.62132375
2013    14      0.22878264      53.07311125
2013    15      0.81905594      150.3495375
2013    16      0.87112076      155.996875
2013    17      0.61664542      122.31973125
2013    18      0.70113784      135.1625375
2013    19      0.60192034      120.032475
2013    20      0.48787041      101.69780125
2013    21      0.45154585      96.457105
2013    22      0.31382145      72.16827125
2013    23      0.26784522      64.1333225
2013    24      0.10827742      30.9343525
2013    25      0.13762118      37.70445625
2013    26      0.12511855      34.92223375
2013    27      0.14743171      39.998505
2013    28      0.15591017      41.66997875
2013    29      0.24886629      60.2484
2013    30      0.12231478      33.86982375
2014    1       0.18637236      48.8569875
2014    2       0.09676175      28.48744125
2014    3       0.07198058      22.590565
2014    4       0.24945098      58.71539
2014    5       0.66598011      131.82795
2014    6       0.51255341      108.71147125
2014    7       0.28084506      67.4862225
2014    8       0.52853869      109.60057125
2014    9       0.5854517       118.70238
2014    10      0.40201161      87.31908625
2014    11      0.2735666       65.5313375
2014    12      0.11430735      33.04706625
2014    13      0.21123162      53.7147275
2014    14      0.4143352       92.38652125
2014    15      0.52582871      109.96417375
2014    16      0.68340721      133.7473125
2014    17      0.50332969      105.155625
2014    18      0.27847065      66.14704
2014    19      0.17208935      45.0265525
2014    20      0.29404081      69.4882475
2014    21      0.20418895      52.6192775
2014    22      0.2233152       57.09386625
2014    23      0.15786883      42.5504575
2014    24      0.58060455      119.7856225
2014    25      0.49311529      105.39895125
2014    26      0.40890981      90.3855075
2014    27      0.34313681      77.49949125
2014    28      0.19185554      49.37618375
2014    29      0.36050321      81.68740625
2014    30      0.32024469      73.703475
2015    1       0.56157945      117.2612625
2015    2       0.47496005      101.3373725
2015    3       0.5889895       119.91520375
2015    4       0.18485835      47.95514
2015    5       0.07110025      22.4571775
2015    6       0.19483315      49.2222725
2015    7       0.22670206      56.60070625
2015    8       0.389034        88.0747825
2015    9       0.41330031      93.19503625
2015    10      0.31546314      72.83295375
2015    11      0.38516774      85.54731
2015    12      0.28228416      66.34194
2015    13      0.33784062      79.13540625
2015    14      0.3596191       79.944985
2015    15      0.27091141      64.91737125
2015    16      0.15442123      41.145065
2015    17      0.34977992      79.9924825
2015    18      0.72771774      139.3837375
2015    19      0.25636534      63.76823
2015    20      0.18492452      48.05400375
2015    21      0.24965441      58.89296
2015    22      0.06965432      22.036415
2015    23      0.07861486      24.2529475
2015    24      0.12121554      33.6760225
2015    25      0.23322119      55.6339625
2015    26      0.19025427      47.340215
2015    27      0.13292487      35.78961875
2015    28      0.20577343      52.02883375
2015    29      0.26884785      63.85686875
2015    30      0.13754559      37.51358875
2016    1       0.1571051       41.80717875
2016    2       0.08219333      24.95215
2016    3       0.17389835      45.6221825
2016    4       0.09766714      28.7688875
2016    5       0.08226889      25.1640825
2016    6       0.08086856      24.7859325
2016    7       0.10000005      29.45436
2016    8       0.3543008       72.92633375
2016    9       0.56687146      119.04574375
2016    10      0.34051806      76.254955
2016    11      0.3752896       84.53720625
2016    12      0.22900326      54.91214625
2016    13      0.29722227      71.1021825
2016    14      0.31292065      73.90907625
2016    15      0.16261818      43.1522
2016    16      0.08676389      26.3110325
2016    17      0.1482508       40.45356
2016    18      0.43292151      94.2865225
2016    19      0.22278301      56.49418125
2016    20      0.49323788      103.93654
2016    21      0.68101449      134.2099875
2016    22      0.76090334      144.230975
2016    23      0.5240734       106.59841875
2016    24      0.09676486      28.49233875
2016    25      0.43510919      93.73623625
2016    26      0.43442972      95.78919875
2016    27      0.36475149      83.43958
2016    28      0.13588682      37.248765
2016    29      0.12354809      34.59079625
2016    30      0.03991515      14.48919375
2017    1       0.46883002      101.6848625
2017    2       0.30383118      72.116915
2017    3       0.24860465      60.8350625
2017    4       0.36861755      82.39884125
2017    5       0.24263364      60.193135
2017    6       0.16743595      44.43567875
2017    7       0.29936695      71.34720875
2017    8       0.18786174      49.32759
2017    9       0.17705532      46.61788875
2017    10      0.30124726      71.58083125
2017    11      0.19833231      51.29848625
2017    12      0.31720738      74.9444925
2017    13      0.24656239      59.02184625
2017    14      0.14675139      39.49976375
2017    15      0.23398506      58.43669375
2017    16      0.21182988      53.92731
2017    17      0.20250866      51.978525
2017    18      0.31286919      72.5721525
2017    19      0.14524675      39.693225
2017    20      0.13056608      36.784265
2017    21      0.61053476      118.7246
2017    22      0.55700161      114.60505
2017    23      0.55368024      114.0240275
2017    24      0.26992122      63.80539125
2017    25      0.10890011      30.94112875
2017    26      0.27693491      66.07817875
2017    27      0.39084241      88.21400625
2017    28      0.23137308      57.82307125
2017    29      0.25600395      61.96795375
2017    30      0.68183179      131.9727875
2018    1       0.09158376      27.60394
2018    2       0.12424237      35.30857375
2018    3       0.25582471      62.23023875
2018    4       0.39710934      88.267005
2018    5       0.25215157      59.45313
2018    6       0.39219401      85.78496875
2018    7       0.12736447      35.1629575
2018    8       0.08771454      26.11083
2018    9       0.43511351      93.69079125
2018    10      0.60955202      122.765125
2018    11      0.38840229      87.6893475
2018    12      0.46329442      100.6521925
2018    13      0.48049354      104.01013875
2018    14      0.29457392      70.5308125
2018    15      0.42498155      95.22402
2018    16      0.38652491      84.72454375
2018    17      0.38939591      88.150875
2018    18      0.27524777      66.50583
2018    19      0.3250146       75.936055
2018    20      0.16284454      44.185185
2018    21      0.16713071      45.1182
2018    22      0.17951879      47.29419
2018    23      0.23412269      58.30725
2018    24      0.25126344      60.62828875
2018    25      0.2553012       61.405775
2018    26      0.2806065       67.37571
2018    27      0.20196372      52.013175
2018    28      0.17305192      45.6501975
2018    29      0.14857739      40.12453
2018    30      0.2346732       57.01219875
